

 Wavenumbers:   820. - 50000. cm-1, ATM      1
 LEVEL PRESSURE   UPWARD FLUX   DIFDOWN FLUX  DIRDOWN FLUX  DOWNWARD FLUX   NET FLUX    HEATING RATE
          mb          W/m2          W/m2          W/m2        W/m2          W/m2       degree/day
  51    .06700      771.5900        0.0000     1360.8491     1360.8491     589.259185       0.00000
  50    .07753      771.5901        0.0018     1360.8273     1360.8290     589.238932      16.23269
  49    .09103      771.5903        0.0040     1360.8078     1360.8118     589.221406      10.95464
  48    0.1069      771.5907        0.0065     1360.7860     1360.7925     589.201836      10.41705
  47    0.1255      771.5911        0.0095     1360.7600     1360.7694     589.178296      10.67173
  46    0.1487      771.5918        0.0131     1360.7249     1360.7380     589.146167      11.71143
  45    0.1794      771.5930        0.0182     1360.6734     1360.6916     589.098632      13.04946
  44    0.2165      771.5945        0.0241     1360.6074     1360.6315     589.036959      14.02956
  43    0.2613      771.5967        0.0312     1360.5219     1360.5531     588.956412      15.18279
  42    0.3336      771.6009        0.0428     1360.3673     1360.4101     588.809218      17.16143
  41    0.4307      771.6073        0.0582     1360.1456     1360.2038     588.596459      18.49886
  40    0.5894      771.6197        0.0830     1359.7482     1359.8313     588.211540      20.46952
  39     1.339      771.7138        0.1974     1357.3733     1357.5707     585.856938      26.50854
  38     1.782      771.7942        0.2623     1355.8375     1356.0998     584.305557      29.53580
  37     2.292      771.9105        0.3363     1354.1208     1354.4571     582.546652      29.13204
  36     2.964      772.0985        0.4326     1352.1205     1352.5531     580.454611      26.26145
  35     3.853      772.3965        0.5591     1349.9734     1350.5326     578.136080      22.00328
  34     5.035      772.8412        0.7266     1347.7761     1348.5027     575.661454      17.67770
  33     6.613      773.4613        0.9496     1345.5290     1346.4786     573.017251      14.13591
  32     8.786      774.2737        1.2495     1343.2079     1344.4573     570.183666      11.00462
  31     11.80      775.3454        1.6776     1340.6494     1342.3270     566.981628       8.96470
  30     15.07      776.3911        2.1364     1338.4304     1340.5668     564.175683       7.24440
  29     18.79      777.4790        2.6536     1336.2864     1338.9401     561.461088       6.15482
  28     23.16      778.6420        3.2569     1334.1057     1337.3625     558.720485       5.29944
  27     28.12      779.8456        3.9459     1331.9136     1335.8594     556.013827       4.60114
  26     33.73      781.0049        4.7172     1329.7853     1334.5026     553.497659       3.78313
  25     40.54      782.1846        5.6494     1327.5375     1333.1869     551.002233       3.09586
  24     48.69      783.3918        6.7732     1325.1261     1331.8993     548.507504       2.58165
  23     57.69      784.5067        8.0074     1322.7388     1330.7462     546.239441       2.12597
  22     68.43      785.6023        9.4772     1320.1544     1329.6316     544.029369       1.73741
  21     81.20      786.5786       11.2302     1317.3916     1328.6218     542.043227       1.31241
  20     96.49      787.4311       13.3195     1314.3811     1327.7006     540.269462       0.97899
  19     114.6      788.3080       15.7949     1310.9471     1326.7419     538.433977       0.85704
  18     136.5      789.2336       18.7153     1306.9977     1325.7130     536.479373       0.75159
  17     162.9      790.2316       22.1740     1302.3518     1324.5259     534.294230       0.69846
  16     196.4      791.2936       26.6357     1296.2678     1322.9035     531.609934       0.67567
  15     218.7      791.9045       29.5476     1291.7724     1321.3200     529.415496       0.83315
  14     243.0      792.5299       32.6958     1286.1481     1318.8439     526.314039       1.07569
  13     269.0      793.1689       36.0882     1279.0245     1315.1127     521.943751       1.41770
  12     297.5      793.8272       39.7316     1270.1087     1309.8403     516.013092       1.75897
  11     328.5      794.5286       43.6416     1260.1713     1303.8128     509.284236       1.82956
  10     361.9      795.2799       47.8204     1249.4297     1297.2501     501.970205       1.85052
   9     398.1      796.0944       52.2824     1237.6382     1289.9205     493.826098       1.89739
   8     437.6      796.9967       57.0332     1224.3920     1281.4252     484.428474       2.00927
   7     480.5      798.0087       62.0801     1209.7358     1271.8159     473.807256       2.08597
   6     533.0      799.3556       68.2295     1191.2571     1259.4867     460.131062       2.20006
   5     589.8      801.0178       74.7803     1170.7333     1245.5137     444.495912       2.32077
   4     651.6      803.2710       81.7336     1147.0297     1228.7634     425.492383       2.59878
   3     718.7      806.4325       89.0910     1120.8952     1209.9862     403.553677       2.75709
   2     792.3      811.2680       96.8370     1092.1619     1188.9988     377.730810       2.96159
   1     891.5      821.8595      107.0740     1053.3991     1160.4731     338.613589       3.32869
   0    1013.0      847.4113      119.0467     1008.4859     1127.5326     280.121310       4.06142



 Wavenumbers:  2600. -  3250. cm-1, ATM      1
 LEVEL PRESSURE   UPWARD FLUX   DIFDOWN FLUX  DIRDOWN FLUX  DOWNWARD FLUX   NET FLUX    HEATING RATE
          mb          W/m2          W/m2          W/m2        W/m2          W/m2       degree/day
  51    .06700        2.1853        0.0000       11.9937       11.9937       9.808397       0.00000
  50    .07753        2.1853        0.0000       11.9937       11.9937       9.808389       0.00640
  49    .09103        2.1853        0.0000       11.9937       11.9937       9.808379       0.00627
  48    0.1069        2.1853        0.0000       11.9937       11.9937       9.808368       0.00613
  47    0.1255        2.1853        0.0000       11.9937       11.9937       9.808355       0.00600
  46    0.1487        2.1853        0.0000       11.9937       11.9937       9.808338       0.00608
  45    0.1794        2.1853        0.0000       11.9936       11.9936       9.808315       0.00625
  44    0.2165        2.1853        0.0000       11.9936       11.9936       9.808288       0.00613
  43    0.2613        2.1853        0.0000       11.9936       11.9936       9.808256       0.00601
  42    0.3336        2.1853        0.0000       11.9935       11.9935       9.808203       0.00619
  41    0.4307        2.1853        0.0000       11.9935       11.9935       9.808132       0.00622
  40    0.5894        2.1853        0.0000       11.9933       11.9933       9.808011       0.00640
  39     1.339        2.1853        0.0000       11.9926       11.9926       9.807295       0.00806
  38     1.782        2.1853        0.0000       11.9921       11.9921       9.806740       0.01057
  37     2.292        2.1853        0.0000       11.9913       11.9913       9.806000       0.01226
  36     2.964        2.1853        0.0000       11.9902       11.9902       9.804910       0.01368
  35     3.853        2.1853        0.0000       11.9886       11.9886       9.803325       0.01504
  34     5.035        2.1853        0.0000       11.9864       11.9864       9.801051       0.01624
  33     6.613        2.1853        0.0000       11.9832       11.9832       9.797835       0.01719
  32     8.786        2.1853        0.0000       11.9787       11.9787       9.793351       0.01742
  31     11.80        2.1853        0.0000       11.9722       11.9722       9.786877       0.01812
  30     15.07        2.1853        0.0000       11.9654       11.9654       9.780068       0.01758
  29     18.79        2.1853        0.0000       11.9581       11.9581       9.772777       0.01653
  28     23.16        2.1853        0.0000       11.9502       11.9502       9.764852       0.01532
  27     28.12        2.1853        0.0000       11.9418       11.9418       9.756509       0.01418
  26     33.73        2.1853        0.0000       11.9329       11.9329       9.747539       0.01349
  25     40.54        2.1854        0.0000       11.9222       11.9222       9.736829       0.01329
  24     48.69        2.1854        0.0000       11.9093       11.9094       9.723972       0.01331
  23     57.69        2.1854        0.0000       11.8949       11.8950       9.709552       0.01352
  22     68.43        2.1855        0.0000       11.8770       11.8771       9.691602       0.01411
  21     81.20        2.1855        0.0000       11.8544       11.8544       9.668871       0.01502
  20     96.49        2.1856        0.0000       11.8256       11.8257       9.640038       0.01591
  19     114.6        2.1858        0.0001       11.7886       11.7887       9.602905       0.01734
  18     136.5        2.1860        0.0001       11.7429       11.7430       9.557040       0.01764
  17     162.9        2.1862        0.0001       11.6869       11.6870       9.500763       0.01799
  16     196.4        2.1867        0.0001       11.6129       11.6130       9.426258       0.01875
  15     218.7        2.1872        0.0001       11.5605       11.5606       9.373353       0.02009
  14     243.0        2.1881        0.0001       11.4957       11.4958       9.307712       0.02277
  13     269.0        2.1894        0.0001       11.4130       11.4131       9.223768       0.02723
  12     297.5        2.1913        0.0001       11.3101       11.3103       9.118937       0.03109
  11     328.5        2.1940        0.0001       11.1933       11.1934       8.999362       0.03251
  10     361.9        2.1977        0.0002       11.0632       11.0633       8.865599       0.03384
   9     398.1        2.2028        0.0002       10.9149       10.9151       8.712304       0.03571
   8     437.6        2.2097        0.0002       10.7385       10.7387       8.529027       0.03919
   7     480.5        2.2191        0.0002       10.5233       10.5235       8.304350       0.04413
   6     533.0        2.2342        0.0002       10.2141       10.2143       7.980105       0.05216
   5     589.8        2.2567        0.0002        9.8147        9.8149       7.558232       0.06262
   4     651.6        2.2927        0.0002        9.2987        9.2990       7.006293       0.07548
   3     718.7        2.3494        0.0002        8.7065        8.7067       6.357305       0.08156
   2     792.3        2.4450        0.0003        8.0516        8.0518       5.606821       0.08607
   1     891.5        2.6753        0.0003        7.1628        7.1631       4.487716       0.09523
   0    1013.0        3.3301        0.0002        6.1112        6.1114       2.781311       0.11848



 Wavenumbers:  3250. -  4000. cm-1, ATM      1
 LEVEL PRESSURE   UPWARD FLUX   DIFDOWN FLUX  DIRDOWN FLUX  DOWNWARD FLUX   NET FLUX    HEATING RATE
          mb          W/m2          W/m2          W/m2        W/m2          W/m2       degree/day
  51    .06700        0.0024        0.0000       20.2197       20.2197      20.217290       0.00000
  50    .07753        0.0024        0.0000       20.2140       20.2140      20.211621       4.54406
  49    .09103        0.0024        0.0000       20.2088       20.2088      20.206390       3.26932
  48    0.1069        0.0024        0.0000       20.2043       20.2043      20.201966       2.35506
  47    0.1255        0.0024        0.0000       20.2005       20.2005      20.198086       1.75884
  46    0.1487        0.0024        0.0000       20.1965       20.1965      20.194164       1.42967
  45    0.1794        0.0024        0.0000       20.1921       20.1921      20.189722       1.21962
  44    0.2165        0.0024        0.0000       20.1875       20.1875      20.185155       1.03878
  43    0.2613        0.0024        0.0000       20.1827       20.1827      20.180316       0.91222
  42    0.3336        0.0024        0.0000       20.1757       20.1757      20.173294       0.81870
  41    0.4307        0.0024        0.0000       20.1678       20.1678      20.165399       0.68638
  40    0.5894        0.0024        0.0000       20.1571       20.1571      20.154705       0.56870
  39     1.339        0.0024        0.0000       20.1195       20.1195      20.117173       0.42255
  38     1.782        0.0024        0.0000       20.1017       20.1017      20.099341       0.33948
  37     2.292        0.0024        0.0000       20.0837       20.0837      20.081315       0.29857
  36     2.964        0.0024        0.0000       20.0629       20.0629      20.060564       0.26048
  35     3.853        0.0024        0.0000       20.0387       20.0387      20.036364       0.22966
  34     5.035        0.0024        0.0000       20.0099       20.0099      20.007522       0.20604
  33     6.613        0.0024        0.0000       19.9743       19.9743      19.971972       0.19005
  32     8.786        0.0024        0.0000       19.9279       19.9279      19.925569       0.18021
  31     11.80        0.0023        0.0000       19.8609       19.8609      19.858532       0.18768
  30     15.07        0.0023        0.0000       19.7861       19.7861      19.783738       0.19310
  29     18.79        0.0023        0.0000       19.6981       19.6981      19.695811       0.19936
  28     23.16        0.0023        0.0000       19.5924       19.5924      19.590090       0.20443
  27     28.12        0.0023        0.0000       19.4692       19.4692      19.466878       0.20945
  26     33.73        0.0023        0.0000       19.3318       19.3319      19.329554       0.20647
  25     40.54        0.0023        0.0001       19.1703       19.1704      19.168075       0.20033
  24     48.69        0.0023        0.0001       18.9874       18.9875      18.985186       0.18926
  23     57.69        0.0023        0.0001       18.8032       18.8032      18.800963       0.17268
  22     68.43        0.0023        0.0001       18.6047       18.6048      18.602555       0.15598
  21     81.20        0.0023        0.0001       18.3903       18.3904      18.388189       0.14165
  20     96.49        0.0022        0.0001       18.1531       18.1532      18.150947       0.13094
  19     114.6        0.0022        0.0001       17.8720       17.8722      17.869951       0.13121
  18     136.5        0.0022        0.0002       17.5464       17.5465      17.544349       0.12520
  17     162.9        0.0022        0.0002       17.1484       17.1486      17.146468       0.12718
  16     196.4        0.0021        0.0002       16.5656       16.5658      16.563701       0.14669
  15     218.7        0.0021        0.0002       16.0235       16.0238      16.021681       0.20579
  14     243.0        0.0021        0.0003       15.2654       15.2657      15.263584       0.26293
  13     269.0        0.0021        0.0003       14.2510       14.2513      14.249203       0.32906
  12     297.5        0.0020        0.0003       13.0349       13.0352      13.033116       0.36068
  11     328.5        0.0020        0.0003       11.8274       11.8277      11.825639       0.32831
  10     361.9        0.0020        0.0002       10.6546       10.6548      10.652787       0.29674
   9     398.1        0.0020        0.0002        9.4801        9.4803       9.478289       0.27363
   8     437.6        0.0020        0.0002        8.3186        8.3188       8.316787       0.24834
   7     480.5        0.0021        0.0002        7.2534        7.2537       7.251590       0.20920
   6     533.0        0.0021        0.0002        6.1288        6.1290       6.126841       0.18094
   5     589.8        0.0023        0.0002        5.0588        5.0590       5.056677       0.15885
   4     651.6        0.0027        0.0001        3.9729        3.9731       3.970373       0.14855
   3     718.7        0.0035        0.0001        2.9378        2.9379       2.934330       0.13020
   2     792.3        0.0057        0.0001        1.9615        1.9616       1.955853       0.11222
   1     891.5        0.0176        0.0000        0.9920        0.9920       0.974382       0.08352
   0    1013.0        0.1698        0.0000        0.3116        0.3117       0.141833       0.05781



 Wavenumbers:  4000. -  4650. cm-1, ATM      1
 LEVEL PRESSURE   UPWARD FLUX   DIFDOWN FLUX  DIRDOWN FLUX  DOWNWARD FLUX   NET FLUX    HEATING RATE
          mb          W/m2          W/m2          W/m2        W/m2          W/m2       degree/day
  51    .06700        8.0154        0.0000       23.7440       23.7440      15.728614       0.00000
  50    .07753        8.0154        0.0000       23.7440       23.7440      15.728613       0.00080
  49    .09103        8.0154        0.0000       23.7440       23.7440      15.728612       0.00078
  48    0.1069        8.0154        0.0000       23.7440       23.7440      15.728610       0.00076
  47    0.1255        8.0154        0.0000       23.7440       23.7440      15.728609       0.00075
  46    0.1487        8.0154        0.0000       23.7440       23.7440      15.728607       0.00076
  45    0.1794        8.0154        0.0000       23.7440       23.7440      15.728604       0.00078
  44    0.2165        8.0154        0.0000       23.7440       23.7440      15.728601       0.00076
  43    0.2613        8.0154        0.0000       23.7440       23.7440      15.728597       0.00075
  42    0.3336        8.0154        0.0000       23.7440       23.7440      15.728590       0.00077
  41    0.4307        8.0154        0.0000       23.7439       23.7439      15.728581       0.00077
  40    0.5894        8.0154        0.0000       23.7439       23.7439      15.728566       0.00080
  39     1.339        8.0154        0.0000       23.7438       23.7438      15.728477       0.00101
  38     1.782        8.0154        0.0000       23.7438       23.7438      15.728407       0.00133
  37     2.292        8.0154        0.0000       23.7437       23.7437      15.728313       0.00156
  36     2.964        8.0154        0.0000       23.7435       23.7435      15.728172       0.00176
  35     3.853        8.0154        0.0000       23.7433       23.7433      15.727964       0.00198
  34     5.035        8.0154        0.0000       23.7430       23.7430      15.727656       0.00220
  33     6.613        8.0154        0.0000       23.7425       23.7426      15.727203       0.00242
  32     8.786        8.0154        0.0000       23.7418       23.7419      15.726533       0.00260
  31     11.80        8.0154        0.0001       23.7408       23.7408      15.725477       0.00296
  30     15.07        8.0154        0.0001       23.7395       23.7396      15.724235       0.00321
  29     18.79        8.0154        0.0001       23.7380       23.7381      15.722727       0.00342
  28     23.16        8.0154        0.0001       23.7361       23.7362      15.720848       0.00363
  27     28.12        8.0154        0.0001       23.7338       23.7339      15.718564       0.00388
  26     33.73        8.0154        0.0002       23.7309       23.7311      15.715731       0.00426
  25     40.54        8.0154        0.0002       23.7271       23.7273      15.711866       0.00479
  24     48.69        8.0155        0.0003       23.7219       23.7221      15.706678       0.00537
  23     57.69        8.0155        0.0003       23.7157       23.7160      15.700476       0.00581
  22     68.43        8.0157        0.0004       23.7079       23.7083      15.692641       0.00616
  21     81.20        8.0158        0.0004       23.6983       23.6987      15.682896       0.00644
  20     96.49        8.0161        0.0005       23.6865       23.6870      15.670928       0.00661
  19     114.6        8.0165        0.0006       23.6717       23.6723      15.655814       0.00706
  18     136.5        8.0170        0.0007       23.6537       23.6545      15.637421       0.00707
  17     162.9        8.0179        0.0009       23.6317       23.6325      15.614656       0.00728
  16     196.4        8.0193        0.0010       23.6012       23.6022      15.582884       0.00800
  15     218.7        8.0207        0.0011       23.5777       23.5788      15.558144       0.00939
  14     243.0        8.0227        0.0013       23.5456       23.5469      15.524169       0.01178
  13     269.0        8.0257        0.0014       23.4995       23.5009      15.475170       0.01590
  12     297.5        8.0302        0.0016       23.4351       23.4366      15.406450       0.02038
  11     328.5        8.0364        0.0017       23.3555       23.3572      15.320856       0.02327
  10     361.9        8.0444        0.0019       23.2571       23.2590      15.214572       0.02689
   9     398.1        8.0545        0.0021       23.1295       23.1316      15.077108       0.03203
   8     437.6        8.0671        0.0022       22.9586       22.9609      14.893742       0.03920
   7     480.5        8.0829        0.0024       22.7369       22.7394      14.656435       0.04661
   6     533.0        8.1067        0.0027       22.4191       22.4217      14.315065       0.05492
   5     589.8        8.1399        0.0029       22.0335       22.0365      13.896576       0.06212
   4     651.6        8.1909        0.0032       21.5654       21.5686      13.377650       0.07096
   3     718.7        8.2713        0.0034       21.0164       21.0198      12.748531       0.07906
   2     792.3        8.4061        0.0036       20.2979       20.3015      11.895402       0.09784
   1     891.5        8.7276        0.0039       19.1088       19.1126      10.385031       0.12853
   0    1013.0        9.6128        0.0041       17.6373       17.6414       8.028587       0.16362



 Wavenumbers:  4650. -  5150. cm-1, ATM      1
 LEVEL PRESSURE   UPWARD FLUX   DIFDOWN FLUX  DIRDOWN FLUX  DOWNWARD FLUX   NET FLUX    HEATING RATE
          mb          W/m2          W/m2          W/m2        W/m2          W/m2       degree/day
  51    .06700        5.8244        0.0000       22.4748       22.4748      16.650377       0.00000
  50    .07753        5.8244        0.0000       22.4746       22.4746      16.650141       0.18925
  49    .09103        5.8244        0.0000       22.4743       22.4743      16.649844       0.18504
  48    0.1069        5.8244        0.0000       22.4739       22.4739      16.649505       0.18064
  47    0.1255        5.8244        0.0000       22.4735       22.4735      16.649116       0.17622
  46    0.1487        5.8244        0.0000       22.4730       22.4730      16.648628       0.17814
  45    0.1794        5.8244        0.0000       22.4724       22.4724      16.647963       0.18241
  44    0.2165        5.8244        0.0000       22.4716       22.4716      16.647181       0.17785
  43    0.2613        5.8244        0.0000       22.4707       22.4707      16.646262       0.17328
  42    0.3336        5.8244        0.0000       22.4692       22.4692      16.644757       0.17553
  41    0.4307        5.8244        0.0000       22.4672       22.4672      16.642789       0.17112
  40    0.5894        5.8244        0.0000       22.4641       22.4641      16.639642       0.16732
  39     1.339        5.8244        0.0000       22.4502       22.4502      16.625808       0.15574
  38     1.782        5.8244        0.0000       22.4428       22.4428      16.618436       0.14035
  37     2.292        5.8244        0.0000       22.4349       22.4350      16.610549       0.13064
  36     2.964        5.8244        0.0000       22.4255       22.4255      16.601118       0.11839
  35     3.853        5.8244        0.0000       22.4145       22.4145      16.590099       0.10457
  34     5.035        5.8244        0.0000       22.4019       22.4020      16.577545       0.08968
  33     6.613        5.8244        0.0001       22.3880       22.3881      16.563677       0.07414
  32     8.786        5.8244        0.0001       22.3731       22.3731      16.548710       0.05813
  31     11.80        5.8244        0.0001       22.3562       22.3563      16.531884       0.04711
  30     15.07        5.8245        0.0001       22.3413       22.3414      16.516926       0.03862
  29     18.79        5.8245        0.0001       22.3259       22.3260      16.501516       0.03494
  28     23.16        5.8246        0.0002       22.3082       22.3083      16.483746       0.03436
  27     28.12        5.8247        0.0002       22.2870       22.2872      16.462545       0.03604
  26     33.73        5.8248        0.0003       22.2617       22.2619      16.437126       0.03822
  25     40.54        5.8250        0.0003       22.2285       22.2288      16.403829       0.04131
  24     48.69        5.8252        0.0004       22.1852       22.1855      16.360316       0.04503
  23     57.69        5.8256        0.0004       22.1340       22.1345      16.308927       0.04817
  22     68.43        5.8260        0.0005       22.0694       22.0699      16.243908       0.05111
  21     81.20        5.8267        0.0006       21.9886       21.9892      16.162568       0.05375
  20     96.49        5.8276        0.0007       21.8895       21.8902      16.062665       0.05514
  19     114.6        5.8288        0.0008       21.7708       21.7717      15.942880       0.05593
  18     136.5        5.8305        0.0010       21.6320       21.6330      15.802518       0.05397
  17     162.9        5.8329        0.0012       21.4726       21.4737      15.640848       0.05168
  16     196.4        5.8366        0.0014       21.2786       21.2800      15.443445       0.04969
  15     218.7        5.8395        0.0016       21.1582       21.1598      15.320328       0.04674
  14     243.0        5.8432        0.0017       21.0313       21.0330      15.189767       0.04528
  13     269.0        5.8483        0.0019       20.8948       20.8967      15.048331       0.04588
  12     297.5        5.8555        0.0021       20.7434       20.7455      14.889981       0.04696
  11     328.5        5.8649        0.0023       20.5767       20.5790      14.714073       0.04783
  10     361.9        5.8770        0.0025       20.3907       20.3933      14.516287       0.05004
   9     398.1        5.8927        0.0027       20.1791       20.1818      14.289163       0.05291
   8     437.6        5.9130        0.0030       19.9341       19.9371      14.024088       0.05667
   7     480.5        5.9394        0.0032       19.6480       19.6512      13.711797       0.06133
   6     533.0        5.9795        0.0035       19.2600       19.2635      13.283925       0.06883
   5     589.8        6.0350        0.0038       18.7890       18.7928      12.757765       0.07810
   4     651.6        6.1163        0.0040       18.1977       18.2018      12.085441       0.09194
   3     718.7        6.2373        0.0043       17.4829       17.4871      11.249840       0.10501
   2     792.3        6.4241        0.0045       16.6464       16.6510      10.226837       0.11733
   1     891.5        6.8272        0.0048       15.4816       15.4864       8.659195       0.13340
   0    1013.0        7.7326        0.0051       14.1857       14.1908       6.458238       0.15282



 Wavenumbers:  5150. -  6150. cm-1, ATM      1
 LEVEL PRESSURE   UPWARD FLUX   DIFDOWN FLUX  DIRDOWN FLUX  DOWNWARD FLUX   NET FLUX    HEATING RATE
          mb          W/m2          W/m2          W/m2        W/m2          W/m2       degree/day
  51    .06700       13.9394        0.0000       56.3444       56.3444      42.404987       0.00000
  50    .07753       13.9394        0.0000       56.3444       56.3444      42.404948       0.03162
  49    .09103       13.9394        0.0000       56.3443       56.3443      42.404896       0.03211
  48    0.1069       13.9394        0.0000       56.3442       56.3442      42.404835       0.03262
  47    0.1255       13.9394        0.0000       56.3442       56.3442      42.404762       0.03313
  46    0.1487       13.9394        0.0000       56.3441       56.3441      42.404666       0.03491
  45    0.1794       13.9394        0.0000       56.3439       56.3439      42.404531       0.03716
  44    0.2165       13.9394        0.0000       56.3438       56.3438      42.404365       0.03774
  43    0.2613       13.9394        0.0000       56.3436       56.3436      42.404162       0.03833
  42    0.3336       13.9394        0.0000       56.3432       56.3432      42.403814       0.04052
  41    0.4307       13.9394        0.0000       56.3427       56.3427      42.403341       0.04110
  40    0.5894       13.9394        0.0000       56.3419       56.3420      42.402549       0.04216
  39     1.339       13.9394        0.0000       56.3381       56.3381      42.398710       0.04321
  38     1.782       13.9394        0.0001       56.3358       56.3359      42.396462       0.04281
  37     2.292       13.9394        0.0001       56.3332       56.3333      42.393904       0.04236
  36     2.964       13.9394        0.0001       56.3299       56.3300      42.390634       0.04104
  35     3.853       13.9394        0.0001       56.3257       56.3259      42.386448       0.03973
  34     5.035       13.9394        0.0002       56.3203       56.3204      42.381003       0.03890
  33     6.613       13.9394        0.0002       56.3131       56.3133      42.373850       0.03824
  32     8.786       13.9395        0.0003       56.3036       56.3039      42.364425       0.03660
  31     11.80       13.9395        0.0004       56.2905       56.2909      42.351393       0.03649
  30     15.07       13.9396        0.0005       56.2770       56.2775      42.337983       0.03462
  29     18.79       13.9396        0.0006       56.2626       56.2632      42.323584       0.03265
  28     23.16       13.9397        0.0008       56.2466       56.2474      42.307616       0.03088
  27     28.12       13.9399        0.0010       56.2292       56.2302      42.290290       0.02945
  26     33.73       13.9400        0.0011       56.2110       56.2122      42.272140       0.02729
  25     40.54       13.9403        0.0014       56.1906       56.1920      42.251710       0.02535
  24     48.69       13.9406        0.0016       56.1681       56.1698      42.229145       0.02335
  23     57.69       13.9410        0.0020       56.1451       56.1471      42.206058       0.02164
  22     68.43       13.9416        0.0023       56.1195       56.1219      42.180281       0.02026
  21     81.20       13.9423        0.0027       56.0907       56.0934      42.151137       0.01926
  20     96.49       13.9431        0.0033       56.0573       56.0606      42.117443       0.01860
  19     114.6       13.9442        0.0039       56.0182       56.0221      42.077942       0.01844
  18     136.5       13.9455        0.0046       55.9719       55.9765      42.031003       0.01805
  17     162.9       13.9471        0.0055       55.9013       55.9067      41.959630       0.02281
  16     196.4       13.9493        0.0066       55.7479       55.7545      41.805176       0.03888
  15     218.7       13.9509        0.0073       55.5243       55.5316      41.580762       0.08520
  14     243.0       13.9527        0.0080       55.1190       55.1271      41.174326       0.14097
  13     269.0       13.9550        0.0088       54.3924       54.4012      40.446140       0.23622
  12     297.5       13.9580        0.0095       53.2527       53.2623      39.304246       0.33867
  11     328.5       13.9618        0.0103       51.9857       51.9960      38.034260       0.34531
  10     361.9       13.9665        0.0111       50.6721       50.6832      36.716692       0.33336
   9     398.1       13.9725        0.0119       49.1893       49.2012      35.228685       0.34667
   8     437.6       13.9804        0.0126       47.4187       47.4313      33.450928       0.38010
   7     480.5       13.9908        0.0134       45.4500       45.4634      31.472521       0.38855
   6     533.0       14.0076        0.0143       43.0596       43.0739      29.066227       0.38710
   5     589.8       14.0335        0.0151       40.5463       40.5614      26.527948       0.37676
   4     651.6       14.0782        0.0160       37.8928       37.9089      23.830641       0.36886
   3     718.7       14.1564        0.0170       35.4719       35.4889      21.332579       0.31394
   2     792.3       14.3022        0.0181       33.4066       33.4247      19.122505       0.25347
   1     891.5       14.6982        0.0195       31.3475       31.3670      16.668837       0.20880
   0    1013.0       15.9671        0.0211       29.2817       29.3027      13.335669       0.23144



 Wavenumbers:  6150. -  7700. cm-1, ATM      1
 LEVEL PRESSURE   UPWARD FLUX   DIFDOWN FLUX  DIRDOWN FLUX  DOWNWARD FLUX   NET FLUX    HEATING RATE
          mb          W/m2          W/m2          W/m2        W/m2          W/m2       degree/day
  51    .06700       21.1155        0.0000      104.2111      104.2111      83.095644       0.00000
  50    .07753       21.1155        0.0000      104.2111      104.2111      83.095587       0.04554
  49    .09103       21.1155        0.0000      104.2110      104.2110      83.095514       0.04583
  48    0.1069       21.1155        0.0000      104.2109      104.2109      83.095427       0.04615
  47    0.1255       21.1155        0.0000      104.2108      104.2108      83.095325       0.04646
  46    0.1487       21.1155        0.0000      104.2107      104.2107      83.095192       0.04854
  45    0.1794       21.1155        0.0000      104.2105      104.2105      83.095005       0.05129
  44    0.2165       21.1155        0.0000      104.2102      104.2102      83.094778       0.05171
  43    0.2613       21.1155        0.0000      104.2099      104.2100      83.094501       0.05215
  42    0.3336       21.1155        0.0000      104.2095      104.2095      83.094031       0.05478
  41    0.4307       21.1155        0.0001      104.2088      104.2088      83.093395       0.05531
  40    0.5894       21.1154        0.0001      104.2077      104.2078      83.092333       0.05648
  39     1.339       21.1154        0.0002      104.2024      104.2026      83.087213       0.05764
  38     1.782       21.1154        0.0002      104.1993      104.1996      83.084215       0.05707
  37     2.292       21.1153        0.0003      104.1958      104.1961      83.080799       0.05659
  36     2.964       21.1153        0.0004      104.1913      104.1917      83.076412       0.05506
  35     3.853       21.1152        0.0005      104.1854      104.1860      83.070764       0.05360
  34     5.035       21.1151        0.0007      104.1778      104.1785      83.063393       0.05266
  33     6.613       21.1150        0.0009      104.1678      104.1687      83.053679       0.05193
  32     8.786       21.1149        0.0012      104.1545      104.1557      83.040822       0.04993
  31     11.80       21.1146        0.0016      104.1359      104.1375      83.022906       0.05016
  30     15.07       21.1144        0.0021      104.1166      104.1187      83.004284       0.04808
  29     18.79       21.1141        0.0026      104.0956      104.0982      82.984040       0.04590
  28     23.16       21.1138        0.0032      104.0720      104.0751      82.961292       0.04399
  27     28.12       21.1135        0.0038      104.0459      104.0497      82.936270       0.04254
  26     33.73       21.1131        0.0046      104.0181      104.0227      82.909655       0.04002
  25     40.54       21.1126        0.0055      103.9863      103.9918      82.879241       0.03773
  24     48.69       21.1120        0.0066      103.9504      103.9570      82.845018       0.03542
  23     57.69       21.1114        0.0079      103.9130      103.9209      82.809477       0.03331
  22     68.43       21.1106        0.0093      103.8705      103.8799      82.769235       0.03164
  21     81.20       21.1097        0.0110      103.8219      103.8329      82.723191       0.03043
  20     96.49       21.1086        0.0131      103.7651      103.7782      82.669591       0.02958
  19     114.6       21.1074        0.0156      103.6981      103.7137      82.606337       0.02954
  18     136.5       21.1059        0.0185      103.6182      103.6367      82.530797       0.02905
  17     162.9       21.1041        0.0220      103.5018      103.5237      82.419642       0.03553
  16     196.4       21.1019        0.0265      103.2601      103.2865      82.184599       0.05916
  15     218.7       21.1007        0.0294      102.9097      102.9391      81.838417       0.13143
  14     243.0       21.0995        0.0324      102.2732      102.3056      81.206106       0.21931
  13     269.0       21.0989        0.0355      101.2641      101.2996      80.200751       0.32613
  12     297.5       21.0992        0.0386       99.6695       99.7081      78.608907       0.47212
  11     328.5       21.1008        0.0417       97.6082       97.6500      76.549169       0.56004
  10     361.9       21.1043        0.0450       95.2483       95.2932      74.188914       0.59717
   9     398.1       21.1108        0.0482       92.6564       92.7046      71.593800       0.60460
   8     437.6       21.1219        0.0513       89.7047       89.7560      68.634048       0.63281
   7     480.5       21.1398        0.0543       86.3265       86.3808      65.240972       0.66639
   6     533.0       21.1735        0.0576       81.9787       82.0363      60.862824       0.70430
   5     589.8       21.2319        0.0607       77.1953       77.2560      56.024052       0.71823
   4     651.6       21.3422        0.0634       71.7796       71.8430      50.500787       0.75532
   3     718.7       21.5427        0.0658       66.2294       66.2952      44.752451       0.72241
   2     792.3       21.9222        0.0680       60.7106       60.7786      38.856406       0.67621
   1     891.5       22.9379        0.0705       54.2338       54.3043      31.366364       0.63737
   0    1013.0       26.1942        0.0734       47.9982       48.0716      21.877395       0.65887



 Wavenumbers:  7700. -  8050. cm-1, ATM      1
 LEVEL PRESSURE   UPWARD FLUX   DIFDOWN FLUX  DIRDOWN FLUX  DOWNWARD FLUX   NET FLUX    HEATING RATE
          mb          W/m2          W/m2          W/m2        W/m2          W/m2       degree/day
  51    .06700       11.1629        0.0000       24.6282       24.6282      13.465294       0.00000
  50    .07753       11.1629        0.0000       24.6282       24.6282      13.465268       0.02062
  49    .09103       11.1629        0.0000       24.6281       24.6281      13.465236       0.02021
  48    0.1069       11.1629        0.0000       24.6281       24.6281      13.465198       0.01978
  47    0.1255       11.1629        0.0000       24.6281       24.6281      13.465156       0.01936
  46    0.1487       11.1630        0.0000       24.6280       24.6281      13.465102       0.01965
  45    0.1794       11.1630        0.0000       24.6280       24.6280      13.465028       0.02022
  44    0.2165       11.1630        0.0000       24.6279       24.6279      13.464941       0.01983
  43    0.2613       11.1630        0.0000       24.6279       24.6279      13.464838       0.01946
  42    0.3336       11.1631        0.0000       24.6277       24.6278      13.464667       0.01991
  41    0.4307       11.1632        0.0000       24.6276       24.6276      13.464440       0.01970
  40    0.5894       11.1633        0.0000       24.6273       24.6273      13.464070       0.01968
  39     1.339       11.1638        0.0001       24.6260       24.6261      13.462319       0.01971
  38     1.782       11.1641        0.0001       24.6253       24.6254      13.461291       0.01959
  37     2.292       11.1645        0.0002       24.6244       24.6246      13.460099       0.01973
  36     2.964       11.1650        0.0002       24.6233       24.6235      13.458535       0.01964
  35     3.853       11.1656        0.0003       24.6218       24.6221      13.456467       0.01962
  34     5.035       11.1664        0.0003       24.6198       24.6202      13.453720       0.01963
  33     6.613       11.1676        0.0004       24.6172       24.6176      13.450047       0.01963
  32     8.786       11.1691        0.0006       24.6136       24.6142      13.445095       0.01923
  31     11.80       11.1713        0.0008       24.6085       24.6093      13.438005       0.01985
  30     15.07       11.1736        0.0010       24.6030       24.6040      13.430387       0.01967
  29     18.79       11.1763        0.0013       24.5968       24.5980      13.421775       0.01953
  28     23.16       11.1794        0.0016       24.5895       24.5911      13.411708       0.01947
  27     28.12       11.1830        0.0019       24.5812       24.5832      13.400187       0.01959
  26     33.73       11.1870        0.0023       24.5720       24.5743      13.387284       0.01940
  25     40.54       11.1919        0.0028       24.5608       24.5635      13.371683       0.01935
  24     48.69       11.1978        0.0033       24.5473       24.5506      13.352861       0.01948
  23     57.69       11.2043        0.0039       24.5326       24.5365      13.332170       0.01939
  22     68.43       11.2121        0.0046       24.5150       24.5196      13.307509       0.01939
  21     81.20       11.2215        0.0055       24.4941       24.4996      13.278105       0.01943
  20     96.49       11.2328        0.0065       24.4694       24.4759      13.243042       0.01935
  19     114.6       11.2464        0.0078       24.4400       24.4478      13.201374       0.01946
  18     136.5       11.2627        0.0092       24.4054       24.4146      13.151940       0.01901
  17     162.9       11.2824        0.0109       24.3644       24.3754      13.093000       0.01884
  16     196.4       11.3083        0.0132       24.3116       24.3248      13.016437       0.01927
  15     218.7       11.3257        0.0147       24.2771       24.2917      12.966038       0.01913
  14     243.0       11.3449        0.0163       24.2397       24.2559      12.911084       0.01906
  13     269.0       11.3660        0.0180       24.1993       24.2173      12.851239       0.01941
  12     297.5       11.3894        0.0199       24.1556       24.1755      12.786072       0.01933
  11     328.5       11.4153        0.0219       24.1084       24.1303      12.715019       0.01932
  10     361.9       11.4440        0.0241       24.0575       24.0816      12.637615       0.01958
   9     398.1       11.4760        0.0265       24.0026       24.0290      12.553005       0.01971
   8     437.6       11.5118        0.0290       23.9430       23.9720      12.460149       0.01985
   7     480.5       11.5520        0.0317       23.8783       23.9101      12.358013       0.02006
   6     533.0       11.6045        0.0351       23.7972       23.8323      12.227829       0.02094
   5     589.8       11.6656        0.0387       23.7068       23.7455      12.079957       0.02195
   4     651.6       11.7389        0.0426       23.6034       23.6460      11.907139       0.02363
   3     718.7       11.8288        0.0468       23.4831       23.5298      11.701073       0.02590
   2     792.3       11.9432        0.0512       23.3388       23.3900      11.446775       0.02917
   1     891.5       12.1380        0.0571       23.1128       23.1698      11.031838       0.03531
   0    1013.0       12.4535        0.0639       22.7908       22.8547      10.401159       0.04379



 Wavenumbers:  8050. - 12850. cm-1, ATM      1
 LEVEL PRESSURE   UPWARD FLUX   DIFDOWN FLUX  DIRDOWN FLUX  DOWNWARD FLUX   NET FLUX    HEATING RATE
          mb          W/m2          W/m2          W/m2        W/m2          W/m2       degree/day
  51    .06700      134.1343        0.0000      344.8128      344.8128     210.678516       0.00000
  50    .07753      134.1343        0.0000      344.8128      344.8128     210.678516       0.00000
  49    .09103      134.1343        0.0001      344.8127      344.8128     210.678516      -0.00000
  48    0.1069      134.1343        0.0001      344.8127      344.8128     210.678516       0.00000
  47    0.1255      134.1343        0.0002      344.8126      344.8128     210.678516      -0.00000
  46    0.1487      134.1343        0.0003      344.8125      344.8128     210.678516       0.00000
  45    0.1794      134.1342        0.0004      344.8124      344.8127     210.678516       0.00000
  44    0.2165      134.1342        0.0005      344.8122      344.8127     210.678516      -0.00000
  43    0.2613      134.1342        0.0006      344.8121      344.8127     210.678516      -0.00000
  42    0.3336      134.1341        0.0009      344.8118      344.8126     210.678516       0.00000
  41    0.4307      134.1340        0.0012      344.8114      344.8126     210.678516      -0.00000
  40    0.5894      134.1339        0.0017      344.8108      344.8124     210.678516       0.00000
  39     1.339      134.1334        0.0041      344.8078      344.8119     210.678516       0.00000
  38     1.782      134.1331        0.0055      344.8061      344.8116     210.678516      -0.00000
  37     2.292      134.1327        0.0071      344.8041      344.8112     210.678516       0.00000
  36     2.964      134.1322        0.0093      344.8014      344.8107     210.678516       0.00000
  35     3.853      134.1315        0.0121      344.7979      344.8100     210.678516      -0.00000
  34     5.035      134.1307        0.0159      344.7933      344.8092     210.678516      -0.00000
  33     6.613      134.1295        0.0209      344.7871      344.8080     210.678516       0.00000
  32     8.786      134.1279        0.0277      344.7787      344.8064     210.678516       0.00000
  31     11.80      134.1257        0.0375      344.7667      344.8042     210.678516      -0.00000
  30     15.07      134.1233        0.0479      344.7539      344.8018     210.678516       0.00000
  29     18.79      134.1205        0.0598      344.7393      344.7991     210.678516      -0.00000
  28     23.16      134.1174        0.0736      344.7223      344.7959     210.678516       0.00000
  27     28.12      134.1137        0.0895      344.7028      344.7922     210.678516       0.00000
  26     33.73      134.1096        0.1072      344.6809      344.7881     210.678516      -0.00000
  25     40.54      134.1047        0.1287      344.6545      344.7832     210.678516      -0.00000
  24     48.69      134.0987        0.1546      344.6225      344.7772     210.678516       0.00000
  23     57.69      134.0921        0.1832      344.5874      344.7706     210.678516      -0.00000
  22     68.43      134.0842        0.2172      344.5455      344.7627     210.678516      -0.00000
  21     81.20      134.0748        0.2579      344.4955      344.7534     210.678516       0.00000
  20     96.49      134.0636        0.3064      344.4358      344.7422     210.678516       0.00000
  19     114.6      134.0506        0.3641      344.3587      344.7228     210.672196       0.00295
  18     136.5      134.0350        0.4327      344.2667      344.6994     210.664343       0.00302
  17     162.9      134.0165        0.5146      344.1533      344.6678     210.651291       0.00417
  16     196.4      133.9926        0.6211      343.9892      344.6103     210.617693       0.00846
  15     218.7      133.9772        0.6912      343.8402      344.5314     210.554173       0.02412
  14     243.0      133.9613        0.7674      343.5933      344.3607     210.399378       0.05369
  13     269.0      133.9462        0.8499      343.1662      344.0161     210.069896       0.10688
  12     297.5      133.9339        0.9389      342.4819      343.4208     209.486831       0.17293
  11     328.5      133.9260        1.0349      341.5922      342.6271     208.701129       0.21363
  10     361.9      133.9252        1.1381      340.5080      341.6461     207.720962       0.24799
   9     398.1      133.9363        1.2488      339.1885      340.4374     206.501091       0.28420
   8     437.6      133.9674        1.3669      337.5272      338.8941     204.926653       0.33662
   7     480.5      134.0284        1.4922      335.4327      336.9249     202.896513       0.39871
   6     533.0      134.1556        1.6445      332.3652      334.0096     199.854077       0.48943
   5     589.8      134.3884        1.8051      328.3420      330.1471     195.758700       0.60789
   4     651.6      134.8406        1.9710      322.7671      324.7382     189.897519       0.80153
   3     718.7      135.6644        2.1411      315.5619      317.7030     182.038519       0.98766
   2     792.3      137.2047        2.3117      306.5104      308.8221     171.617376       1.19519
   1     891.5      141.1659        2.5218      292.9732      295.4950     154.329111       1.47115
   0    1013.0      152.0590        2.7511      276.3074      279.0585     126.999537       1.89763



 Wavenumbers: 12850. - 16000. cm-1, ATM      1
 LEVEL PRESSURE   UPWARD FLUX   DIFDOWN FLUX  DIRDOWN FLUX  DOWNWARD FLUX   NET FLUX    HEATING RATE
          mb          W/m2          W/m2          W/m2        W/m2          W/m2       degree/day
  51    .06700      162.7391        0.0000      216.0557      216.0557      53.316645       0.00000
  50    .07753      162.7391        0.0001      216.0548      216.0549      53.315831       0.65214
  49    .09103      162.7392        0.0002      216.0538      216.0540      53.314800       0.64466
  48    0.1069      162.7393        0.0004      216.0525      216.0529      53.313602       0.63773
  47    0.1255      162.7394        0.0005      216.0510      216.0516      53.312208       0.63172
  46    0.1487      162.7395        0.0007      216.0492      216.0499      53.310425       0.65018
  45    0.1794      162.7398        0.0010      216.0467      216.0477      53.307958       0.67720
  44    0.2165      162.7401        0.0013      216.0438      216.0451      53.304999       0.67303
  43    0.2613      162.7405        0.0017      216.0403      216.0420      53.301444       0.67020
  42    0.3336      162.7414        0.0024      216.0345      216.0368      53.295478       0.69557
  41    0.4307      162.7426        0.0032      216.0269      216.0301      53.287495       0.69411
  40    0.5894      162.7450        0.0046      216.0146      216.0192      53.274281       0.70267
  39     1.339      162.7623        0.0112      215.9584      215.9695      53.207269       0.75443
  38     1.782      162.7769        0.0151      215.9258      215.9409      53.163956       0.82462
  37     2.292      162.7981        0.0195      215.8879      215.9075      53.109350       0.90441
  36     2.964      162.8323        0.0254      215.8370      215.8624      53.030089       0.99497
  35     3.853      162.8866        0.0332      215.7678      215.8010      52.914384       1.09806
  34     5.035      162.9677        0.0435      215.6752      215.7187      52.751043       1.16684
  33     6.613      163.0805        0.0573      215.5548      215.6120      52.531557       1.17337
  32     8.786      163.2277        0.0758      215.4027      215.4785      52.250773       1.09046
  31     11.80      163.4207        0.1024      215.2043      215.3067      51.886019       1.02120
  30     15.07      163.6072        0.1309      215.0098      215.1408      51.533547       0.91001
  29     18.79      163.7994        0.1632      214.8056      214.9688      51.169352       0.82574
  28     23.16      164.0026        0.2009      214.5841      214.7850      50.782421       0.74820
  27     28.12      164.2099        0.2440      214.3504      214.5944      50.384481       0.67647
  26     33.73      164.4062        0.2923      214.1164      214.4087      50.002540       0.57426
  25     40.54      164.6020        0.3508      213.8655      214.2163      49.614324       0.48163
  24     48.69      164.7978        0.4214      213.5943      214.0157      49.217879       0.41026
  23     57.69      164.9740        0.4991      213.3269      213.8260      48.852029       0.34293
  22     68.43      165.1415        0.5918      213.0419      213.6337      48.492151       0.28291
  21     81.20      165.2833        0.7025      212.7488      213.4513      48.167980       0.21421
  20     96.49      165.3988        0.8348      212.4447      213.2795      47.880693       0.15856
  19     114.6      165.5345        0.9942      212.1101      213.1043      47.569730       0.14520
  18     136.5      165.6720        1.1834      211.7382      212.9216      47.249615       0.12309
  17     162.9      165.8142        1.4091      211.3198      212.7289      46.914678       0.10706
  16     196.4      165.9531        1.7026      210.8156      212.5182      46.565127       0.08799
  15     218.7      166.0280        1.8958      210.4965      212.3922      46.364240       0.07627
  14     243.0      166.1027        2.1061      210.1519      212.2580      46.155254       0.07248
  13     269.0      166.1777        2.3344      209.7781      212.1124      45.934751       0.07153
  12     297.5      166.2546        2.5816      209.3683      211.9499      45.695360       0.07100
  11     328.5      166.3385        2.8493      208.9170      211.7663      45.427835       0.07274
  10     361.9      166.4318        3.1381      208.4189      211.5571      45.125262       0.07655
   9     398.1      166.5387        3.4498      207.8679      211.3177      44.778946       0.08068
   8     437.6      166.6664        3.7852      207.2544      211.0396      44.373161       0.08676
   7     480.5      166.8221        4.1456      206.5713      210.7169      43.894801       0.09395
   6     533.0      167.0503        4.5904      205.6883      210.2787      43.228434       0.10720
   5     589.8      167.3640        5.0707      204.6670      209.7377      42.373698       0.12687
   4     651.6      167.8394        5.5870      203.4324      209.0194      41.180007       0.16324
   3     718.7      168.5319        6.1376      201.9561      208.0938      39.561843       0.20336
   2     792.3      169.6104        6.7187      200.1346      206.8533      37.242919       0.26595
   1     891.5      171.8947        7.4837      197.2502      204.7339      32.839169       0.37474
   0    1013.0      176.4888        8.3747      193.2807      201.6554      25.166592       0.53275



 Wavenumbers: 16000. - 22650. cm-1, ATM      1
 LEVEL PRESSURE   UPWARD FLUX   DIFDOWN FLUX  DIRDOWN FLUX  DOWNWARD FLUX   NET FLUX    HEATING RATE
          mb          W/m2          W/m2          W/m2        W/m2          W/m2       degree/day
  51    .06700      279.7435        0.0000      344.4769      344.4769      64.733369       0.00000
  50    .07753      279.7437        0.0005      344.4763      344.4769      64.733156       0.17051
  49    .09103      279.7440        0.0012      344.4756      344.4768      64.732847       0.19339
  48    0.1069      279.7443        0.0020      344.4748      344.4768      64.732432       0.22053
  47    0.1255      279.7448        0.0029      344.4737      344.4766      64.731878       0.25138
  46    0.1487      279.7454        0.0041      344.4724      344.4764      64.731061       0.29788
  45    0.1794      279.7463        0.0056      344.4705      344.4761      64.729783       0.35073
  44    0.2165      279.7476        0.0075      344.4682      344.4756      64.728050       0.39418
  43    0.2613      279.7492        0.0097      344.4653      344.4749      64.725699       0.44316
  42    0.3336      279.7524        0.0133      344.4603      344.4736      64.721229       0.52116
  41    0.4307      279.7570        0.0181      344.4534      344.4715      64.714491       0.58585
  40    0.5894      279.7656        0.0259      344.4414      344.4673      64.701641       0.68339
  39     1.339      279.8274        0.0630      344.3711      344.4341      64.606682       1.06906
  38     1.782      279.8791        0.0849      344.3200      344.4048      64.525768       1.54046
  37     2.292      279.9532        0.1101      344.2517      344.3618      64.408616       1.94035
  36     2.964      280.0724        0.1432      344.1480      344.2912      64.218755       2.38332
  35     3.853      280.2609        0.1870      343.9913      344.1783      63.917316       2.86072
  34     5.035      280.5419        0.2451      343.7640      344.0091      63.467197       3.21547
  33     6.613      280.9329        0.3227      343.4511      343.7738      62.840883       3.34828
  32     8.786      281.4437        0.4272      343.0410      343.4683      62.024550       3.17034
  31     11.80      282.1144        0.5768      342.4947      343.0715      60.957121       2.98846
  30     15.07      282.7644        0.7374      341.9547      342.6921      59.927774       2.65757
  29     18.79      283.4355        0.9189      341.3868      342.3057      58.870193       2.39786
  28     23.16      284.1466        1.1309      340.7717      341.9027      57.756072       2.15435
  27     28.12      284.8745        1.3735      340.1241      341.4976      56.623098       1.92598
  26     33.73      285.5668        1.6453      339.4775      341.1228      55.556003       1.60441
  25     40.54      286.2615        1.9741      338.7859      340.7600      54.498457       1.31201
  24     48.69      286.9613        2.3709      338.0389      340.4098      53.448510       1.08653
  23     57.69      287.5965        2.8074      337.3015      340.1089      52.512379       0.87748
  22     68.43      288.2091        3.3280      336.5123      339.8403      51.631167       0.69275
  21     81.20      288.7415        3.9495      335.6921      339.6416      50.900190       0.48302
  20     96.49      289.1922        4.6916      334.8256      339.5172      50.325015       0.31746
  19     114.6      289.6314        5.5731      333.8560      339.4291      49.797722       0.24621
  18     136.5      290.0870        6.6179      332.7466      339.3645      49.277463       0.20005
  17     162.9      290.5696        7.8617      331.4625      339.3242      48.754571       0.16714
  16     196.4      291.0670        9.4752      329.8743      339.3495      48.282444       0.11884
  15     218.7      291.3458       10.5348      328.8601      339.3948      48.049053       0.08861
  14     243.0      291.6260       11.6862      327.7715      339.4577      47.831701       0.07538
  13     269.0      291.9056       12.9336      326.6061      339.5398      47.634159       0.06408
  12     297.5      292.1847       14.2814      325.3603      339.6418      47.457115       0.05251
  11     328.5      292.4742       15.7373      324.0212      339.7585      47.284320       0.04698
  10     361.9      292.7742       17.3043      322.5859      339.8902      47.115989       0.04259
   9     398.1      293.0865       18.9903      321.0470      340.0373      46.950761       0.03849
   8     437.6      293.4144       20.8003      319.3978      340.1981      46.783756       0.03571
   7     480.5      293.7586       22.7401      317.6330      340.3731      46.614464       0.03325
   6     533.0      294.1772       25.1277      315.4613      340.5890      46.411808       0.03260
   5     589.8      294.6304       27.7015      313.1151      340.8166      46.186192       0.03349
   4     651.6      295.1344       30.4695      310.5763      341.0458      45.911428       0.03757
   3     718.7      295.7049       33.4405      307.8270      341.2675      45.562546       0.04384
   2     792.3      296.3799       36.6181      304.8404      341.4586      45.078670       0.05550
   1     891.5      297.4537       40.8979      300.7148      341.6127      44.159086       0.07825
   0    1013.0      299.0152       46.0224      295.6311      341.6535      42.638361       0.10559



 Wavenumbers: 22650. - 29000. cm-1, ATM      1
 LEVEL PRESSURE   UPWARD FLUX   DIFDOWN FLUX  DIRDOWN FLUX  DOWNWARD FLUX   NET FLUX    HEATING RATE
          mb          W/m2          W/m2          W/m2        W/m2          W/m2       degree/day
  51    .06700      113.1001        0.0000      129.9930      129.9930      16.892927       0.00000
  50    .07753      113.1002        0.0006      129.9925      129.9931      16.892927       0.00000
  49    .09103      113.1003        0.0014      129.9918      129.9932      16.892927      -0.00000
  48    0.1069      113.1004        0.0024      129.9910      129.9934      16.892927       0.00000
  47    0.1255      113.1006        0.0034      129.9901      129.9935      16.892927      -0.00000
  46    0.1487      113.1007        0.0047      129.9889      129.9937      16.892927       0.00000
  45    0.1794      113.1010        0.0066      129.9874      129.9939      16.892927       0.00000
  44    0.2165      113.1013        0.0087      129.9855      129.9942      16.892927      -0.00000
  43    0.2613      113.1016        0.0113      129.9833      129.9945      16.892927       0.00000
  42    0.3336      113.1022        0.0155      129.9796      129.9951      16.892927      -0.00000
  41    0.4307      113.1029        0.0211      129.9747      129.9958      16.892927      -0.00000
  40    0.5894      113.1041        0.0303      129.9668      129.9970      16.892927       0.00000
  39     1.339      113.1098        0.0736      129.9292      130.0028      16.892927      -0.00000
  38     1.782      113.1132        0.0990      129.9071      130.0061      16.892927      -0.00000
  37     2.292      113.1171        0.1285      129.8815      130.0100      16.892927       0.00000
  36     2.964      113.1222        0.1672      129.8480      130.0151      16.892927      -0.00000
  35     3.853      113.1290        0.2183      129.8036      130.0219      16.892927      -0.00000
  34     5.035      113.1379        0.2861      129.7447      130.0309      16.892927       0.00000
  33     6.613      113.1499        0.3768      129.6660      130.0428      16.892927       0.00000
  32     8.786      113.1660        0.4990      129.5599      130.0590      16.892927       0.00000
  31     11.80      113.1891        0.6738      129.4082      130.0820      16.892927      -0.00000
  30     15.07      113.2138        0.8615      129.2453      130.1067      16.892927       0.00000
  29     18.79      113.2417        1.0733      129.0613      130.1346      16.892927      -0.00000
  28     23.16      113.2742        1.3206      128.8465      130.1672      16.892927       0.00000
  27     28.12      113.3114        1.6033      128.6010      130.2043      16.892927      -0.00000
  26     33.73      113.3528        1.9192      128.3266      130.2458      16.892927       0.00000
  25     40.54      113.4028        2.3004      127.9953      130.2957      16.892927       0.00000
  24     48.69      113.4628        2.7592      127.5965      130.3557      16.892927       0.00000
  23     57.69      113.5285        3.2621      127.1593      130.4214      16.892927      -0.00000
  22     68.43      113.6063        3.8595      126.6397      130.4992      16.892927       0.00000
  21     81.20      113.6984        4.5689      126.0224      130.5913      16.892927       0.00000
  20     96.49      113.8073        5.4107      125.2896      130.7003      16.892927       0.00000
  19     114.6      113.9355        6.4050      124.4234      130.8284      16.892927      -0.00000
  18     136.5      114.0857        7.5762      123.4024      130.9786      16.892927       0.00000
  17     162.9      114.2621        8.9604      122.1947      131.1551      16.892927      -0.00000
  16     196.4      114.4870       10.7380      120.6419      131.3799      16.892927      -0.00000
  15     218.7      114.6322       11.8949      119.6303      131.5252      16.892927       0.00000
  14     243.0      114.7880       13.1430      118.5379      131.6809      16.892927       0.00000
  13     269.0      114.9542       14.4848      117.3624      131.8472      16.892927       0.00000
  12     297.5      115.1310       15.9221      116.1018      132.0239      16.892927       0.00000
  11     328.5      115.3186       17.4610      114.7505      132.2115      16.892927       0.00000
  10     361.9      115.5167       19.1013      113.3083      132.4097      16.892927       0.00000
   9     398.1      115.7255       20.8479      111.7705      132.6184      16.892927      -0.00000
   8     437.6      115.9445       22.7021      110.1353      132.8375      16.892927       0.00000
   7     480.5      116.1735       24.6654      108.4010      133.0664      16.892927       0.00000
   6     533.0      116.4471       27.0484      106.2917      133.3401      16.892927      -0.00000
   5     589.8      116.7321       29.5767      104.0483      133.6250      16.892927      -0.00000
   4     651.6      117.0270       32.2499      101.6700      133.9199      16.892927       0.00000
   3     718.7      117.3304       35.0675       99.1558      134.2233      16.892927       0.00000
   2     792.3      117.6400       38.0246       96.5083      134.5329      16.892927      -0.00000
   1     891.5      118.0329       41.9195       93.0064      134.9259      16.892927       0.00000
   0    1013.0      118.4671       46.4518       88.9082      135.3600      16.892927       0.00000



 Wavenumbers: 29000. - 38000. cm-1, ATM      1
 LEVEL PRESSURE   UPWARD FLUX   DIFDOWN FLUX  DIRDOWN FLUX  DOWNWARD FLUX   NET FLUX    HEATING RATE
          mb          W/m2          W/m2          W/m2        W/m2          W/m2       degree/day
  51    .06700       18.0322        0.0000       45.8410       45.8410      27.808806       0.00000
  50    .07753       18.0320        0.0004       45.8366       45.8370      27.804976       3.06951
  49    .09103       18.0319        0.0009       45.8305       45.8313      27.799401       3.48437
  48    0.1069       18.0318        0.0014       45.8223       45.8237      27.791932       3.97600
  47    0.1255       18.0317        0.0020       45.8116       45.8136      27.781931       4.53383
  46    0.1487       18.0315        0.0028       45.7959       45.7987      27.767193       5.37209
  45    0.1794       18.0314        0.0039       45.7716       45.7756      27.744178       6.31833
  44    0.2165       18.0313        0.0052       45.7391       45.7443      27.713031       7.08543
  43    0.2613       18.0312        0.0067       45.6954       45.7021      27.670922       7.93739
  42    0.3336       18.0312        0.0092       45.6134       45.6226      27.591419       9.26928
  41    0.4307       18.0314        0.0125       45.4920       45.5045      27.473092      10.28821
  40    0.5894       18.0321        0.0177       45.2670       45.2847      27.252638      11.72350
  39     1.339       18.0432        0.0410       43.8242       43.8651      25.821974      16.10668
  38     1.782       18.0548        0.0534       42.8351       42.8884      24.833685      18.81542
  37     2.292       18.0726        0.0669       41.6852       41.7521      23.679576      19.11505
  36     2.964       18.1025        0.0838       40.2943       40.3781      22.275527      17.62506
  35     3.853       18.1514        0.1052       38.7687       38.8739      20.722410      14.73936
  34     5.035       18.2256        0.1327       37.2304       37.3631      19.137488      11.32203
  33     6.613       18.3303        0.1686       35.7405       35.9092      17.578851       8.33247
  32     8.786       18.4689        0.2162       34.3295       34.5456      16.076756       5.83360
  31     11.80       18.6543        0.2831       32.9481       33.2311      14.576823       4.19934
  30     15.07       18.8391        0.3540       31.8942       32.2483      13.409138       3.01474
  29     18.79       19.0360        0.4331       30.9854       31.4185      12.382542       2.32761
  28     23.16       19.2526        0.5245       30.1559       30.6804      11.427775       1.84621
  27     28.12       19.4840        0.6282       29.4043       30.0325      10.548476       1.49475
  26     33.73       19.7134        0.7444       28.7514       29.4958       9.782423       1.15178
  25     40.54       19.9528        0.8850       28.1328       29.0178       9.065045       0.88999
  24     48.69       20.2043        1.0546       27.5340       28.5886       8.384275       0.70449
  23     57.69       20.4420        1.2410       26.9971       28.2380       7.796047       0.55137
  22     68.43       20.6791        1.4634       26.4694       27.9328       7.253663       0.42639
  21     81.20       20.8884        1.7309       25.9669       27.6977       6.809310       0.29362
  20     96.49       21.0646        2.0516       25.4748       27.5264       6.461784       0.19181
  19     114.6       21.2361        2.4296       24.9506       27.3802       6.144058       0.14836
  18     136.5       21.4154        2.8708       24.3745       27.2453       5.829857       0.12082
  17     162.9       21.6074        3.3875       23.7328       27.1203       5.512934       0.10130
  16     196.4       21.8002        4.0497       22.9761       27.0258       5.225584       0.07233
  15     218.7       21.9049        4.4766       22.5089       26.9855       5.080550       0.05506
  14     243.0       22.0083        4.9330       22.0192       26.9522       4.943872       0.04740
  13     269.0       22.1085        5.4194       21.5077       26.9271       4.818599       0.04064
  12     297.5       22.2045        5.9355       20.9749       26.9104       4.705905       0.03342
  11     328.5       22.3013        6.4806       20.4165       26.8971       4.595780       0.02994
  10     361.9       22.3983        7.0534       19.8338       26.8872       4.488873       0.02705
   9     398.1       22.4950        7.6538       19.2267       26.8804       4.385433       0.02410
   8     437.6       22.5920        8.2801       18.5955       26.8756       4.283640       0.02176
   7     480.5       22.6881        8.9312       17.9419       26.8731       4.185023       0.01937
   6     533.0       22.7969        9.7051       17.1671       26.8721       4.075263       0.01766
   5     589.8       22.9045       10.5046       16.3664       26.8709       3.966394       0.01616
   4     651.6       23.0110       11.3265       15.5420       26.8685       3.857530       0.01489
   3     718.7       23.1153       12.1666       14.6973       26.8639       3.748547       0.01370
   2     792.3       23.2162       13.0181       13.8375       26.8556       3.639426       0.01251
   1     891.5       23.3371       14.0950       12.7437       26.8387       3.501641       0.01172
   0    1013.0       23.4617       15.2788       11.5285       26.8072       3.345543       0.01084



 Wavenumbers: 38000. - 50000. cm-1, ATM      1
 LEVEL PRESSURE   UPWARD FLUX   DIFDOWN FLUX  DIRDOWN FLUX  DOWNWARD FLUX   NET FLUX    HEATING RATE
          mb          W/m2          W/m2          W/m2        W/m2          W/m2       degree/day
  51    .06700        0.0077        0.0000        2.8274        2.8274       2.819732       0.00000
  50    .07753        0.0076        0.0001        2.8250        2.8250       2.817394       1.87426
  49    .09103        0.0076        0.0002        2.8215        2.8216       2.814052       2.08853
  48    0.1069        0.0075        0.0003        2.8169        2.8172       2.809652       2.34203
  47    0.1255        0.0074        0.0004        2.8109        2.8113       2.803854       2.62885
  46    0.1487        0.0073        0.0005        2.8022        2.8027       2.795433       3.06948
  45    0.1794        0.0072        0.0007        2.7889        2.7896       2.782446       3.56531
  44    0.2165        0.0070        0.0009        2.7712        2.7721       2.765088       3.94851
  43    0.2613        0.0068        0.0012        2.7476        2.7487       2.741916       4.36792
  42    0.3336        0.0065        0.0015        2.7038        2.7053       2.698800       5.02689
  41    0.4307        0.0062        0.0020        2.6399        2.6419       2.635738       5.48307
  40    0.5894        0.0056        0.0027        2.5241        2.5268       2.521231       6.08937
  39     1.339        0.0038        0.0042        1.8543        1.8585       1.854685       7.50409
  38     1.782        0.0031        0.0041        1.4655        1.4696       1.466513       7.39018
  37     2.292        0.0024        0.0036        1.0872        1.0908       1.088339       6.26353
  36     2.964        0.0019        0.0030        0.7358        0.7388       0.736859       4.41214
  35     3.853        0.0015        0.0024        0.4711        0.4735       0.472010       2.51347
  34     5.035        0.0012        0.0019        0.2988        0.3008       0.299620       1.23148
  33     6.613        0.0009        0.0016        0.1889        0.1905       0.189608       0.58813
  32     8.786        0.0007        0.0013        0.1196        0.1208       0.120133       0.26981
  31     11.80        0.0005        0.0010        0.0741        0.0751       0.074563       0.12758
  30     15.07        0.0004        0.0008        0.0493        0.0501       0.049700       0.06419
  29     18.79        0.0003        0.0006        0.0330        0.0336       0.033348       0.03707
  28     23.16        0.0002        0.0004        0.0217        0.0221       0.021940       0.02206
  27     28.12        0.0001        0.0003        0.0140        0.0144       0.014212       0.01314
  26     33.73        0.0001        0.0002        0.0091        0.0093       0.009223       0.00750
  25     40.54        0.0001        0.0002        0.0057        0.0059       0.005793       0.00426
  24     48.69        0.0000        0.0001        0.0034        0.0035       0.003483       0.00239
  23     57.69        0.0000        0.0001        0.0020        0.0021       0.002088       0.00131
  22     68.43        0.0000        0.0000        0.0012        0.0012       0.001190       0.00071
  21     81.20        0.0000        0.0000        0.0006        0.0007       0.000647       0.00036
  20     96.49        0.0000        0.0000        0.0003        0.0003       0.000330       0.00018
  19     114.6        0.0000        0.0000        0.0001        0.0002       0.000151       0.00008
  18     136.5        0.0000        0.0000        0.0001        0.0001       0.000060       0.00003
  17     162.9        0.0000        0.0000        0.0000        0.0000       0.000020       0.00001
  16     196.4        0.0000        0.0000        0.0000        0.0000       0.000005       0.00000
  15     218.7        0.0000        0.0000        0.0000        0.0000       0.000002       0.00000
  14     243.0        0.0000        0.0000        0.0000        0.0000       0.000001       0.00000
  13     269.0        0.0000        0.0000        0.0000        0.0000       0.000000       0.00000
  12     297.5        0.0000        0.0000        0.0000        0.0000       0.000000       0.00000
  11     328.5        0.0000        0.0000        0.0000        0.0000       0.000000       0.00000
  10     361.9        0.0000        0.0000        0.0000        0.0000       0.000000       0.00000
   9     398.1        0.0000        0.0000        0.0000        0.0000       0.000000       0.00000
   8     437.6        0.0000        0.0000        0.0000        0.0000       0.000000       0.00000
   7     480.5        0.0000        0.0000        0.0000        0.0000       0.000000       0.00000
   6     533.0        0.0000        0.0000        0.0000        0.0000       0.000000       0.00000
   5     589.8        0.0000        0.0000        0.0000        0.0000       0.000000       0.00000
   4     651.6        0.0000        0.0000        0.0000        0.0000       0.000000       0.00000
   3     718.7        0.0000        0.0000        0.0000        0.0000       0.000000       0.00000
   2     792.3        0.0000        0.0000        0.0000        0.0000       0.000000       0.00000
   1     891.5        0.0000        0.0000        0.0000        0.0000       0.000000       0.00000
   0    1013.0        0.0000        0.0000        0.0000        0.0000       0.000000       0.00000



 Wavenumbers:   820. -  2600. cm-1, ATM      1
 LEVEL PRESSURE   UPWARD FLUX   DIFDOWN FLUX  DIRDOWN FLUX  DOWNWARD FLUX   NET FLUX    HEATING RATE
          mb          W/m2          W/m2          W/m2        W/m2          W/m2       degree/day
  51    .06700        1.5878        0.0000       13.2264       13.2264      11.638586       0.00000
  50    .07753        1.5878        0.0000       13.2194       13.2194      11.631564       5.62798
  49    .09103        1.5878        0.0000       13.2178       13.2178      11.629990       0.98413
  48    0.1069        1.5878        0.0000       13.2167       13.2167      11.628863       0.59960
  47    0.1255        1.5878        0.0000       13.2154       13.2154      11.627572       0.58519
  46    0.1487        1.5878        0.0000       13.2137       13.2137      11.625915       0.60405
  45    0.1794        1.5878        0.0000       13.2114       13.2114      11.623656       0.62016
  44    0.2165        1.5878        0.0000       13.2088       13.2088      11.621038       0.59560
  43    0.2613        1.5878        0.0000       13.2059       13.2059      11.618057       0.56192
  42    0.3336        1.5878        0.0000       13.2013       13.2013      11.613493       0.53214
  41    0.4307        1.5878        0.0000       13.1959       13.1959      11.608122       0.46700
  40    0.5894        1.5878        0.0000       13.1882       13.1882      11.600429       0.40907
  39     1.339        1.5878        0.0000       13.1557       13.1557      11.567889       0.36635
  38     1.782        1.5878        0.0000       13.1371       13.1371      11.549299       0.35392
  37     2.292        1.5878        0.0000       13.1162       13.1162      11.528349       0.34698
  36     2.964        1.5878        0.0000       13.0894       13.0894      11.501591       0.33590
  35     3.853        1.5878        0.0000       13.0549       13.0549      11.467084       0.32747
  34     5.035        1.5878        0.0000       13.0106       13.0106      11.422773       0.31654
  33     6.613        1.5878        0.0000       12.9545       12.9545      11.366646       0.30005
  32     8.786        1.5879        0.0000       12.8834       12.8834      11.295505       0.27629
  31     11.80        1.5879        0.0000       12.7885       12.7885      11.200585       0.26575
  30     15.07        1.5879        0.0000       12.6943       12.6944      11.106458       0.24302
  29     18.79        1.5879        0.0000       12.5999       12.5999      11.011978       0.21422
  28     23.16        1.5879        0.0000       12.5086       12.5086      10.920681       0.17654
  27     28.12        1.5880        0.0000       12.4288       12.4289      10.840873       0.13567
  26     33.73        1.5880        0.0000       12.3650       12.3650      10.776997       0.09604
  25     40.54        1.5881        0.0000       12.3120       12.3120      10.723936       0.06583
  24     48.69        1.5881        0.0000       12.2668       12.2668      10.678735       0.04678
  23     57.69        1.5882        0.0000       12.2260       12.2260      10.637832       0.03834
  22     68.43        1.5882        0.0000       12.1803       12.1803      10.592024       0.03601
  21     81.20        1.5883        0.0000       12.1270       12.1270      10.538699       0.03524
  20     96.49        1.5884        0.0000       12.0640       12.0640      10.475541       0.03486
  19     114.6        1.5886        0.0000       11.9885       11.9886      10.399990       0.03528
  18     136.5        1.5887        0.0000       11.8987       11.8988      10.310039       0.03459
  17     162.9        1.5890        0.0000       11.7817       11.7818      10.192802       0.03747
  16     196.4        1.5893        0.0000       11.5930       11.5930      10.003654       0.04761
  15     218.7        1.5897        0.0000       11.4055       11.4056       9.815829       0.07131
  14     243.0        1.5904        0.0000       11.1045       11.1045       9.514157       0.10463
  13     269.0        1.5913        0.0000       10.6901       10.6901       9.098815       0.13474
  12     297.5        1.5928        0.0000       10.2200       10.2201       8.627243       0.13986
  11     328.5        1.5949        0.0000        9.8187        9.8187       8.223866       0.10968
  10     361.9        1.5976        0.0000        9.4313        9.4313       7.833727       0.09871
   9     398.1        1.6012        0.0000        8.9858        8.9858       7.384587       0.10464
   8     437.6        1.6059        0.0000        8.4654        8.4655       6.859567       0.11225
   7     480.5        1.6116        0.0000        7.9394        7.9395       6.327849       0.10443
   6     533.0        1.6205        0.0000        7.4262        7.4262       5.805737       0.08399
   5     589.8        1.6336        0.0001        7.0503        7.0503       5.416793       0.05773
   4     651.6        1.6566        0.0001        6.7312        6.7313       5.074646       0.04679
   3     718.7        1.6961        0.0001        6.3693        6.3693       4.673186       0.05045
   2     792.3        1.7683        0.0001        5.9171        5.9172       4.148892       0.06013
   1     891.5        1.9533        0.0001        5.2716        5.2716       3.318292       0.07068
   0    1013.0        2.4595        0.0001        4.5136        4.5136       2.054159       0.08778

  Modules and versions used in this calculation:

       rrtmg_sw.1col.f90:  $Revision$                    rrtmg_sw_init.f90:  $Revision$        
     rrtmgsw_cldprop.f90:  $Revision$                  rrtmgsw_cldprmc.f90:  NOT USED          
     rrtmg_sw_reftra.f90:  $Revision$                  rrtmg_sw_spcvrt.f90:  NOT USED          
     rrtmg_sw_spcvmc.f90:  NOT USED                    rrtmgsw_setcoef.f90:  NOT USED          
     rrtmg_sw_taumol.f90:  $Revision$                  rrtmg_sw_vrtqdr.f90:  NOT USED          
                rrtatm.f:  NOT USED                             util_xxx.f:  NOT USED          
                 extra.f:  NOT USED                       rrtmg_sw_k_g.f90:  $Revision$        

