

 Wavenumbers:   820. - 50000. cm-1, ATM      1
 LEVEL PRESSURE   UPWARD FLUX   DIFDOWN FLUX  DIRDOWN FLUX  DOWNWARD FLUX   NET FLUX    HEATING RATE
          mb          W/m2          W/m2          W/m2        W/m2          W/m2       degree/day
  51    .06700      751.5738        0.0000     1360.8491     1360.8491     609.275367       0.00000
  50    .07753      751.5739        0.0018     1360.8273     1360.8290     609.255120      16.22890
  49    .09103      751.5742        0.0040     1360.8078     1360.8118     609.237599      10.95097
  48    0.1069      751.5745        0.0066     1360.7860     1360.7925     609.218036      10.41351
  47    0.1255      751.5750        0.0095     1360.7600     1360.7695     609.194504      10.66832
  46    0.1487      751.5757        0.0132     1360.7249     1360.7381     609.162384      11.70806
  45    0.1794      751.5768        0.0183     1360.6734     1360.6917     609.114861      13.04608
  44    0.2165      751.5784        0.0242     1360.6074     1360.6316     609.053202      14.02633
  43    0.2613      751.5806        0.0313     1360.5219     1360.5533     608.972671      15.17973
  42    0.3336      751.5848        0.0430     1360.3673     1360.4103     608.825503      17.15843
  41    0.4307      751.5913        0.0584     1360.1456     1360.2040     608.612777      18.49603
  40    0.5894      751.6037        0.0834     1359.7482     1359.8316     608.227907      20.46690
  39     1.339      751.6981        0.1982     1357.3733     1357.5716     605.873473      26.50665
  38     1.782      751.7788        0.2635     1355.8375     1356.1009     604.322144      29.53479
  37     2.292      751.8954        0.3378     1354.1208     1354.4587     602.563260      29.13171
  36     2.964      752.0839        0.4346     1352.1205     1352.5551     600.471181      26.26191
  35     3.853      752.3826        0.5617     1349.9734     1350.5351     598.152514      22.00458
  34     5.035      752.8284        0.7299     1347.7761     1348.5061     595.677619      17.67962
  33     6.613      753.4500        0.9541     1345.5290     1346.4830     593.033016      14.13805
  32     8.786      754.2643        1.2554     1343.2079     1344.4633     590.198941      11.00652
  31     11.80      755.3386        1.6856     1340.6494     1342.3350     586.996384       8.96615
  30     15.07      756.3870        2.1466     1338.4304     1340.5771     584.190084       7.24532
  29     18.79      757.4776        2.6664     1336.2864     1338.9528     581.475272       6.15531
  28     23.16      758.6436        3.2726     1334.1057     1337.3783     578.734625       5.29953
  27     28.12      759.8504        3.9650     1331.9136     1335.8786     576.028171       4.60079
  26     33.73      761.0129        4.7402     1329.7853     1334.5255     573.512640       3.78217
  25     40.54      762.1959        5.6770     1327.5375     1333.2145     571.018507       3.09425
  24     48.69      763.4066        6.8064     1325.1261     1331.9325     568.525883       2.57948
  23     57.69      764.5248        8.0468     1322.7388     1330.7855     566.260705       2.12326
  22     68.43      765.6236        9.5240     1320.1544     1329.6784     564.054738       1.73419
  21     81.20      766.6030       11.2858     1317.3916     1328.6774     562.074466       1.30853
  20     96.49      767.4580       13.3856     1314.3811     1327.7668     560.308736       0.97456
  19     114.6      768.3369       15.8736     1310.9471     1326.8207     558.483832       0.85210
  18     136.5      769.2642       18.8090     1306.9977     1325.8067     556.542517       0.74648
  17     162.9      770.2633       22.2857     1302.3518     1324.6375     554.374213       0.69308
  16     196.4      771.3248       26.7708     1296.2678     1323.0386     551.713825       0.66965
  15     218.7      771.9338       29.6981     1291.7724     1321.4705     549.536762       0.82655
  14     243.0      772.5550       32.8632     1286.1481     1319.0113     546.456280       1.06841
  13     269.0      773.1867       36.2739     1279.0245     1315.2984     542.111721       1.40935
  12     297.5      773.8325       39.9372     1270.1087     1310.0459     536.213418       1.74937
  11     328.5      774.5160       43.8688     1260.1713     1304.0400     529.524060       1.81882
  10     361.9      775.2427       48.0709     1249.4297     1297.5006     522.257974       1.83839
   9     398.1      776.0244       52.5582     1237.6382     1290.1964     514.171950       1.88386
   8     437.6      776.8831       57.3364     1224.3920     1281.7284     504.845284       1.99410
   7     480.5      777.8380       62.4127     1209.7358     1272.1486     494.310626       2.06897
   6     533.0      779.0957       68.5987     1191.2571     1259.8558     480.760137       2.17984
   5     589.8      780.6280       75.1891     1170.7333     1245.9225     465.294480       2.29561
   4     651.6      782.6747       82.1853     1147.0297     1229.2151     446.540372       2.56467
   3     718.7      785.5048       89.5891     1120.8952     1210.4843     424.979469       2.70961
   2     792.3      789.7738       97.3848     1092.1619     1189.5467     399.772901       2.89091
   1     891.5      798.9586      107.6891     1053.3991     1161.0882     362.129642       3.20326
   0    1013.0      820.1507      119.7427     1008.4859     1128.2286     308.077901       3.75309



 Wavenumbers:  2600. -  3250. cm-1, ATM      1
 LEVEL PRESSURE   UPWARD FLUX   DIFDOWN FLUX  DIRDOWN FLUX  DOWNWARD FLUX   NET FLUX    HEATING RATE
          mb          W/m2          W/m2          W/m2        W/m2          W/m2       degree/day
  51    .06700        0.0472        0.0000       11.9937       11.9937      11.946529       0.00000
  50    .07753        0.0472        0.0000       11.9937       11.9937      11.946521       0.00640
  49    .09103        0.0472        0.0000       11.9937       11.9937      11.946511       0.00627
  48    0.1069        0.0472        0.0000       11.9937       11.9937      11.946499       0.00613
  47    0.1255        0.0472        0.0000       11.9937       11.9937      11.946486       0.00600
  46    0.1487        0.0472        0.0000       11.9937       11.9937      11.946469       0.00608
  45    0.1794        0.0472        0.0000       11.9936       11.9936      11.946447       0.00625
  44    0.2165        0.0472        0.0000       11.9936       11.9936      11.946420       0.00613
  43    0.2613        0.0472        0.0000       11.9936       11.9936      11.946388       0.00601
  42    0.3336        0.0472        0.0000       11.9935       11.9935      11.946335       0.00619
  41    0.4307        0.0472        0.0000       11.9935       11.9935      11.946263       0.00622
  40    0.5894        0.0472        0.0000       11.9933       11.9933      11.946143       0.00640
  39     1.339        0.0472        0.0000       11.9926       11.9926      11.945427       0.00806
  38     1.782        0.0472        0.0000       11.9921       11.9921      11.944871       0.01057
  37     2.292        0.0472        0.0000       11.9913       11.9913      11.944131       0.01226
  36     2.964        0.0472        0.0000       11.9902       11.9902      11.943041       0.01368
  35     3.853        0.0472        0.0000       11.9886       11.9886      11.941457       0.01504
  34     5.035        0.0472        0.0000       11.9864       11.9864      11.939183       0.01624
  33     6.613        0.0472        0.0000       11.9832       11.9832      11.935967       0.01719
  32     8.786        0.0472        0.0000       11.9787       11.9787      11.931484       0.01741
  31     11.80        0.0472        0.0000       11.9722       11.9722      11.925012       0.01812
  30     15.07        0.0472        0.0000       11.9654       11.9654      11.918205       0.01757
  29     18.79        0.0472        0.0000       11.9581       11.9581      11.910917       0.01652
  28     23.16        0.0472        0.0000       11.9502       11.9502      11.902997       0.01532
  27     28.12        0.0472        0.0000       11.9418       11.9418      11.894661       0.01417
  26     33.73        0.0472        0.0000       11.9329       11.9329      11.885701       0.01347
  25     40.54        0.0472        0.0000       11.9222       11.9222      11.875007       0.01327
  24     48.69        0.0472        0.0000       11.9093       11.9093      11.862175       0.01328
  23     57.69        0.0472        0.0000       11.8949       11.8950      11.847788       0.01349
  22     68.43        0.0472        0.0000       11.8770       11.8771      11.829887       0.01407
  21     81.20        0.0472        0.0000       11.8544       11.8544      11.807226       0.01497
  20     96.49        0.0472        0.0000       11.8256       11.8257      11.778493       0.01586
  19     114.6        0.0472        0.0000       11.7886       11.7887      11.741496       0.01727
  18     136.5        0.0472        0.0000       11.7429       11.7430      11.695826       0.01756
  17     162.9        0.0472        0.0001       11.6869       11.6870      11.639833       0.01790
  16     196.4        0.0472        0.0001       11.6129       11.6130      11.565810       0.01863
  15     218.7        0.0472        0.0001       11.5605       11.5605      11.513394       0.01990
  14     243.0        0.0472        0.0001       11.4957       11.4958      11.448587       0.02248
  13     269.0        0.0472        0.0001       11.4130       11.4131      11.365921       0.02682
  12     297.5        0.0472        0.0001       11.3101       11.3102      11.263013       0.03052
  11     328.5        0.0473        0.0001       11.1933       11.1934      11.146102       0.03179
  10     361.9        0.0473        0.0001       11.0632       11.0633      11.015967       0.03293
   9     398.1        0.0474        0.0001       10.9149       10.9151      10.867619       0.03456
   8     437.6        0.0476        0.0001       10.7385       10.7387      10.691106       0.03774
   7     480.5        0.0478        0.0002       10.5233       10.5234      10.475643       0.04232
   6     533.0        0.0481        0.0002       10.2141       10.2142      10.166150       0.04979
   5     589.8        0.0485        0.0002        9.8147        9.8148       9.766305       0.05935
   4     651.6        0.0493        0.0002        9.2987        9.2989       9.249600       0.07066
   3     718.7        0.0505        0.0002        8.7065        8.7067       8.656178       0.07458
   2     792.3        0.0525        0.0002        8.0516        8.0518       7.999224       0.07535
   1     891.5        0.0575        0.0002        7.1628        7.1630       7.105516       0.07605
   0    1013.0        0.0715        0.0002        6.1112        6.1113       6.039838       0.07400



 Wavenumbers:  3250. -  4000. cm-1, ATM      1
 LEVEL PRESSURE   UPWARD FLUX   DIFDOWN FLUX  DIRDOWN FLUX  DOWNWARD FLUX   NET FLUX    HEATING RATE
          mb          W/m2          W/m2          W/m2        W/m2          W/m2       degree/day
  51    .06700        0.0005        0.0000       20.2197       20.2197      20.219113       0.00000
  50    .07753        0.0005        0.0000       20.2140       20.2140      20.213443       4.54406
  49    .09103        0.0005        0.0000       20.2088       20.2088      20.208213       3.26932
  48    0.1069        0.0005        0.0000       20.2043       20.2043      20.203788       2.35506
  47    0.1255        0.0005        0.0000       20.2005       20.2005      20.199909       1.75884
  46    0.1487        0.0005        0.0000       20.1965       20.1965      20.195987       1.42967
  45    0.1794        0.0005        0.0000       20.1921       20.1921      20.191544       1.21962
  44    0.2165        0.0005        0.0000       20.1875       20.1875      20.186977       1.03878
  43    0.2613        0.0005        0.0000       20.1827       20.1827      20.182138       0.91222
  42    0.3336        0.0005        0.0000       20.1757       20.1757      20.175116       0.81870
  41    0.4307        0.0005        0.0000       20.1678       20.1678      20.167222       0.68638
  40    0.5894        0.0005        0.0000       20.1571       20.1571      20.156528       0.56870
  39     1.339        0.0005        0.0000       20.1195       20.1195      20.118995       0.42255
  38     1.782        0.0005        0.0000       20.1017       20.1017      20.101164       0.33948
  37     2.292        0.0005        0.0000       20.0837       20.0837      20.083137       0.29857
  36     2.964        0.0005        0.0000       20.0629       20.0629      20.062386       0.26048
  35     3.853        0.0005        0.0000       20.0387       20.0387      20.038187       0.22966
  34     5.035        0.0005        0.0000       20.0099       20.0099      20.009344       0.20604
  33     6.613        0.0005        0.0000       19.9743       19.9743      19.973794       0.19005
  32     8.786        0.0005        0.0000       19.9279       19.9279      19.927391       0.18021
  31     11.80        0.0005        0.0000       19.8609       19.8609      19.860354       0.18768
  30     15.07        0.0005        0.0000       19.7861       19.7861      19.785560       0.19310
  29     18.79        0.0005        0.0000       19.6981       19.6981      19.697633       0.19936
  28     23.16        0.0005        0.0000       19.5924       19.5924      19.591913       0.20443
  27     28.12        0.0005        0.0000       19.4692       19.4692      19.468700       0.20945
  26     33.73        0.0005        0.0000       19.3318       19.3319      19.331376       0.20647
  25     40.54        0.0005        0.0001       19.1703       19.1704      19.169897       0.20033
  24     48.69        0.0005        0.0001       18.9874       18.9875      18.987009       0.18926
  23     57.69        0.0005        0.0001       18.8032       18.8032      18.802785       0.17268
  22     68.43        0.0005        0.0001       18.6047       18.6048      18.604377       0.15598
  21     81.20        0.0004        0.0001       18.3903       18.3904      18.390011       0.14165
  20     96.49        0.0004        0.0001       18.1531       18.1532      18.152770       0.13094
  19     114.6        0.0004        0.0001       17.8720       17.8722      17.871774       0.13121
  18     136.5        0.0004        0.0002       17.5464       17.5465      17.546171       0.12520
  17     162.9        0.0003        0.0002       17.1484       17.1486      17.148290       0.12718
  16     196.4        0.0003        0.0002       16.5656       16.5658      16.565524       0.14669
  15     218.7        0.0003        0.0002       16.0235       16.0238      16.023503       0.20579
  14     243.0        0.0003        0.0003       15.2654       15.2657      15.265407       0.26293
  13     269.0        0.0002        0.0003       14.2510       14.2513      14.251029       0.32906
  12     297.5        0.0002        0.0003       13.0349       13.0352      13.034946       0.36068
  11     328.5        0.0002        0.0003       11.8274       11.8277      11.827475       0.32831
  10     361.9        0.0002        0.0002       10.6546       10.6548      10.654635       0.29674
   9     398.1        0.0001        0.0002        9.4801        9.4803       9.480156       0.27363
   8     437.6        0.0001        0.0002        8.3186        8.3188       8.318686       0.24833
   7     480.5        0.0001        0.0002        7.2534        7.2537       7.253539       0.20919
   6     533.0        0.0001        0.0002        6.1288        6.1290       6.128888       0.18092
   5     589.8        0.0001        0.0002        5.0588        5.0590       5.058904       0.15882
   4     651.6        0.0001        0.0001        3.9729        3.9731       3.972974       0.14850
   3     718.7        0.0001        0.0001        2.9378        2.9379       2.937754       0.13010
   2     792.3        0.0001        0.0001        1.9615        1.9616       1.961445       0.11197
   1     891.5        0.0004        0.0000        0.9920        0.9920       0.991559       0.08253
   0    1013.0        0.0041        0.0000        0.3116        0.3117       0.307569       0.04749



 Wavenumbers:  4000. -  4650. cm-1, ATM      1
 LEVEL PRESSURE   UPWARD FLUX   DIFDOWN FLUX  DIRDOWN FLUX  DOWNWARD FLUX   NET FLUX    HEATING RATE
          mb          W/m2          W/m2          W/m2        W/m2          W/m2       degree/day
  51    .06700        0.1045        0.0000       23.7440       23.7440      23.639449       0.00000
  50    .07753        0.1045        0.0000       23.7440       23.7440      23.639448       0.00080
  49    .09103        0.1045        0.0000       23.7440       23.7440      23.639446       0.00078
  48    0.1069        0.1045        0.0000       23.7440       23.7440      23.639445       0.00076
  47    0.1255        0.1045        0.0000       23.7440       23.7440      23.639443       0.00075
  46    0.1487        0.1045        0.0000       23.7440       23.7440      23.639441       0.00076
  45    0.1794        0.1045        0.0000       23.7440       23.7440      23.639438       0.00078
  44    0.2165        0.1045        0.0000       23.7440       23.7440      23.639435       0.00076
  43    0.2613        0.1045        0.0000       23.7440       23.7440      23.639431       0.00075
  42    0.3336        0.1045        0.0000       23.7440       23.7440      23.639425       0.00077
  41    0.4307        0.1045        0.0000       23.7439       23.7439      23.639416       0.00077
  40    0.5894        0.1045        0.0000       23.7439       23.7439      23.639401       0.00080
  39     1.339        0.1045        0.0000       23.7438       23.7438      23.639311       0.00101
  38     1.782        0.1045        0.0000       23.7438       23.7438      23.639242       0.00133
  37     2.292        0.1045        0.0000       23.7437       23.7437      23.639148       0.00156
  36     2.964        0.1045        0.0000       23.7435       23.7435      23.639007       0.00176
  35     3.853        0.1045        0.0000       23.7433       23.7433      23.638799       0.00198
  34     5.035        0.1045        0.0000       23.7430       23.7430      23.638492       0.00219
  33     6.613        0.1045        0.0000       23.7425       23.7426      23.638039       0.00242
  32     8.786        0.1045        0.0000       23.7418       23.7419      23.637371       0.00260
  31     11.80        0.1045        0.0000       23.7408       23.7408      23.636319       0.00295
  30     15.07        0.1045        0.0001       23.7395       23.7396      23.635082       0.00319
  29     18.79        0.1045        0.0001       23.7380       23.7381      23.633582       0.00340
  28     23.16        0.1045        0.0001       23.7361       23.7362      23.631715       0.00361
  27     28.12        0.1044        0.0001       23.7338       23.7339      23.629447       0.00385
  26     33.73        0.1044        0.0001       23.7309       23.7311      23.626640       0.00422
  25     40.54        0.1044        0.0001       23.7271       23.7272      23.622816       0.00474
  24     48.69        0.1044        0.0002       23.7219       23.7221      23.617691       0.00530
  23     57.69        0.1043        0.0002       23.7157       23.7159      23.611579       0.00573
  22     68.43        0.1043        0.0002       23.7079       23.7082      23.603875       0.00606
  21     81.20        0.1043        0.0003       23.6983       23.6986      23.594324       0.00631
  20     96.49        0.1042        0.0003       23.6865       23.6868      23.582633       0.00645
  19     114.6        0.1042        0.0004       23.6717       23.6721      23.567934       0.00686
  18     136.5        0.1041        0.0005       23.6537       23.6542      23.550130       0.00685
  17     162.9        0.1040        0.0006       23.6317       23.6322      23.528234       0.00700
  16     196.4        0.1039        0.0007       23.6012       23.6019      23.497959       0.00762
  15     218.7        0.1039        0.0008       23.5777       23.5784      23.474583       0.00887
  14     243.0        0.1038        0.0008       23.5456       23.5464      23.442630       0.01108
  13     269.0        0.1038        0.0009       23.4995       23.5004      23.396659       0.01491
  12     297.5        0.1037        0.0010       23.4351       23.4361      23.332400       0.01906
  11     328.5        0.1037        0.0011       23.3555       23.3566      23.252942       0.02160
  10     361.9        0.1037        0.0012       23.2571       23.2584      23.154683       0.02486
   9     398.1        0.1037        0.0014       23.1295       23.1309      23.027195       0.02970
   8     437.6        0.1037        0.0015       22.9586       22.9601      22.856359       0.03653
   7     480.5        0.1038        0.0016       22.7369       22.7385      22.634721       0.04353
   6     533.0        0.1039        0.0017       22.4191       22.4208      22.316842       0.05114
   5     589.8        0.1042        0.0019       22.0335       22.0354      21.931229       0.05724
   4     651.6        0.1047        0.0020       21.5654       21.5674      21.462783       0.06406
   3     718.7        0.1055        0.0022       21.0164       21.0185      20.913052       0.06909
   2     792.3        0.1070        0.0023       20.2979       20.3001      20.193129       0.08257
   1     891.5        0.1108        0.0024       19.1088       19.1111      19.000299       0.10150
   0    1013.0        0.1217        0.0024       17.6373       17.6397      17.517988       0.10292



 Wavenumbers:  4650. -  5150. cm-1, ATM      1
 LEVEL PRESSURE   UPWARD FLUX   DIFDOWN FLUX  DIRDOWN FLUX  DOWNWARD FLUX   NET FLUX    HEATING RATE
          mb          W/m2          W/m2          W/m2        W/m2          W/m2       degree/day
  51    .06700        0.0383        0.0000       22.4748       22.4748      22.436452       0.00000
  50    .07753        0.0383        0.0000       22.4746       22.4746      22.436215       0.18925
  49    .09103        0.0383        0.0000       22.4743       22.4743      22.435919       0.18504
  48    0.1069        0.0383        0.0000       22.4739       22.4739      22.435580       0.18064
  47    0.1255        0.0383        0.0000       22.4735       22.4735      22.435191       0.17622
  46    0.1487        0.0383        0.0000       22.4730       22.4730      22.434703       0.17814
  45    0.1794        0.0383        0.0000       22.4724       22.4724      22.434038       0.18241
  44    0.2165        0.0383        0.0000       22.4716       22.4716      22.433256       0.17785
  43    0.2613        0.0383        0.0000       22.4707       22.4707      22.432337       0.17328
  42    0.3336        0.0383        0.0000       22.4692       22.4692      22.430832       0.17553
  41    0.4307        0.0383        0.0000       22.4672       22.4672      22.428864       0.17112
  40    0.5894        0.0383        0.0000       22.4641       22.4641      22.425717       0.16731
  39     1.339        0.0383        0.0000       22.4502       22.4502      22.411884       0.15573
  38     1.782        0.0383        0.0000       22.4428       22.4428      22.404513       0.14034
  37     2.292        0.0383        0.0000       22.4349       22.4350      22.396627       0.13062
  36     2.964        0.0383        0.0000       22.4255       22.4255      22.387198       0.11836
  35     3.853        0.0383        0.0000       22.4145       22.4145      22.376182       0.10454
  34     5.035        0.0383        0.0000       22.4019       22.4019      22.363634       0.08964
  33     6.613        0.0383        0.0000       22.3880       22.3881      22.349774       0.07409
  32     8.786        0.0383        0.0000       22.3731       22.3731      22.334823       0.05807
  31     11.80        0.0383        0.0001       22.3562       22.3563      22.318025       0.04703
  30     15.07        0.0383        0.0001       22.3413       22.3414      22.303107       0.03852
  29     18.79        0.0382        0.0001       22.3259       22.3260      22.287750       0.03482
  28     23.16        0.0382        0.0001       22.3082       22.3083      22.270057       0.03421
  27     28.12        0.0382        0.0002       22.2870       22.2872      22.248961       0.03586
  26     33.73        0.0382        0.0002       22.2617       22.2618      22.223680       0.03801
  25     40.54        0.0381        0.0002       22.2285       22.2287      22.190580       0.04107
  24     48.69        0.0381        0.0003       22.1852       22.1854      22.147346       0.04474
  23     57.69        0.0380        0.0003       22.1340       22.1344      22.096312       0.04784
  22     68.43        0.0380        0.0004       22.0694       22.0698      22.031784       0.05073
  21     81.20        0.0379        0.0004       21.9886       21.9891      21.951124       0.05330
  20     96.49        0.0379        0.0005       21.8895       21.8900      21.852156       0.05462
  19     114.6        0.0378        0.0006       21.7708       21.7714      21.733655       0.05533
  18     136.5        0.0377        0.0007       21.6320       21.6327      21.595054       0.05330
  17     162.9        0.0376        0.0008       21.4726       21.4734      21.435825       0.05090
  16     196.4        0.0374        0.0010       21.2786       21.2796      21.242153       0.04875
  15     218.7        0.0373        0.0011       21.1582       21.1593      21.121976       0.04563
  14     243.0        0.0373        0.0012       21.0313       21.0325      20.995230       0.04396
  13     269.0        0.0372        0.0013       20.8948       20.8961      20.858933       0.04421
  12     297.5        0.0371        0.0015       20.7434       20.7449      20.707791       0.04483
  11     328.5        0.0370        0.0016       20.5767       20.5783      20.541274       0.04528
  10     361.9        0.0369        0.0018       20.3907       20.3925      20.355584       0.04698
   9     398.1        0.0369        0.0019       20.1791       20.1810      20.144141       0.04926
   8     437.6        0.0368        0.0021       19.9341       19.9362      19.899395       0.05233
   7     480.5        0.0368        0.0022       19.6480       19.6502      19.613437       0.05616
   6     533.0        0.0368        0.0024       19.2600       19.2624      19.225546       0.06240
   5     589.8        0.0369        0.0025       18.7890       18.7915      18.754617       0.06990
   4     651.6        0.0372        0.0027       18.1977       18.2004      18.163249       0.08087
   3     718.7        0.0376        0.0028       17.4829       17.4857      17.448048       0.08988
   2     792.3        0.0385        0.0029       16.6464       16.6494      16.610904       0.09601
   1     891.5        0.0405        0.0030       15.4816       15.4846      15.444134       0.09929
   0    1013.0        0.0454        0.0031       14.1857       14.1888      14.143417       0.09032



 Wavenumbers:  5150. -  6150. cm-1, ATM      1
 LEVEL PRESSURE   UPWARD FLUX   DIFDOWN FLUX  DIRDOWN FLUX  DOWNWARD FLUX   NET FLUX    HEATING RATE
          mb          W/m2          W/m2          W/m2        W/m2          W/m2       degree/day
  51    .06700        0.2327        0.0000       56.3444       56.3444      56.111701       0.00000
  50    .07753        0.2327        0.0000       56.3444       56.3444      56.111661       0.03156
  49    .09103        0.2327        0.0000       56.3443       56.3443      56.111610       0.03205
  48    0.1069        0.2327        0.0000       56.3442       56.3442      56.111549       0.03256
  47    0.1255        0.2327        0.0000       56.3442       56.3442      56.111476       0.03306
  46    0.1487        0.2327        0.0000       56.3441       56.3441      56.111380       0.03484
  45    0.1794        0.2327        0.0000       56.3439       56.3439      56.111245       0.03709
  44    0.2165        0.2327        0.0000       56.3438       56.3438      56.111080       0.03767
  43    0.2613        0.2327        0.0000       56.3436       56.3436      56.110877       0.03826
  42    0.3336        0.2327        0.0000       56.3432       56.3432      56.110530       0.04045
  41    0.4307        0.2327        0.0000       56.3427       56.3427      56.110058       0.04103
  40    0.5894        0.2327        0.0000       56.3419       56.3419      56.109266       0.04209
  39     1.339        0.2327        0.0000       56.3381       56.3381      56.105436       0.04312
  38     1.782        0.2327        0.0000       56.3358       56.3358      56.103193       0.04270
  37     2.292        0.2326        0.0001       56.3332       56.3333      56.100644       0.04223
  36     2.964        0.2326        0.0001       56.3299       56.3300      56.097387       0.04089
  35     3.853        0.2326        0.0001       56.3257       56.3258      56.093218       0.03956
  34     5.035        0.2326        0.0001       56.3203       56.3204      56.087800       0.03870
  33     6.613        0.2325        0.0002       56.3131       56.3132      56.080686       0.03803
  32     8.786        0.2325        0.0002       56.3036       56.3038      56.071321       0.03637
  31     11.80        0.2324        0.0003       56.2905       56.2908      56.058380       0.03623
  30     15.07        0.2323        0.0004       56.2770       56.2774      56.045078       0.03434
  29     18.79        0.2322        0.0005       56.2626       56.2631      56.030811       0.03235
  28     23.16        0.2321        0.0006       56.2466       56.2471      56.015006       0.03056
  27     28.12        0.2320        0.0007       56.2292       56.2299      55.997880       0.02911
  26     33.73        0.2319        0.0008       56.2110       56.2119      55.979979       0.02691
  25     40.54        0.2317        0.0010       56.1906       56.1916      55.959887       0.02493
  24     48.69        0.2315        0.0012       56.1681       56.1693      55.937780       0.02288
  23     57.69        0.2313        0.0014       56.1451       56.1466      55.915240       0.02113
  22     68.43        0.2311        0.0017       56.1195       56.1212      55.890159       0.01972
  21     81.20        0.2308        0.0020       56.0907       56.0927      55.861884       0.01868
  20     96.49        0.2304        0.0024       56.0573       56.0597      55.829262       0.01800
  19     114.6        0.2300        0.0028       56.0182       56.0211      55.791075       0.01783
  18     136.5        0.2295        0.0034       55.9719       55.9753      55.745742       0.01743
  17     162.9        0.2289        0.0040       55.9013       55.9053      55.676344       0.02218
  16     196.4        0.2281        0.0048       55.7479       55.7527      55.524556       0.03821
  15     218.7        0.2276        0.0053       55.5243       55.5296      55.301997       0.08450
  14     243.0        0.2271        0.0059       55.1190       55.1249      54.897742       0.14021
  13     269.0        0.2266        0.0064       54.3924       54.3987      54.172179       0.23537
  12     297.5        0.2260        0.0068       53.2527       53.2596      53.033575       0.33770
  11     328.5        0.2254        0.0073       51.9857       51.9930      51.767636       0.34421
  10     361.9        0.2248        0.0078       50.6721       50.6799      50.455077       0.33209
   9     398.1        0.2242        0.0083       49.1893       49.1976      48.973368       0.34520
   8     437.6        0.2236        0.0087       47.4187       47.4274      47.203786       0.37835
   7     480.5        0.2230        0.0091       45.4500       45.4590      45.236020       0.38646
   6     533.0        0.2224        0.0095       43.0596       43.0691      42.846680       0.38437
   5     589.8        0.2219        0.0098       40.5463       40.5561      40.334218       0.37293
   4     651.6        0.2217        0.0102       37.8928       37.9030      37.681369       0.36278
   3     718.7        0.2219        0.0106       35.4719       35.4825      35.260588       0.30423
   2     792.3        0.2232        0.0111       33.4066       33.4177      33.194489       0.23696
   1     891.5        0.2280        0.0117       31.3475       31.3592      31.131149       0.17558
   0    1013.0        0.2461        0.0122       29.2817       29.2939      29.047827       0.14466



 Wavenumbers:  6150. -  7700. cm-1, ATM      1
 LEVEL PRESSURE   UPWARD FLUX   DIFDOWN FLUX  DIRDOWN FLUX  DOWNWARD FLUX   NET FLUX    HEATING RATE
          mb          W/m2          W/m2          W/m2        W/m2          W/m2       degree/day
  51    .06700        2.4987        0.0000      104.2111      104.2111     101.712471       0.00000
  50    .07753        2.4987        0.0000      104.2111      104.2111     101.712414       0.04554
  49    .09103        2.4986        0.0000      104.2110      104.2110     101.712341       0.04583
  48    0.1069        2.4986        0.0000      104.2109      104.2109     101.712254       0.04615
  47    0.1255        2.4986        0.0000      104.2108      104.2108     101.712152       0.04646
  46    0.1487        2.4986        0.0000      104.2107      104.2107     101.712019       0.04854
  45    0.1794        2.4986        0.0000      104.2105      104.2105     101.711832       0.05129
  44    0.2165        2.4986        0.0000      104.2102      104.2102     101.711604       0.05171
  43    0.2613        2.4986        0.0000      104.2099      104.2100     101.711328       0.05215
  42    0.3336        2.4986        0.0000      104.2095      104.2095     101.710858       0.05478
  41    0.4307        2.4986        0.0000      104.2088      104.2088     101.710222       0.05531
  40    0.5894        2.4986        0.0001      104.2077      104.2078     101.709160       0.05648
  39     1.339        2.4985        0.0001      104.2024      104.2026     101.704040       0.05764
  38     1.782        2.4985        0.0002      104.1993      104.1995     101.701042       0.05707
  37     2.292        2.4984        0.0002      104.1958      104.1961     101.697626       0.05659
  36     2.964        2.4984        0.0003      104.1913      104.1916     101.693239       0.05506
  35     3.853        2.4983        0.0004      104.1854      104.1859     101.687591       0.05360
  34     5.035        2.4982        0.0005      104.1778      104.1784     101.680220       0.05266
  33     6.613        2.4980        0.0007      104.1678      104.1685     101.670507       0.05193
  32     8.786        2.4978        0.0009      104.1545      104.1554     101.657650       0.04993
  31     11.80        2.4975        0.0013      104.1359      104.1372     101.639735       0.05016
  30     15.07        2.4971        0.0016      104.1166      104.1183     101.621114       0.04808
  29     18.79        2.4968        0.0020      104.0956      104.0976     101.600871       0.04590
  28     23.16        2.4963        0.0025      104.0720      104.0745     101.578126       0.04398
  27     28.12        2.4958        0.0030      104.0459      104.0489     101.553106       0.04253
  26     33.73        2.4953        0.0037      104.0181      104.0218     101.526494       0.04001
  25     40.54        2.4946        0.0044      103.9863      103.9907     101.496085       0.03773
  24     48.69        2.4938        0.0053      103.9504      103.9557     101.461868       0.03541
  23     57.69        2.4929        0.0062      103.9130      103.9192     101.426335       0.03331
  22     68.43        2.4918        0.0074      103.8705      103.8779     101.386103       0.03163
  21     81.20        2.4906        0.0088      103.8219      103.8306     101.340073       0.03042
  20     96.49        2.4890        0.0104      103.7651      103.7755     101.286493       0.02957
  19     114.6        2.4872        0.0124      103.6981      103.7105     101.223269       0.02952
  18     136.5        2.4851        0.0147      103.6182      103.6328     101.147773       0.02903
  17     162.9        2.4825        0.0174      103.5018      103.5192     101.036696       0.03550
  16     196.4        2.4792        0.0210      103.2601      103.2810     100.801854       0.05911
  15     218.7        2.4770        0.0233      102.9097      102.9330     100.455914       0.13134
  14     243.0        2.4748        0.0256      102.2732      102.2988      99.824073       0.21914
  13     269.0        2.4724        0.0280      101.2641      101.2921      98.819669       0.32582
  12     297.5        2.4701        0.0303       99.6695       99.6998      97.229675       0.47157
  11     328.5        2.4678        0.0325       97.6082       97.6408      95.172967       0.55921
  10     361.9        2.4656        0.0348       95.2483       95.2831      92.817472       0.59596
   9     398.1        2.4637        0.0370       92.6564       92.6934      90.229753       0.60288
   8     437.6        2.4622        0.0391       89.7047       89.7437      87.281565       0.63034
   7     480.5        2.4614        0.0409       86.3265       86.3674      83.906018       0.66294
   6     533.0        2.4619        0.0427       81.9787       82.0215      79.559600       0.69920
   5     589.8        2.4651        0.0443       77.1953       77.2395      74.774385       0.71028
   4     651.6        2.4744        0.0453       71.7796       71.8249      69.350498       0.74173
   3     718.7        2.4941        0.0460       66.2294       66.2753      63.781279       0.69990
   2     792.3        2.5344        0.0463       60.7106       60.7569      58.222584       0.63752
   1     891.5        2.6471        0.0465       54.2338       54.2803      51.633252       0.56072
   0    1013.0        3.0172        0.0469       47.9982       48.0451      45.027849       0.45865



 Wavenumbers:  7700. -  8050. cm-1, ATM      1
 LEVEL PRESSURE   UPWARD FLUX   DIFDOWN FLUX  DIRDOWN FLUX  DOWNWARD FLUX   NET FLUX    HEATING RATE
          mb          W/m2          W/m2          W/m2        W/m2          W/m2       degree/day
  51    .06700        4.2444        0.0000       24.6282       24.6282      20.383786       0.00000
  50    .07753        4.2444        0.0000       24.6282       24.6282      20.383766       0.01665
  49    .09103        4.2444        0.0000       24.6281       24.6281      20.383740       0.01632
  48    0.1069        4.2444        0.0000       24.6281       24.6281      20.383709       0.01597
  47    0.1255        4.2444        0.0000       24.6281       24.6281      20.383675       0.01563
  46    0.1487        4.2444        0.0000       24.6280       24.6281      20.383631       0.01586
  45    0.1794        4.2444        0.0000       24.6280       24.6280      20.383572       0.01632
  44    0.2165        4.2444        0.0000       24.6279       24.6279      20.383502       0.01601
  43    0.2613        4.2444        0.0000       24.6279       24.6279      20.383418       0.01571
  42    0.3336        4.2445        0.0000       24.6277       24.6277      20.383280       0.01608
  41    0.4307        4.2445        0.0000       24.6276       24.6276      20.383098       0.01590
  40    0.5894        4.2445        0.0000       24.6273       24.6273      20.382799       0.01589
  39     1.339        4.2447        0.0001       24.6260       24.6261      20.381385       0.01591
  38     1.782        4.2448        0.0001       24.6253       24.6254      20.380555       0.01581
  37     2.292        4.2450        0.0001       24.6244       24.6245      20.379593       0.01592
  36     2.964        4.2451        0.0001       24.6233       24.6234      20.378331       0.01585
  35     3.853        4.2453        0.0002       24.6218       24.6220      20.376662       0.01583
  34     5.035        4.2456        0.0003       24.6198       24.6201      20.374445       0.01584
  33     6.613        4.2460        0.0003       24.6172       24.6175      20.371482       0.01584
  32     8.786        4.2465        0.0004       24.6136       24.6140      20.367488       0.01551
  31     11.80        4.2473        0.0006       24.6085       24.6091      20.361773       0.01600
  30     15.07        4.2481        0.0008       24.6030       24.6037      20.355634       0.01585
  29     18.79        4.2490        0.0010       24.5968       24.5977      20.348698       0.01573
  28     23.16        4.2501        0.0012       24.5895       24.5907      20.340595       0.01567
  27     28.12        4.2513        0.0014       24.5812       24.5827      20.331328       0.01575
  26     33.73        4.2527        0.0017       24.5720       24.5737      20.320958       0.01559
  25     40.54        4.2544        0.0021       24.5608       24.5629      20.308430       0.01554
  24     48.69        4.2565        0.0025       24.5473       24.5498      20.293333       0.01562
  23     57.69        4.2587        0.0029       24.5326       24.5355      20.276757       0.01554
  22     68.43        4.2614        0.0035       24.5150       24.5185      20.257029       0.01551
  21     81.20        4.2647        0.0041       24.4941       24.4983      20.233549       0.01552
  20     96.49        4.2686        0.0049       24.4694       24.4742      20.205607       0.01542
  19     114.6        4.2733        0.0058       24.4400       24.4458      20.172484       0.01547
  18     136.5        4.2790        0.0069       24.4054       24.4123      20.133302       0.01507
  17     162.9        4.2858        0.0082       24.3644       24.3726      20.086749       0.01488
  16     196.4        4.2949        0.0098       24.3116       24.3214      20.026540       0.01516
  15     218.7        4.3009        0.0109       24.2771       24.2880      19.987069       0.01499
  14     243.0        4.3076        0.0121       24.2397       24.2518      19.944181       0.01488
  13     269.0        4.3150        0.0134       24.1993       24.2127      19.897652       0.01509
  12     297.5        4.3232        0.0148       24.1556       24.1704      19.847200       0.01496
  11     328.5        4.3323        0.0163       24.1084       24.1247      19.792445       0.01489
  10     361.9        4.3424        0.0179       24.0575       24.0755      19.733100       0.01501
   9     398.1        4.3536        0.0197       24.0026       24.0222      19.668596       0.01503
   8     437.6        4.3663        0.0215       23.9430       23.9645      19.598251       0.01504
   7     480.5        4.3805        0.0236       23.8783       23.9019      19.521378       0.01510
   6     533.0        4.3991        0.0260       23.7972       23.8232      19.424112       0.01565
   5     589.8        4.4209        0.0287       23.7068       23.7355      19.314583       0.01626
   4     651.6        4.4472        0.0315       23.6034       23.6350      19.187743       0.01735
   3     718.7        4.4797        0.0346       23.4831       23.5177      19.037999       0.01882
   2     792.3        4.5213        0.0378       23.3388       23.3766      18.855346       0.02095
   1     891.5        4.5926        0.0420       23.1128       23.1548      18.562163       0.02495
   0    1013.0        4.7091        0.0469       22.7908       22.8377      18.128553       0.03011



 Wavenumbers:  8050. - 12850. cm-1, ATM      1
 LEVEL PRESSURE   UPWARD FLUX   DIFDOWN FLUX  DIRDOWN FLUX  DOWNWARD FLUX   NET FLUX    HEATING RATE
          mb          W/m2          W/m2          W/m2        W/m2          W/m2       degree/day
  51    .06700      170.5226        0.0000      344.8128      344.8128     174.290261       0.00000
  50    .07753      170.5226        0.0000      344.8128      344.8128     174.290261       0.00000
  49    .09103      170.5226        0.0001      344.8127      344.8128     174.290261       0.00000
  48    0.1069      170.5226        0.0001      344.8127      344.8128     174.290261      -0.00000
  47    0.1255      170.5225        0.0002      344.8126      344.8128     174.290261      -0.00000
  46    0.1487      170.5225        0.0003      344.8125      344.8128     174.290261       0.00000
  45    0.1794      170.5225        0.0004      344.8124      344.8128     174.290261       0.00000
  44    0.2165      170.5225        0.0005      344.8122      344.8128     174.290261       0.00000
  43    0.2613      170.5225        0.0007      344.8121      344.8128     174.290261      -0.00000
  42    0.3336      170.5225        0.0009      344.8118      344.8127     174.290261       0.00000
  41    0.4307      170.5224        0.0013      344.8114      344.8127     174.290261       0.00000
  40    0.5894      170.5224        0.0019      344.8108      344.8126     174.290261       0.00000
  39     1.339      170.5221        0.0045      344.8078      344.8123     174.290261      -0.00000
  38     1.782      170.5219        0.0061      344.8061      344.8121     174.290261      -0.00000
  37     2.292      170.5217        0.0079      344.8041      344.8119     174.290261       0.00000
  36     2.964      170.5214        0.0102      344.8014      344.8117     174.290261       0.00000
  35     3.853      170.5210        0.0134      344.7979      344.8113     174.290261       0.00000
  34     5.035      170.5206        0.0175      344.7933      344.8108     174.290261       0.00000
  33     6.613      170.5199        0.0231      344.7871      344.8102     174.290261      -0.00000
  32     8.786      170.5191        0.0306      344.7787      344.8093     174.290261       0.00000
  31     11.80      170.5179        0.0414      344.7667      344.8081     174.290261      -0.00000
  30     15.07      170.5165        0.0529      344.7539      344.8068     174.290261       0.00000
  29     18.79      170.5150        0.0660      344.7393      344.8053     174.290261      -0.00000
  28     23.16      170.5133        0.0813      344.7223      344.8036     174.290261       0.00000
  27     28.12      170.5113        0.0988      344.7028      344.8016     174.290261       0.00000
  26     33.73      170.5091        0.1184      344.6809      344.7993     174.290261       0.00000
  25     40.54      170.5064        0.1422      344.6545      344.7966     174.290261      -0.00000
  24     48.69      170.5031        0.1708      344.6225      344.7934     174.290261       0.00000
  23     57.69      170.4995        0.2023      344.5874      344.7898     174.290261      -0.00000
  22     68.43      170.4952        0.2399      344.5455      344.7855     174.290261       0.00000
  21     81.20      170.4901        0.2848      344.4955      344.7803     174.290261      -0.00000
  20     96.49      170.4839        0.3384      344.4358      344.7742     174.290261       0.00000
  19     114.6      170.4770        0.4022      344.3587      344.7609     174.283867       0.00299
  18     136.5      170.4687        0.4780      344.2667      344.7446     174.275928       0.00305
  17     162.9      170.4589        0.5684      344.1533      344.7217     174.262758       0.00421
  16     196.4      170.4464        0.6861      343.9892      344.6753     174.228961       0.00851
  15     218.7      170.4385        0.7635      343.8402      344.6037     174.165227       0.02420
  14     243.0      170.4311        0.8478      343.5933      344.4411     174.009971       0.05385
  13     269.0      170.4257        0.9390      343.1662      344.1052     173.679449       0.10722
  12     297.5      170.4251        1.0374      342.4819      343.5193     173.094174       0.17359
  11     328.5      170.4312        1.1437      341.5922      342.7359     172.304687       0.21466
  10     361.9      170.4477        1.2581      340.5080      341.7660     171.318370       0.24955
   9     398.1      170.4806        1.3807      339.1885      340.5693     170.088672       0.28649
   8     437.6      170.5404        1.5117      337.5272      339.0389     168.498506       0.33999
   7     480.5      170.6396        1.6510      335.4327      337.0837     166.444060       0.40349
   6     533.0      170.8280        1.8204      332.3652      334.1856     163.357584       0.49652
   5     589.8      171.1530        1.9997      328.3420      330.3417     159.188672       0.61880
   4     651.6      171.7594        2.1856      322.7671      324.9527     153.193365       0.81987
   3     718.7      172.8411        2.3770      315.5619      317.9389     145.097847       1.01738
   2     792.3      174.8374        2.5701      306.5104      309.0805     134.243092       1.24492
   1     891.5      179.9296        2.8096      292.9732      295.7828     115.853263       1.56489
   0    1013.0      193.8620        3.0730      276.3074      279.3804      85.518334       2.10631



 Wavenumbers: 12850. - 16000. cm-1, ATM      1
 LEVEL PRESSURE   UPWARD FLUX   DIFDOWN FLUX  DIRDOWN FLUX  DOWNWARD FLUX   NET FLUX    HEATING RATE
          mb          W/m2          W/m2          W/m2        W/m2          W/m2       degree/day
  51    .06700      160.6763        0.0000      216.0557      216.0557      55.379426       0.00000
  50    .07753      160.6763        0.0001      216.0548      216.0549      55.378613       0.65175
  49    .09103      160.6764        0.0002      216.0538      216.0540      55.377582       0.64422
  48    0.1069      160.6765        0.0004      216.0525      216.0529      55.376385       0.63724
  47    0.1255      160.6766        0.0005      216.0510      216.0516      55.374993       0.63115
  46    0.1487      160.6767        0.0007      216.0492      216.0499      55.373211       0.64951
  45    0.1794      160.6770        0.0010      216.0467      216.0477      55.370747       0.67641
  44    0.2165      160.6773        0.0013      216.0438      216.0451      55.367793       0.67215
  43    0.2613      160.6777        0.0017      216.0403      216.0420      55.364242       0.66920
  42    0.3336      160.6785        0.0023      216.0345      216.0368      55.358287       0.69439
  41    0.4307      160.6798        0.0032      216.0269      216.0301      55.350319       0.69279
  40    0.5894      160.6821        0.0046      216.0146      216.0192      55.337134       0.70112
  39     1.339      160.6991        0.0111      215.9584      215.9695      55.270337       0.75202
  38     1.782      160.7136        0.0150      215.9258      215.9408      55.227206       0.82114
  37     2.292      160.7345        0.0194      215.8879      215.9073      55.172865       0.90003
  36     2.964      160.7682        0.0252      215.8370      215.8623      55.094032       0.98959
  35     3.853      160.8218        0.0330      215.7678      215.8008      54.979008       1.09160
  34     5.035      160.9018        0.0432      215.6752      215.7184      54.816683       1.15958
  33     6.613      161.0131        0.0569      215.5548      215.6117      54.598613       1.16581
  32     8.786      161.1583        0.0753      215.4027      215.4780      54.319676       1.08329
  31     11.80      161.3487        0.1017      215.2043      215.3060      53.957341       1.01442
  30     15.07      161.5327        0.1301      215.0098      215.1399      53.607206       0.90398
  29     18.79      161.7223        0.1621      214.8056      214.9677      53.245418       0.82028
  28     23.16      161.9226        0.1995      214.5841      214.7836      52.861027       0.74329
  27     28.12      162.1271        0.2424      214.3504      214.5927      52.465677       0.67207
  26     33.73      162.3206        0.2904      214.1164      214.4068      52.086183       0.57058
  25     40.54      162.5136        0.3485      213.8655      214.2140      51.700400       0.47861
  24     48.69      162.7065        0.4186      213.5943      214.0129      51.306379       0.40775
  23     57.69      162.8799        0.4957      213.3269      213.8226      50.942698       0.34090
  22     68.43      163.0449        0.5878      213.0419      213.6297      50.584870       0.28130
  21     81.20      163.1842        0.6978      212.7488      213.4466      50.262406       0.21308
  20     96.49      163.2974        0.8292      212.4447      213.2739      49.976475       0.15781
  19     114.6      163.4305        0.9875      212.1101      213.0976      49.667085       0.14446
  18     136.5      163.5651        1.1754      211.7382      212.9136      49.348534       0.12249
  17     162.9      163.7042        1.3996      211.3198      212.7194      49.015186       0.10655
  16     196.4      163.8395        1.6910      210.8156      212.5066      48.667109       0.08762
  15     218.7      163.9123        1.8828      210.4965      212.3793      48.466981       0.07598
  14     243.0      163.9849        2.0917      210.1519      212.2436      48.258733       0.07223
  13     269.0      164.0575        2.3184      209.7781      212.0965      48.038950       0.07130
  12     297.5      164.1320        2.5639      209.3683      211.9322      47.800281       0.07079
  11     328.5      164.2132        2.8297      208.9170      211.7468      47.533543       0.07253
  10     361.9      164.3037        3.1166      208.4189      211.5355      47.231852       0.07633
   9     398.1      164.4073        3.4260      207.8679      211.2939      46.886565       0.08044
   8     437.6      164.5314        3.7591      207.2544      211.0134      46.482044       0.08649
   7     480.5      164.6829        4.1169      206.5713      210.6882      46.005274       0.09364
   6     533.0      164.9055        4.5585      205.6883      210.2468      45.341325       0.10681
   5     589.8      165.2123        5.0354      204.6670      209.7024      44.490056       0.12636
   4     651.6      165.6785        5.5479      203.4324      208.9803      43.301857       0.16249
   3     718.7      166.3587        6.0945      201.9561      208.0506      41.691946       0.20232
   2     792.3      167.4196        6.6712      200.1346      206.8059      39.386235       0.26444
   1     891.5      169.6696        7.4305      197.2502      204.6807      35.011082       0.37230
   0    1013.0      174.1985        8.3146      193.2807      201.5953      27.396799       0.52870



 Wavenumbers: 16000. - 22650. cm-1, ATM      1
 LEVEL PRESSURE   UPWARD FLUX   DIFDOWN FLUX  DIRDOWN FLUX  DOWNWARD FLUX   NET FLUX    HEATING RATE
          mb          W/m2          W/m2          W/m2        W/m2          W/m2       degree/day
  51    .06700      281.0309        0.0000      344.4769      344.4769      63.446049       0.00000
  50    .07753      281.0311        0.0005      344.4763      344.4769      63.445836       0.17098
  49    .09103      281.0313        0.0012      344.4756      344.4768      63.445526       0.19393
  48    0.1069      281.0317        0.0020      344.4748      344.4768      63.445110       0.22115
  47    0.1255      281.0321        0.0029      344.4737      344.4767      63.444554       0.25208
  46    0.1487      281.0327        0.0041      344.4724      344.4765      63.443735       0.29871
  45    0.1794      281.0337        0.0056      344.4705      344.4761      63.442453       0.35171
  44    0.2165      281.0349        0.0075      344.4682      344.4757      63.440716       0.39529
  43    0.2613      281.0366        0.0097      344.4653      344.4750      63.438358       0.44440
  42    0.3336      281.0397        0.0133      344.4603      344.4736      63.433876       0.52261
  41    0.4307      281.0444        0.0181      344.4534      344.4715      63.427119       0.58749
  40    0.5894      281.0531        0.0260      344.4414      344.4673      63.414232       0.68530
  39     1.339      281.1153        0.0632      344.3711      344.4343      63.319008       1.07205
  38     1.782      281.1672        0.0851      344.3200      344.4051      63.237868       1.54477
  37     2.292      281.2417        0.1104      344.2517      344.3620      63.120388       1.94578
  36     2.964      281.3615        0.1436      344.1480      344.2915      62.929996       2.38999
  35     3.853      281.5510        0.1875      343.9913      344.1787      62.627712       2.86873
  34     5.035      281.8334        0.2457      343.7640      344.0097      62.176332       3.22448
  33     6.613      282.2264        0.3235      343.4511      343.7746      61.548261       3.35767
  32     8.786      282.7397        0.4283      343.0410      343.4694      60.729633       3.17925
  31     11.80      283.4138        0.5783      342.4947      343.0730      59.659198       2.99688
  30     15.07      284.0671        0.7393      341.9547      342.6940      58.626946       2.66507
  29     18.79      284.7417        0.9213      341.3868      342.3081      57.566373       2.40465
  28     23.16      285.4565        1.1338      340.7717      341.9056      56.449091       2.16046
  27     28.12      286.1883        1.3771      340.1241      341.5012      55.312896       1.93146
  26     33.73      286.8843        1.6495      339.4775      341.1271      54.242758       1.60898
  25     40.54      287.5829        1.9791      338.7859      340.7651      53.182189       1.31576
  24     48.69      288.2867        2.3770      338.0389      340.4159      52.129233       1.08964
  23     57.69      288.9257        2.8146      337.3015      340.1161      51.190410       0.88000
  22     68.43      289.5422        3.3366      336.5123      339.8489      50.306659       0.69475
  21     81.20      290.0783        3.9598      335.6921      339.6519      49.573571       0.48441
  20     96.49      290.5327        4.7038      334.8256      339.5294      48.996730       0.31837
  19     114.6      290.9757        5.5876      333.8560      339.4436      48.467902       0.24693
  18     136.5      291.4356        6.6351      332.7466      339.3817      47.946125       0.20064
  17     162.9      291.9231        7.8823      331.4625      339.3448      47.421702       0.16763
  16     196.4      292.4262        9.5001      329.8743      339.3744      46.948188       0.11919
  15     218.7      292.7085       10.5625      328.8601      339.4226      46.714109       0.08887
  14     243.0      292.9924       11.7170      327.7715      339.4885      46.496116       0.07561
  13     269.0      293.2760       12.9678      326.6061      339.5740      46.297990       0.06427
  12     297.5      293.5592       14.3193      325.3603      339.6796      46.120422       0.05266
  11     328.5      293.8532       15.7792      324.0212      339.8003      45.947114       0.04712
  10     361.9      294.1581       17.3505      322.5859      339.9364      45.778285       0.04272
   9     398.1      294.4755       19.0411      321.0470      340.0881      45.612568       0.03861
   8     437.6      294.8089       20.8561      319.3978      340.2540      45.445069       0.03581
   7     480.5      295.1591       22.8013      317.6330      340.4343      45.275279       0.03335
   6     533.0      295.5849       25.1956      315.4613      340.6569      45.072029       0.03270
   5     589.8      296.0461       27.7768      313.1151      340.8919      44.845757       0.03359
   4     651.6      296.5588       30.5527      310.5763      341.1290      44.570198       0.03768
   3     718.7      297.1390       33.5323      307.8270      341.3593      44.220311       0.04397
   2     792.3      297.8247       36.7193      304.8404      341.5597      43.735033       0.05566
   1     891.5      298.9139       41.0118      300.7148      341.7266      42.812736       0.07848
   0    1013.0      300.4956       46.1518      295.6311      341.7830      41.287381       0.10591



 Wavenumbers: 22650. - 29000. cm-1, ATM      1
 LEVEL PRESSURE   UPWARD FLUX   DIFDOWN FLUX  DIRDOWN FLUX  DOWNWARD FLUX   NET FLUX    HEATING RATE
          mb          W/m2          W/m2          W/m2        W/m2          W/m2       degree/day
  51    .06700      113.9639        0.0000      129.9930      129.9930      16.029108       0.00000
  50    .07753      113.9640        0.0006      129.9925      129.9931      16.029108       0.00000
  49    .09103      113.9641        0.0014      129.9918      129.9932      16.029108       0.00000
  48    0.1069      113.9643        0.0024      129.9910      129.9934      16.029108      -0.00000
  47    0.1255      113.9644        0.0034      129.9901      129.9935      16.029108       0.00000
  46    0.1487      113.9646        0.0048      129.9889      129.9937      16.029108      -0.00000
  45    0.1794      113.9648        0.0066      129.9874      129.9939      16.029108       0.00000
  44    0.2165      113.9651        0.0088      129.9855      129.9942      16.029108       0.00000
  43    0.2613      113.9655        0.0113      129.9833      129.9946      16.029108      -0.00000
  42    0.3336      113.9661        0.0156      129.9796      129.9952      16.029108      -0.00000
  41    0.4307      113.9668        0.0212      129.9747      129.9959      16.029108       0.00000
  40    0.5894      113.9681        0.0304      129.9668      129.9972      16.029108      -0.00000
  39     1.339      113.9740        0.0739      129.9292      130.0031      16.029108       0.00000
  38     1.782      113.9775        0.0995      129.9071      130.0066      16.029108       0.00000
  37     2.292      113.9815        0.1290      129.8815      130.0106      16.029108       0.00000
  36     2.964      113.9868        0.1679      129.8480      130.0159      16.029108       0.00000
  35     3.853      113.9937        0.2192      129.8036      130.0228      16.029108      -0.00000
  34     5.035      114.0030        0.2874      129.7447      130.0321      16.029108       0.00000
  33     6.613      114.0153        0.3785      129.6660      130.0445      16.029108       0.00000
  32     8.786      114.0320        0.5012      129.5599      130.0611      16.029108      -0.00000
  31     11.80      114.0558        0.6768      129.4082      130.0849      16.029108       0.00000
  30     15.07      114.0814        0.8652      129.2453      130.1105      16.029108       0.00000
  29     18.79      114.1102        1.0780      129.0613      130.1393      16.029108      -0.00000
  28     23.16      114.1438        1.3264      128.8465      130.1729      16.029108       0.00000
  27     28.12      114.1822        1.6102      128.6010      130.2113      16.029108       0.00000
  26     33.73      114.2250        1.9276      128.3266      130.2541      16.029108      -0.00000
  25     40.54      114.2767        2.3105      127.9953      130.3058      16.029108       0.00000
  24     48.69      114.3387        2.7713      127.5965      130.3678      16.029108       0.00000
  23     57.69      114.4066        3.2764      127.1593      130.4357      16.029108       0.00000
  22     68.43      114.4870        3.8765      126.6397      130.5161      16.029108       0.00000
  21     81.20      114.5823        4.5890      126.0224      130.6114      16.029108      -0.00000
  20     96.49      114.6951        5.4346      125.2896      130.7242      16.029108       0.00000
  19     114.6      114.8277        6.4334      124.4234      130.8568      16.029108      -0.00000
  18     136.5      114.9833        7.6100      123.4024      131.0124      16.029108      -0.00000
  17     162.9      115.1661        9.0005      122.1947      131.1952      16.029108       0.00000
  16     196.4      115.3993       10.7865      120.6419      131.4284      16.029108       0.00000
  15     218.7      115.5500       11.9489      119.6303      131.5791      16.029108       0.00000
  14     243.0      115.7118       13.2030      118.5379      131.7409      16.029108       0.00000
  13     269.0      115.8845       14.5513      117.3624      131.9136      16.029108       0.00000
  12     297.5      116.0683       15.9957      116.1018      132.0974      16.029108      -0.00000
  11     328.5      116.2636       17.5422      114.7505      132.2927      16.029108       0.00000
  10     361.9      116.4700       19.1908      113.3083      132.4991      16.029108       0.00000
   9     398.1      116.6877       20.9463      111.7705      132.7168      16.029108      -0.00000
   8     437.6      116.9165       22.8102      110.1353      132.9456      16.029108      -0.00000
   7     480.5      117.1559       24.7839      108.4010      133.1850      16.029108       0.00000
   6     533.0      117.4424       27.1799      106.2917      133.4715      16.029108       0.00000
   5     589.8      117.7414       29.7223      104.0483      133.7705      16.029108      -0.00000
   4     651.6      118.0516       32.4108      101.6700      134.0807      16.029108      -0.00000
   3     718.7      118.3716       35.2449       99.1558      134.4007      16.029108       0.00000
   2     792.3      118.6991       38.2199       96.5083      134.7282      16.029108      -0.00000
   1     891.5      119.1167       42.1394       93.0064      135.1458      16.029108       0.00000
   0    1013.0      119.5809       46.7018       88.9082      135.6101      16.029108       0.00000



 Wavenumbers: 29000. - 38000. cm-1, ATM      1
 LEVEL PRESSURE   UPWARD FLUX   DIFDOWN FLUX  DIRDOWN FLUX  DOWNWARD FLUX   NET FLUX    HEATING RATE
          mb          W/m2          W/m2          W/m2        W/m2          W/m2       degree/day
  51    .06700       18.1850        0.0000       45.8410       45.8410      27.655964       0.00000
  50    .07753       18.1849        0.0004       45.8366       45.8370      27.652134       3.06971
  49    .09103       18.1848        0.0009       45.8305       45.8313      27.646559       3.48459
  48    0.1069       18.1846        0.0014       45.8223       45.8237      27.639089       3.97626
  47    0.1255       18.1845        0.0020       45.8116       45.8136      27.629088       4.53413
  46    0.1487       18.1844        0.0028       45.7959       45.7987      27.614349       5.37246
  45    0.1794       18.1842        0.0039       45.7716       45.7756      27.591332       6.31876
  44    0.2165       18.1841        0.0052       45.7391       45.7443      27.560182       7.08592
  43    0.2613       18.1840        0.0067       45.6954       45.7021      27.518070       7.93796
  42    0.3336       18.1841        0.0092       45.6134       45.6226      27.438561       9.26996
  41    0.4307       18.1843        0.0125       45.4920       45.5045      27.320226      10.28899
  40    0.5894       18.1850        0.0178       45.2670       45.2848      27.099754      11.72443
  39     1.339       18.1963        0.0411       43.8242       43.8653      25.668958      16.10817
  38     1.782       18.2080        0.0535       42.8351       42.8886      24.680557      18.81755
  37     2.292       18.2260        0.0671       41.6852       41.7523      23.526288      19.11770
  36     2.964       18.2563        0.0840       40.2943       40.3783      22.121984      17.62826
  35     3.853       18.3057        0.1055       38.7687       38.8742      20.568467      14.74316
  34     5.035       18.3806        0.1332       37.2304       37.3636      18.982949      11.32628
  33     6.613       18.4863        0.1692       35.7405       35.9098      17.423483       8.33691
  32     8.786       18.6261        0.2169       34.3295       34.5464      15.920297       5.83783
  31     11.80       18.8133        0.2841       32.9481       33.2322      14.418910       4.20341
  30     15.07       18.9998        0.3554       31.8942       32.2496      13.249782       3.01846
  29     18.79       19.1986        0.4348       30.9854       31.4202      12.221656       2.33108
  28     23.16       19.4172        0.5266       30.1559       30.6824      11.265211       1.84945
  27     28.12       19.6509        0.6307       29.4043       30.0350      10.384131       1.49778
  26     33.73       19.8826        0.7475       28.7514       29.4989       9.616317       1.15443
  25     40.54       20.1244        0.8887       28.1328       29.0215       8.897108       0.89226
  24     48.69       20.3787        1.0591       27.5340       28.5931       8.214420       0.70647
  23     57.69       20.6190        1.2463       26.9971       28.2434       7.624391       0.55306
  22     68.43       20.8590        1.4698       26.4694       27.9392       7.080220       0.42779
  21     81.20       21.0711        1.7386       25.9669       27.7055       6.634307       0.29465
  20     96.49       21.2502        2.0609       25.4748       27.5357       6.285495       0.19252
  19     114.6       21.4248        2.4407       24.9506       27.3914       5.966533       0.14893
  18     136.5       21.6076        2.8842       24.3745       27.2587       5.651052       0.12131
  17     162.9       21.8037        3.4036       23.7328       27.1365       5.332768       0.10174
  16     196.4       22.0014        4.0694       22.9761       27.0455       5.044110       0.07266
  15     218.7       22.1091        4.4986       22.5089       27.0075       4.898392       0.05532
  14     243.0       22.2158        4.9577       22.0192       26.9769       4.761049       0.04764
  13     269.0       22.3195        5.4469       21.5077       26.9547       4.635146       0.04084
  12     297.5       22.4192        5.9661       20.9749       26.9411       4.521867       0.03360
  11     328.5       22.5200        6.5146       20.4165       26.9311       4.411151       0.03010
  10     361.9       22.6212        7.0910       19.8338       26.9248       4.303650       0.02720
   9     398.1       22.7225        7.6954       19.2267       26.9221       4.199615       0.02424
   8     437.6       22.8244        8.3261       18.5955       26.9216       4.097215       0.02189
   7     480.5       22.9258        8.9819       17.9419       26.9238       3.997988       0.01949
   6     533.0       23.0411        9.7615       17.1671       26.9286       3.887520       0.01777
   5     589.8       23.1559       10.5674       16.3664       26.9338       3.777917       0.01627
   4     651.6       23.2700       11.3963       15.5420       26.9383       3.668283       0.01499
   3     718.7       23.3828       12.2440       14.6973       26.9412       3.558490       0.01380
   2     792.3       23.4927       13.1037       13.8375       26.9412       3.448519       0.01261
   1     891.5       23.6260       14.1919       12.7437       26.9356       3.309595       0.01182
   0    1013.0       23.7660       15.3896       11.5285       26.9181       3.152113       0.01093



 Wavenumbers: 38000. - 50000. cm-1, ATM      1
 LEVEL PRESSURE   UPWARD FLUX   DIFDOWN FLUX  DIRDOWN FLUX  DOWNWARD FLUX   NET FLUX    HEATING RATE
          mb          W/m2          W/m2          W/m2        W/m2          W/m2       degree/day
  51    .06700        0.0077        0.0000        2.8274        2.8274       2.819732       0.00000
  50    .07753        0.0076        0.0001        2.8250        2.8250       2.817394       1.87426
  49    .09103        0.0076        0.0002        2.8215        2.8216       2.814052       2.08853
  48    0.1069        0.0075        0.0003        2.8169        2.8172       2.809652       2.34203
  47    0.1255        0.0074        0.0004        2.8109        2.8113       2.803854       2.62885
  46    0.1487        0.0073        0.0005        2.8022        2.8027       2.795433       3.06948
  45    0.1794        0.0072        0.0007        2.7889        2.7896       2.782446       3.56531
  44    0.2165        0.0070        0.0009        2.7712        2.7721       2.765088       3.94851
  43    0.2613        0.0068        0.0012        2.7476        2.7487       2.741916       4.36792
  42    0.3336        0.0065        0.0015        2.7038        2.7053       2.698800       5.02689
  41    0.4307        0.0062        0.0020        2.6399        2.6419       2.635738       5.48307
  40    0.5894        0.0056        0.0027        2.5241        2.5268       2.521231       6.08937
  39     1.339        0.0038        0.0042        1.8543        1.8585       1.854685       7.50409
  38     1.782        0.0031        0.0041        1.4655        1.4696       1.466513       7.39018
  37     2.292        0.0024        0.0036        1.0872        1.0908       1.088339       6.26353
  36     2.964        0.0019        0.0030        0.7358        0.7388       0.736859       4.41214
  35     3.853        0.0015        0.0024        0.4711        0.4735       0.472010       2.51347
  34     5.035        0.0012        0.0019        0.2988        0.3008       0.299620       1.23148
  33     6.613        0.0009        0.0016        0.1889        0.1905       0.189608       0.58813
  32     8.786        0.0007        0.0013        0.1196        0.1208       0.120133       0.26981
  31     11.80        0.0005        0.0010        0.0741        0.0751       0.074563       0.12758
  30     15.07        0.0004        0.0008        0.0493        0.0501       0.049700       0.06419
  29     18.79        0.0003        0.0006        0.0330        0.0336       0.033348       0.03707
  28     23.16        0.0002        0.0004        0.0217        0.0221       0.021940       0.02206
  27     28.12        0.0001        0.0003        0.0140        0.0144       0.014212       0.01314
  26     33.73        0.0001        0.0002        0.0091        0.0093       0.009223       0.00750
  25     40.54        0.0001        0.0002        0.0057        0.0059       0.005793       0.00426
  24     48.69        0.0000        0.0001        0.0034        0.0035       0.003483       0.00239
  23     57.69        0.0000        0.0001        0.0020        0.0021       0.002088       0.00131
  22     68.43        0.0000        0.0000        0.0012        0.0012       0.001190       0.00071
  21     81.20        0.0000        0.0000        0.0006        0.0007       0.000647       0.00036
  20     96.49        0.0000        0.0000        0.0003        0.0003       0.000330       0.00018
  19     114.6        0.0000        0.0000        0.0001        0.0002       0.000151       0.00008
  18     136.5        0.0000        0.0000        0.0001        0.0001       0.000060       0.00003
  17     162.9        0.0000        0.0000        0.0000        0.0000       0.000020       0.00001
  16     196.4        0.0000        0.0000        0.0000        0.0000       0.000005       0.00000
  15     218.7        0.0000        0.0000        0.0000        0.0000       0.000002       0.00000
  14     243.0        0.0000        0.0000        0.0000        0.0000       0.000001       0.00000
  13     269.0        0.0000        0.0000        0.0000        0.0000       0.000000       0.00000
  12     297.5        0.0000        0.0000        0.0000        0.0000       0.000000       0.00000
  11     328.5        0.0000        0.0000        0.0000        0.0000       0.000000       0.00000
  10     361.9        0.0000        0.0000        0.0000        0.0000       0.000000       0.00000
   9     398.1        0.0000        0.0000        0.0000        0.0000       0.000000       0.00000
   8     437.6        0.0000        0.0000        0.0000        0.0000       0.000000       0.00000
   7     480.5        0.0000        0.0000        0.0000        0.0000       0.000000       0.00000
   6     533.0        0.0000        0.0000        0.0000        0.0000       0.000000       0.00000
   5     589.8        0.0000        0.0000        0.0000        0.0000       0.000000       0.00000
   4     651.6        0.0000        0.0000        0.0000        0.0000       0.000000       0.00000
   3     718.7        0.0000        0.0000        0.0000        0.0000       0.000000       0.00000
   2     792.3        0.0000        0.0000        0.0000        0.0000       0.000000       0.00000
   1     891.5        0.0000        0.0000        0.0000        0.0000       0.000000       0.00000
   0    1013.0        0.0000        0.0000        0.0000        0.0000       0.000000       0.00000



 Wavenumbers:   820. -  2600. cm-1, ATM      1
 LEVEL PRESSURE   UPWARD FLUX   DIFDOWN FLUX  DIRDOWN FLUX  DOWNWARD FLUX   NET FLUX    HEATING RATE
          mb          W/m2          W/m2          W/m2        W/m2          W/m2       degree/day
  51    .06700        0.0211        0.0000       13.2264       13.2264      13.205327       0.00000
  50    .07753        0.0211        0.0000       13.2194       13.2194      13.198305       5.62794
  49    .09103        0.0211        0.0000       13.2178       13.2178      13.196731       0.98409
  48    0.1069        0.0211        0.0000       13.2167       13.2167      13.195604       0.59956
  47    0.1255        0.0211        0.0000       13.2154       13.2154      13.194314       0.58514
  46    0.1487        0.0211        0.0000       13.2137       13.2137      13.192656       0.60400
  45    0.1794        0.0211        0.0000       13.2114       13.2114      13.190398       0.62011
  44    0.2165        0.0211        0.0000       13.2088       13.2088      13.187780       0.59555
  43    0.2613        0.0211        0.0000       13.2059       13.2059      13.184799       0.56187
  42    0.3336        0.0211        0.0000       13.2013       13.2013      13.180235       0.53209
  41    0.4307        0.0211        0.0000       13.1959       13.1959      13.174865       0.46695
  40    0.5894        0.0211        0.0000       13.1882       13.1882      13.167173       0.40901
  39     1.339        0.0211        0.0000       13.1557       13.1557      13.134638       0.36629
  38     1.782        0.0211        0.0000       13.1371       13.1371      13.116051       0.35386
  37     2.292        0.0211        0.0000       13.1162       13.1162      13.095106       0.34692
  36     2.964        0.0211        0.0000       13.0894       13.0894      13.068352       0.33584
  35     3.853        0.0211        0.0000       13.0549       13.0549      13.033851       0.32742
  34     5.035        0.0211        0.0000       13.0106       13.0106      12.989547       0.31649
  33     6.613        0.0211        0.0000       12.9545       12.9545      12.933431       0.30000
  32     8.786        0.0211        0.0000       12.8834       12.8834      12.862305       0.27623
  31     11.80        0.0211        0.0000       12.7885       12.7885      12.767405       0.26569
  30     15.07        0.0211        0.0000       12.6943       12.6944      12.673300       0.24296
  29     18.79        0.0211        0.0000       12.5999       12.5999      12.578844       0.21416
  28     23.16        0.0211        0.0000       12.5086       12.5086      12.487576       0.17648
  27     28.12        0.0211        0.0000       12.4288       12.4289      12.407802       0.13561
  26     33.73        0.0211        0.0000       12.3650       12.3650      12.343962       0.09598
  25     40.54        0.0211        0.0000       12.3120       12.3120      12.290946       0.06577
  24     48.69        0.0211        0.0000       12.2668       12.2668      12.245798       0.04672
  23     57.69        0.0211        0.0000       12.2260       12.2260      12.204952       0.03829
  22     68.43        0.0210        0.0000       12.1803       12.1803      12.159215       0.03596
  21     81.20        0.0210        0.0000       12.1270       12.1270      12.105975       0.03518
  20     96.49        0.0210        0.0000       12.0640       12.0640      12.042924       0.03480
  19     114.6        0.0210        0.0000       11.9885       11.9885      11.967500       0.03522
  18     136.5        0.0210        0.0000       11.8987       11.8988      11.877711       0.03453
  17     162.9        0.0210        0.0000       11.7817       11.7817      11.760701       0.03740
  16     196.4        0.0211        0.0000       11.5930       11.5930      11.571948       0.04751
  15     218.7        0.0211        0.0000       11.4055       11.4056      11.384505       0.07117
  14     243.0        0.0211        0.0000       11.1045       11.1045      11.083453       0.10441
  13     269.0        0.0211        0.0000       10.6901       10.6901      10.669037       0.13443
  12     297.5        0.0211        0.0000       10.2200       10.2201      10.198967       0.13942
  11     328.5        0.0211        0.0000        9.8187        9.8187       9.797614       0.10913
  10     361.9        0.0211        0.0000        9.4313        9.4313       9.410190       0.09802
   9     398.1        0.0212        0.0000        8.9858        8.9858       8.964595       0.10381
   8     437.6        0.0212        0.0000        8.4654        8.4654       8.444194       0.11127
   7     480.5        0.0213        0.0000        7.9394        7.9395       7.918160       0.10331
   6     533.0        0.0214        0.0000        7.4262        7.4262       7.404754       0.08259
   5     589.8        0.0216        0.0000        7.0503        7.0503       7.028729       0.05581
   4     651.6        0.0219        0.0000        6.7312        6.7313       6.709345       0.04368
   3     718.7        0.0224        0.0000        6.3693        6.3693       6.346869       0.04555
   2     792.3        0.0234        0.0000        5.9171        5.9172       5.893792       0.05196
   1     891.5        0.0258        0.0000        5.2716        5.2716       5.245787       0.05514
   0    1013.0        0.0325        0.0000        4.5136        4.5136       4.481126       0.05309

  Modules and versions used in this calculation:

       rrtmg_sw.1col.f90:  $Revision$                    rrtmg_sw_init.f90:  $Revision$        
     rrtmgsw_cldprop.f90:  $Revision$                  rrtmgsw_cldprmc.f90:  NOT USED          
     rrtmg_sw_reftra.f90:  $Revision$                  rrtmg_sw_spcvrt.f90:  NOT USED          
     rrtmg_sw_spcvmc.f90:  NOT USED                    rrtmgsw_setcoef.f90:  NOT USED          
     rrtmg_sw_taumol.f90:  $Revision$                  rrtmg_sw_vrtqdr.f90:  NOT USED          
                rrtatm.f:  NOT USED                             util_xxx.f:  NOT USED          
                 extra.f:  NOT USED                       rrtmg_sw_k_g.f90:  $Revision$        

