

 Wavenumbers:   820. - 50000. cm-1, ATM      1
 LEVEL PRESSURE   UPWARD FLUX   DIFDOWN FLUX  DIRDOWN FLUX  DOWNWARD FLUX   NET FLUX    HEATING RATE
          mb          W/m2          W/m2          W/m2        W/m2          W/m2       degree/day
  51    .06700      398.8584        0.0000      617.8126      617.8126     218.954157       0.00000
  50    .07753      398.8581        0.0014      617.7948      617.7962     218.938141      12.83694
  49    .09103      398.8576        0.0030      617.7782      617.7812     218.923596       9.09098
  48    0.1069      398.8571        0.0050      617.7588      617.7638     218.906686       9.00096
  47    0.1255      398.8566        0.0072      617.7352      617.7424     218.885759       9.48744
  46    0.1487      398.8561        0.0101      617.7026      617.7127     218.856607      10.62640
  45    0.1794      398.8554        0.0139      617.6545      617.6685     218.813098      11.94426
  44    0.2165      398.8546        0.0185      617.5928      617.6113     218.756635      12.84417
  43    0.2613      398.8540        0.0238      617.5133      617.5371     218.683166      13.84876
  42    0.3336      398.8531        0.0327      617.3703      617.4030     218.549868      15.54123
  41    0.4307      398.8525        0.0443      617.1679      617.2122     218.359679      16.53646
  40    0.5894      398.8525        0.0631      616.8134      616.8765     218.024035      17.84911
  39     1.339      398.8711        0.1481      614.9754      615.1235     216.252355      19.94591
  38     1.782      398.8952        0.1959      614.0076      614.2035     215.308235      17.97452
  37     2.292      398.8947        0.3887      596.7855      597.1742     198.279555     282.03935
  36     2.964      398.9506        0.5014      594.2897      594.7911     195.840484      30.61772
  35     3.853      399.0584        0.6141      592.4101      593.0241     193.965717      17.79188
  34     5.035      399.2297        0.7467      590.7114      591.4581     192.228342      12.41109
  33     6.613      399.4735        0.9143      589.0668      589.9811     190.507642       9.19886
  32     8.786      399.7922        1.1343      587.4083      588.5426     188.750410       6.82445
  31     11.80      400.2055        1.4446      585.5863      587.0309     186.825376       5.38949
  30     15.07      400.5990        1.7753      583.9976      585.7729     185.173875       4.26385
  29     18.79      400.9986        2.1466      582.4541      584.6007     183.602128       3.56363
  28     23.16      401.4134        2.5782      580.8640      583.4422     182.028794       3.04232
  27     28.12      401.8269        3.0695      579.2378      582.3073     180.480407       2.63215
  26     33.73      402.2006        3.6173      577.6294      581.2467     179.046124       2.15648
  25     40.54      402.5483        4.2771      575.8678      580.1450     177.596612       1.79828
  24     48.69      402.8671        5.0690      573.9552      579.0241     176.157005       1.48977
  23     57.69      403.1197        5.9346      572.0482      577.9827     174.863033       1.21290
  22     68.43      403.3147        6.9602      569.9784      576.9386     173.623850       0.97416
  21     81.20      403.3999        8.1763      567.7645      575.9408     172.540825       0.71565
  20     96.49      403.3650        9.6163      565.3611      574.9774     171.612347       0.51245
  19     114.6      403.2770       11.3105      562.4210      573.7314     170.454380       0.54069
  18     136.5      403.1255       13.2943      559.1263      572.4206     169.295085       0.44578
  17     162.9      402.9038       15.6226      555.3906      571.0132     168.109418       0.37899
  16     196.4      402.5239       18.5927      550.7756      569.3684     166.844514       0.31839
  15     218.7      402.2442       20.5128      547.6970      568.2097     165.965490       0.33373
  14     243.0      401.9281       22.5725      544.4293      567.0018     165.073687       0.30931
  13     269.0      401.5759       24.7735      540.7368      565.5103     163.934331       0.36960
  12     297.5      401.1889       27.1164      536.5007      563.6171     162.428224       0.44669
  11     328.5      400.7767       29.6076      531.5611      561.1687     160.392013       0.55364
  10     361.9      400.3447       32.2430      525.7405      557.9834     157.638739       0.69661
   9     398.1      399.8997       35.0272      518.8517      553.8789     153.979226       0.85258
   8     437.6      399.4554       37.9587      510.7829      548.7416     149.286203       1.00340
   7     480.5      399.0293       41.0356      501.5380      542.5737     143.544354       1.12768
   6     533.0      398.5983       44.7342      489.7109      534.4451     135.846776       1.23830
   5     589.8      398.2826       48.6156      476.8761      525.4917     127.209103       1.28211
   4     651.6      398.1716       52.6695      463.2026      515.8721     117.700504       1.30033
   3     718.7      398.3580       56.8885      449.0987      505.9871     107.629113       1.26569
   2     792.3      399.0394       61.2554      434.4558      495.7113      96.671843       1.25668
   1     891.5      400.9826       66.9105      415.5935      482.5040      81.521312       1.28924
   0    1013.0      405.3874       73.3719      394.8125      468.1844      62.797050       1.30012



 Wavenumbers:  2600. -  3250. cm-1, ATM      1
 LEVEL PRESSURE   UPWARD FLUX   DIFDOWN FLUX  DIRDOWN FLUX  DOWNWARD FLUX   NET FLUX    HEATING RATE
          mb          W/m2          W/m2          W/m2        W/m2          W/m2       degree/day
  51    .06700        0.0273        0.0000        5.4450        5.4450       5.417748       0.00000
  50    .07753        0.0273        0.0000        5.4450        5.4450       5.417740       0.00640
  49    .09103        0.0273        0.0000        5.4450        5.4450       5.417730       0.00627
  48    0.1069        0.0273        0.0000        5.4450        5.4450       5.417719       0.00613
  47    0.1255        0.0273        0.0000        5.4450        5.4450       5.417706       0.00599
  46    0.1487        0.0273        0.0000        5.4450        5.4450       5.417689       0.00608
  45    0.1794        0.0273        0.0000        5.4450        5.4450       5.417666       0.00625
  44    0.2165        0.0273        0.0000        5.4449        5.4449       5.417639       0.00612
  43    0.2613        0.0273        0.0000        5.4449        5.4449       5.417607       0.00600
  42    0.3336        0.0273        0.0000        5.4448        5.4448       5.417555       0.00617
  41    0.4307        0.0273        0.0000        5.4448        5.4448       5.417483       0.00620
  40    0.5894        0.0273        0.0000        5.4446        5.4446       5.417364       0.00637
  39     1.339        0.0273        0.0000        5.4439        5.4439       5.416656       0.00797
  38     1.782        0.0273        0.0000        5.4434        5.4434       5.416113       0.01034
  37     2.292        0.0273        0.0000        5.4427        5.4427       5.415397       0.01186
  36     2.964        0.0273        0.0000        5.4416        5.4416       5.414358       0.01304
  35     3.853        0.0273        0.0000        5.4402        5.4402       5.412881       0.01402
  34     5.035        0.0273        0.0000        5.4381        5.4381       5.410826       0.01468
  33     6.613        0.0273        0.0000        5.4353        5.4353       5.408045       0.01487
  32     8.786        0.0273        0.0000        5.4317        5.4317       5.404413       0.01411
  31     11.80        0.0273        0.0000        5.4269        5.4269       5.399633       0.01338
  30     15.07        0.0273        0.0000        5.4224        5.4224       5.395107       0.01169
  29     18.79        0.0273        0.0000        5.4180        5.4180       5.390695       0.01000
  28     23.16        0.0273        0.0000        5.4135        5.4135       5.386210       0.00867
  27     28.12        0.0273        0.0000        5.4088        5.4088       5.381564       0.00790
  26     33.73        0.0273        0.0000        5.4036        5.4036       5.376325       0.00788
  25     40.54        0.0273        0.0000        5.3966        5.3967       5.369385       0.00861
  24     48.69        0.0273        0.0000        5.3872        5.3872       5.359912       0.00980
  23     57.69        0.0273        0.0000        5.3754        5.3754       5.348133       0.01104
  22     68.43        0.0273        0.0000        5.3599        5.3599       5.332652       0.01217
  21     81.20        0.0273        0.0000        5.3401        5.3401       5.312828       0.01310
  20     96.49        0.0273        0.0000        5.3155        5.3155       5.288275       0.01355
  19     114.6        0.0273        0.0000        5.2649        5.2650       5.237702       0.02361
  18     136.5        0.0273        0.0000        5.2143        5.2143       5.187083       0.01946
  17     162.9        0.0272        0.0001        5.1642        5.1642       5.136982       0.01601
  16     196.4        0.0273        0.0001        5.1096        5.1096       5.082371       0.01375
  15     218.7        0.0273        0.0001        5.0731        5.0732       5.045925       0.01384
  14     243.0        0.0273        0.0001        5.0382        5.0383       5.011070       0.01209
  13     269.0        0.0273        0.0001        4.9976        4.9977       4.970470       0.01317
  12     297.5        0.0273        0.0001        4.9488        4.9489       4.921575       0.01450
  11     328.5        0.0273        0.0001        4.8876        4.8877       4.860434       0.01662
  10     361.9        0.0273        0.0001        4.8081        4.8082       4.780887       0.02013
   9     398.1        0.0274        0.0001        4.7027        4.7028       4.675395       0.02458
   8     437.6        0.0275        0.0001        4.5636        4.5637       4.536255       0.02975
   7     480.5        0.0276        0.0001        4.3882        4.3883       4.360740       0.03447
   6     533.0        0.0278        0.0002        4.1480        4.1482       4.120414       0.03866
   5     589.8        0.0281        0.0002        3.8814        3.8816       3.853463       0.03962
   4     651.6        0.0285        0.0002        3.6068        3.6070       3.578412       0.03761
   3     718.7        0.0292        0.0002        3.3276        3.3278       3.298589       0.03517
   2     792.3        0.0302        0.0002        3.0341        3.0343       3.004096       0.03377
   1     891.5        0.0321        0.0002        2.6614        2.6615       2.629446       0.03188
   0    1013.0        0.0358        0.0002        2.2796        2.2798       2.243972       0.02677



 Wavenumbers:  3250. -  4000. cm-1, ATM      1
 LEVEL PRESSURE   UPWARD FLUX   DIFDOWN FLUX  DIRDOWN FLUX  DOWNWARD FLUX   NET FLUX    HEATING RATE
          mb          W/m2          W/m2          W/m2        W/m2          W/m2       degree/day
  51    .06700        0.0003        0.0000        9.1795        9.1795       9.179224       0.00000
  50    .07753        0.0003        0.0000        9.1747        9.1747       9.174355       3.90287
  49    .09103        0.0003        0.0000        9.1713        9.1713       9.171036       2.07467
  48    0.1069        0.0003        0.0000        9.1689        9.1689       9.168629       1.28112
  47    0.1255        0.0003        0.0000        9.1668        9.1668       9.166509       0.96121
  46    0.1487        0.0003        0.0000        9.1645        9.1645       9.164236       0.82829
  45    0.1794        0.0003        0.0000        9.1619        9.1619       9.161567       0.73288
  44    0.2165        0.0003        0.0000        9.1592        9.1592       9.158878       0.61167
  43    0.2613        0.0003        0.0000        9.1565        9.1565       9.156181       0.50841
  42    0.3336        0.0003        0.0000        9.1528        9.1528       9.152484       0.43101
  41    0.4307        0.0003        0.0000        9.1487        9.1487       9.148386       0.35634
  40    0.5894        0.0003        0.0000        9.1428        9.1428       9.142493       0.31334
  39     1.339        0.0003        0.0000        9.1196        9.1196       9.119311       0.26099
  38     1.782        0.0003        0.0000        9.1090        9.1090       9.108728       0.20149
  37     2.292        0.0003        0.0000        5.6408        5.6408       5.640487      57.44312
  36     2.964        0.0003        0.0000        5.2690        5.2690       5.268731       4.66666
  35     3.853        0.0003        0.0000        5.0778        5.0779       5.077534       1.81449
  34     5.035        0.0003        0.0000        4.9535        4.9535       4.953136       0.88865
  33     6.613        0.0003        0.0000        4.8651        4.8651       4.864824       0.47212
  32     8.786        0.0003        0.0000        4.7998        4.7998       4.799438       0.25394
  31     11.80        0.0003        0.0000        4.7474        4.7474       4.747125       0.14646
  30     15.07        0.0003        0.0000        4.7125        4.7125       4.712148       0.09031
  29     18.79        0.0003        0.0000        4.6857        4.6857       4.685393       0.06066
  28     23.16        0.0003        0.0000        4.6623        4.6623       4.661999       0.04524
  27     28.12        0.0003        0.0000        4.6402        4.6402       4.639913       0.03754
  26     33.73        0.0003        0.0000        4.6190        4.6190       4.618671       0.03194
  25     40.54        0.0003        0.0000        4.5860        4.5860       4.585697       0.04091
  24     48.69        0.0003        0.0000        4.5513        4.5514       4.551058       0.03585
  23     57.69        0.0003        0.0000        4.5181        4.5182       4.517891       0.03109
  22     68.43        0.0003        0.0001        4.4846        4.4847       4.484405       0.02632
  21     81.20        0.0003        0.0001        4.4504        4.4504       4.450137       0.02264
  20     96.49        0.0003        0.0001        4.4145        4.4146       4.414294       0.01978
  19     114.6        0.0003        0.0001        4.3743        4.3744       4.374136       0.01875
  18     136.5        0.0002        0.0001        4.3281        4.3282       4.327969       0.01775
  17     162.9        0.0002        0.0001        4.2750        4.2751       4.274913       0.01696
  16     196.4        0.0002        0.0001        4.2022        4.2024       4.202181       0.01831
  15     218.7        0.0002        0.0001        4.1275        4.1276       4.127411       0.02839
  14     243.0        0.0002        0.0002        4.0469        4.0471       4.046932       0.02791
  13     269.0        0.0002        0.0002        3.9227        3.9229       3.922724       0.04029
  12     297.5        0.0001        0.0002        3.7430        3.7432       3.743043       0.05329
  11     328.5        0.0001        0.0002        3.5029        3.5031       3.502936       0.06528
  10     361.9        0.0001        0.0002        3.2076        3.2078       3.207716       0.07469
   9     398.1        0.0001        0.0002        2.8689        2.8691       2.868978       0.07892
   8     437.6        0.0001        0.0002        2.5078        2.5080       2.507920       0.07720
   7     480.5        0.0001        0.0002        2.1370        2.1372       2.137084       0.07283
   6     533.0        0.0001        0.0002        1.7164        1.7166       1.716524       0.06765
   5     589.8        0.0001        0.0001        1.3137        1.3138       1.313730       0.05979
   4     651.6        0.0001        0.0001        0.9321        0.9322       0.932105       0.05219
   3     718.7        0.0001        0.0001        0.6129        0.6130       0.612918       0.04011
   2     792.3        0.0001        0.0001        0.3625        0.3625       0.362416       0.02873
   1     891.5        0.0002        0.0000        0.1454        0.1454       0.145167       0.01849
   0    1013.0        0.0008        0.0000        0.0318        0.0318       0.031002       0.00793



 Wavenumbers:  4000. -  4650. cm-1, ATM      1
 LEVEL PRESSURE   UPWARD FLUX   DIFDOWN FLUX  DIRDOWN FLUX  DOWNWARD FLUX   NET FLUX    HEATING RATE
          mb          W/m2          W/m2          W/m2        W/m2          W/m2       degree/day
  51    .06700        1.2367        0.0000       10.7795       10.7795       9.542807       0.00000
  50    .07753        1.2367        0.0000       10.7795       10.7795       9.542806       0.00080
  49    .09103        1.2367        0.0000       10.7795       10.7795       9.542805       0.00078
  48    0.1069        1.2367        0.0000       10.7795       10.7795       9.542803       0.00076
  47    0.1255        1.2367        0.0000       10.7795       10.7795       9.542801       0.00075
  46    0.1487        1.2367        0.0000       10.7795       10.7795       9.542799       0.00076
  45    0.1794        1.2367        0.0000       10.7795       10.7795       9.542797       0.00078
  44    0.2165        1.2367        0.0000       10.7795       10.7795       9.542793       0.00076
  43    0.2613        1.2367        0.0000       10.7795       10.7795       9.542789       0.00075
  42    0.3336        1.2367        0.0000       10.7795       10.7795       9.542783       0.00077
  41    0.4307        1.2367        0.0000       10.7795       10.7795       9.542774       0.00077
  40    0.5894        1.2367        0.0000       10.7795       10.7795       9.542759       0.00079
  39     1.339        1.2367        0.0000       10.7794       10.7794       9.542670       0.00100
  38     1.782        1.2367        0.0000       10.7793       10.7793       9.542600       0.00133
  37     2.292        1.2367        0.0000       10.7792       10.7792       9.542506       0.00155
  36     2.964        1.2367        0.0000       10.7791       10.7791       9.542366       0.00176
  35     3.853        1.2367        0.0000       10.7789       10.7789       9.542159       0.00197
  34     5.035        1.2367        0.0000       10.7785       10.7786       9.541852       0.00219
  33     6.613        1.2367        0.0000       10.7781       10.7781       9.541402       0.00241
  32     8.786        1.2367        0.0000       10.7774       10.7774       9.540737       0.00258
  31     11.80        1.2367        0.0001       10.7763       10.7764       9.539692       0.00292
  30     15.07        1.2367        0.0001       10.7751       10.7751       9.538467       0.00316
  29     18.79        1.2367        0.0001       10.7736       10.7737       9.536986       0.00336
  28     23.16        1.2367        0.0001       10.7717       10.7718       9.535149       0.00355
  27     28.12        1.2366        0.0001       10.7695       10.7696       9.532925       0.00378
  26     33.73        1.2366        0.0001       10.7667       10.7668       9.530185       0.00412
  25     40.54        1.2366        0.0002       10.7629       10.7631       9.526472       0.00461
  24     48.69        1.2366        0.0002       10.7579       10.7581       9.521528       0.00512
  23     57.69        1.2366        0.0002       10.7520       10.7523       9.515672       0.00549
  22     68.43        1.2366        0.0003       10.7446       10.7449       9.508342       0.00576
  21     81.20        1.2366        0.0003       10.7356       10.7359       9.499328       0.00596
  20     96.49        1.2366        0.0004       10.7246       10.7249       9.488378       0.00604
  19     114.6        1.2366        0.0004       10.6996       10.7000       9.463383       0.01167
  18     136.5        1.2367        0.0005       10.6740       10.6745       9.437783       0.00984
  17     162.9        1.2369        0.0006       10.6464       10.6470       9.410108       0.00885
  16     196.4        1.2371        0.0007       10.6116       10.6123       9.375186       0.00879
  15     218.7        1.2374        0.0008       10.5854       10.5862       9.348837       0.01000
  14     243.0        1.2377        0.0009       10.5573       10.5582       9.320566       0.00981
  13     269.0        1.2381        0.0010       10.5219       10.5230       9.284856       0.01158
  12     297.5        1.2387        0.0011       10.4763       10.4774       9.238672       0.01370
  11     328.5        1.2396        0.0012       10.4156       10.4169       9.177304       0.01669
  10     361.9        1.2407        0.0013       10.3341       10.3354       9.094690       0.02090
   9     398.1        1.2422        0.0014       10.2260       10.2274       8.985245       0.02550
   8     437.6        1.2441        0.0016       10.0885       10.0900       8.845930       0.02979
   7     480.5        1.2466        0.0017        9.9248        9.9265       8.679875       0.03261
   6     533.0        1.2505        0.0018        9.7151        9.7169       8.466391       0.03434
   5     589.8        1.2561        0.0020        9.4801        9.4821       8.225942       0.03569
   4     651.6        1.2644        0.0021        9.1929        9.1950       7.930634       0.04038
   3     718.7        1.2763        0.0023        8.8440        8.8463       7.570025       0.04532
   2     792.3        1.2938        0.0024        8.4433        8.4457       7.151898       0.04795
   1     891.5        1.3277        0.0026        7.9295        7.9321       6.604425       0.04659
   0    1013.0        1.3914        0.0027        7.4027        7.4055       6.014095       0.04099



 Wavenumbers:  4650. -  5150. cm-1, ATM      1
 LEVEL PRESSURE   UPWARD FLUX   DIFDOWN FLUX  DIRDOWN FLUX  DOWNWARD FLUX   NET FLUX    HEATING RATE
          mb          W/m2          W/m2          W/m2        W/m2          W/m2       degree/day
  51    .06700        0.3128        0.0000       10.2033       10.2033       9.890532       0.00000
  50    .07753        0.3128        0.0000       10.2031       10.2031       9.890296       0.18901
  49    .09103        0.3128        0.0000       10.2028       10.2028       9.890001       0.18429
  48    0.1069        0.3128        0.0000       10.2025       10.2025       9.889664       0.17931
  47    0.1255        0.3128        0.0000       10.2021       10.2021       9.889280       0.17426
  46    0.1487        0.3128        0.0000       10.2016       10.2016       9.888799       0.17536
  45    0.1794        0.3128        0.0000       10.2010       10.2010       9.888149       0.17851
  44    0.2165        0.3128        0.0000       10.2002       10.2002       9.887389       0.17277
  43    0.2613        0.3128        0.0000       10.1993       10.1993       9.886504       0.16690
  42    0.3336        0.3128        0.0000       10.1979       10.1979       9.885071       0.16702
  41    0.4307        0.3128        0.0000       10.1960       10.1960       9.883231       0.16002
  40    0.5894        0.3128        0.0000       10.1932       10.1932       9.880357       0.15283
  39     1.339        0.3128        0.0000       10.1816       10.1816       9.868765       0.13050
  38     1.782        0.3128        0.0000       10.1760       10.1760       9.863236       0.10526
  37     2.292        0.3128        0.0000       10.1706       10.1706       9.857780       0.09037
  36     2.964        0.3128        0.0000       10.1646       10.1646       9.851858       0.07435
  35     3.853        0.3128        0.0000       10.1584       10.1584       9.845645       0.05897
  34     5.035        0.3128        0.0000       10.1520       10.1521       9.839311       0.04525
  33     6.613        0.3128        0.0000       10.1456       10.1456       9.832857       0.03450
  32     8.786        0.3128        0.0001       10.1385       10.1386       9.825851       0.02721
  31     11.80        0.3127        0.0001       10.1295       10.1296       9.816820       0.02528
  30     15.07        0.3127        0.0001       10.1196       10.1197       9.806953       0.02547
  29     18.79        0.3127        0.0001       10.1076       10.1077       9.794963       0.02719
  28     23.16        0.3127        0.0001       10.0922       10.0924       9.779681       0.02955
  27     28.12        0.3127        0.0002       10.0731       10.0733       9.760618       0.03241
  26     33.73        0.3126        0.0002       10.0500       10.0502       9.737564       0.03466
  25     40.54        0.3126        0.0002       10.0201       10.0203       9.707717       0.03703
  24     48.69        0.3126        0.0003        9.9819        9.9822       9.669624       0.03942
  23     57.69        0.3126        0.0003        9.9384        9.9387       9.626183       0.04072
  22     68.43        0.3125        0.0004        9.8857        9.8861       9.573584       0.04135
  21     81.20        0.3125        0.0005        9.8234        9.8239       9.511376       0.04111
  20     96.49        0.3125        0.0005        9.7517        9.7523       9.439806       0.03950
  19     114.6        0.3124        0.0006        9.6673        9.6679       9.355475       0.03938
  18     136.5        0.3124        0.0007        9.5775        9.5782       9.265761       0.03450
  17     162.9        0.3124        0.0009        9.4827        9.4836       9.171172       0.03023
  16     196.4        0.3124        0.0010        9.3738        9.3748       9.062359       0.02739
  15     218.7        0.3125        0.0011        9.3049        9.3060       8.993546       0.02613
  14     243.0        0.3126        0.0012        9.2323        9.2335       8.920939       0.02518
  13     269.0        0.3127        0.0014        9.1505        9.1519       8.839227       0.02651
  12     297.5        0.3129        0.0015        9.0553        9.0568       8.743969       0.02825
  11     328.5        0.3132        0.0016        8.9442        8.9459       8.632724       0.03025
  10     361.9        0.3136        0.0018        8.8125        8.8143       8.500760       0.03339
   9     398.1        0.3141        0.0019        8.6556        8.6575       8.343400       0.03666
   8     437.6        0.3149        0.0021        8.4684        8.4704       8.155503       0.04017
   7     480.5        0.3160        0.0022        8.2481        8.2503       7.934272       0.04345
   6     533.0        0.3177        0.0024        7.9535        7.9558       7.638095       0.04765
   5     589.8        0.3202        0.0025        7.6183        7.6208       7.300603       0.05009
   4     651.6        0.3237        0.0027        7.2512        7.2538       6.930098       0.05067
   3     718.7        0.3287        0.0028        6.8682        6.8709       6.542185       0.04875
   2     792.3        0.3359        0.0029        6.4794        6.4823       6.146445       0.04539
   1     891.5        0.3492        0.0030        5.9989        6.0019       5.652688       0.04202
   0    1013.0        0.3730        0.0032        5.4835        5.4866       5.113584       0.03743



 Wavenumbers:  5150. -  6150. cm-1, ATM      1
 LEVEL PRESSURE   UPWARD FLUX   DIFDOWN FLUX  DIRDOWN FLUX  DOWNWARD FLUX   NET FLUX    HEATING RATE
          mb          W/m2          W/m2          W/m2        W/m2          W/m2       degree/day
  51    .06700        2.6071        0.0000       25.5798       25.5798      22.972724       0.00000
  50    .07753        2.6071        0.0000       25.5798       25.5798      22.972724       0.00019
  49    .09103        2.6071        0.0000       25.5798       25.5798      22.972724       0.00018
  48    0.1069        2.6071        0.0000       25.5798       25.5798      22.972723       0.00018
  47    0.1255        2.6071        0.0000       25.5798       25.5798      22.972723       0.00018
  46    0.1487        2.6071        0.0000       25.5798       25.5798      22.972723       0.00018
  45    0.1794        2.6071        0.0000       25.5798       25.5798      22.972722       0.00018
  44    0.2165        2.6071        0.0000       25.5798       25.5798      22.972721       0.00018
  43    0.2613        2.6071        0.0000       25.5798       25.5798      22.972720       0.00018
  42    0.3336        2.6071        0.0000       25.5798       25.5798      22.972719       0.00018
  41    0.4307        2.6071        0.0000       25.5798       25.5798      22.972716       0.00018
  40    0.5894        2.6071        0.0000       25.5798       25.5798      22.972713       0.00019
  39     1.339        2.6071        0.0000       25.5797       25.5798      22.972692       0.00024
  38     1.782        2.6071        0.0000       25.5797       25.5797      22.972675       0.00032
  37     2.292        2.6078        0.0001       22.5984       22.5984      19.990587      49.39115
  36     2.964        2.6082        0.0001       22.2081       22.2082      19.600005       4.90298
  35     3.853        2.6084        0.0001       21.9996       21.9997      19.391315       1.98051
  34     5.035        2.6086        0.0002       21.8646       21.8647      19.256124       0.96575
  33     6.613        2.6087        0.0002       21.7700       21.7702      19.161453       0.50611
  32     8.786        2.6088        0.0002       21.7012       21.7014      19.092620       0.26732
  31     11.80        2.6089        0.0003       21.6472       21.6476      19.038680       0.15102
  30     15.07        2.6089        0.0004       21.6120       21.6124      19.003471       0.09090
  29     18.79        2.6089        0.0005       21.5858       21.5863      18.977346       0.05923
  28     23.16        2.6089        0.0006       21.5637       21.5643      18.955370       0.04249
  27     28.12        2.6089        0.0007       21.5437       21.5444      18.935493       0.03379
  26     33.73        2.6089        0.0008       21.5253       21.5261      18.917180       0.02754
  25     40.54        2.6089        0.0010       21.4953       21.4963      18.887351       0.03701
  24     48.69        2.6089        0.0011       21.4646       21.4658      18.856852       0.03156
  23     57.69        2.6089        0.0013       21.4360       21.4374      18.828424       0.02665
  22     68.43        2.6090        0.0016       21.4071       21.4087      18.799707       0.02258
  21     81.20        2.6090        0.0019       21.3779       21.3797      18.770748       0.01914
  20     96.49        2.6090        0.0022       21.3482       21.3504      18.741395       0.01620
  19     114.6        2.6090        0.0026       21.3157       21.3183      18.709289       0.01499
  18     136.5        2.6090        0.0031       21.2792       21.2823      18.673273       0.01385
  17     162.9        2.6090        0.0037       21.2394       21.2430      18.634033       0.01254
  16     196.4        2.6090        0.0044       21.1880       21.1924      18.583378       0.01275
  15     218.7        2.6090        0.0049       21.1365       21.1414      18.532424       0.01935
  14     243.0        2.6090        0.0054       21.0802       21.0856      18.476627       0.01935
  13     269.0        2.6090        0.0060       20.9850       20.9910      18.381972       0.03071
  12     297.5        2.6091        0.0066       20.8259       20.8325      18.223334       0.04705
  11     328.5        2.6093        0.0072       20.5718       20.5790      17.969628       0.06898
  10     361.9        2.6097        0.0078       20.1849       20.1926      17.582905       0.09784
   9     398.1        2.6104        0.0083       19.6353       19.6436      17.033200       0.12807
   8     437.6        2.6114        0.0089       18.9160       18.9249      16.313428       0.15389
   7     480.5        2.6131        0.0093       18.0654       18.0748      15.461708       0.16727
   6     533.0        2.6161        0.0098       17.0362       17.0460      14.429897       0.16599
   5     589.8        2.6210        0.0103       16.0700       16.0803      13.459268       0.14407
   4     651.6        2.6292        0.0108       15.2312       15.2421      12.612844       0.11575
   3     718.7        2.6424        0.0114       14.5526       14.5640      11.921651       0.08686
   2     792.3        2.6639        0.0121       13.9633       13.9754      11.311545       0.06997
   1     891.5        2.7108        0.0130       13.2449       13.2579      10.547122       0.06505
   0    1013.0        2.8147        0.0140       12.4601       12.4742       9.659421       0.06164



 Wavenumbers:  6150. -  7700. cm-1, ATM      1
 LEVEL PRESSURE   UPWARD FLUX   DIFDOWN FLUX  DIRDOWN FLUX  DOWNWARD FLUX   NET FLUX    HEATING RATE
          mb          W/m2          W/m2          W/m2        W/m2          W/m2       degree/day
  51    .06700        4.1558        0.0000       47.3109       47.3109      43.155078       0.00000
  50    .07753        4.1558        0.0000       47.3108       47.3108      43.155062       0.01303
  49    .09103        4.1558        0.0000       47.3108       47.3108      43.155041       0.01277
  48    0.1069        4.1558        0.0000       47.3108       47.3108      43.155018       0.01250
  47    0.1255        4.1558        0.0000       47.3108       47.3108      43.154991       0.01223
  46    0.1487        4.1558        0.0000       47.3107       47.3107      43.154957       0.01241
  45    0.1794        4.1558        0.0000       47.3107       47.3107      43.154910       0.01276
  44    0.2165        4.1558        0.0000       47.3106       47.3106      43.154855       0.01252
  43    0.2613        4.1558        0.0000       47.3105       47.3106      43.154790       0.01228
  42    0.3336        4.1558        0.0000       47.3104       47.3104      43.154682       0.01256
  41    0.4307        4.1557        0.0000       47.3102       47.3103      43.154540       0.01242
  40    0.5894        4.1557        0.0001       47.3100       47.3100      43.154307       0.01240
  39     1.339        4.1557        0.0001       47.3087       47.3089      43.153205       0.01240
  38     1.782        4.1556        0.0002       47.3080       47.3082      43.152559       0.01230
  37     2.292        4.1565        0.0003       42.3282       42.3286      38.172091      82.48954
  36     2.964        4.1569        0.0005       41.7509       41.7513      37.594442       7.25125
  35     3.853        4.1571        0.0006       41.4420       41.4425      37.285397       2.93289
  34     5.035        4.1573        0.0007       41.2439       41.2446      37.087305       1.41509
  33     6.613        4.1573        0.0008       41.1070       41.1078      36.950505       0.73134
  32     8.786        4.1573        0.0011       41.0086       41.0097      36.852393       0.38103
  31     11.80        4.1571        0.0013       40.9327       40.9340      36.776906       0.21134
  30     15.07        4.1569        0.0017       40.8838       40.8855      36.728567       0.12480
  29     18.79        4.1567        0.0020       40.8480       40.8500      36.693343       0.07986
  28     23.16        4.1564        0.0024       40.8181       40.8206      36.664207       0.05634
  27     28.12        4.1560        0.0029       40.7913       40.7943      36.638288       0.04406
  26     33.73        4.1555        0.0035       40.7671       40.7705      36.614982       0.03504
  25     40.54        4.1550        0.0041       40.7287       40.7328      36.577744       0.04620
  24     48.69        4.1544        0.0049       40.6903       40.6952      36.540806       0.03823
  23     57.69        4.1537        0.0058       40.6552       40.6610      36.507273       0.03143
  22     68.43        4.1529        0.0068       40.6202       40.6270      36.474132       0.02605
  21     81.20        4.1519        0.0080       40.5851       40.5931      36.441219       0.02175
  20     96.49        4.1506        0.0095       40.5492       40.5587      36.408059       0.01830
  19     114.6        4.1492        0.0112       40.5086       40.5198      36.370646       0.01747
  18     136.5        4.1475        0.0133       40.4613       40.4746      36.327122       0.01674
  17     162.9        4.1454        0.0157       40.4059       40.4217      36.276248       0.01626
  16     196.4        4.1428        0.0189       40.3271       40.3460      36.203215       0.01838
  15     218.7        4.1411        0.0210       40.2399       40.2609      36.119773       0.03168
  14     243.0        4.1393        0.0233       40.1413       40.1646      36.025327       0.03276
  13     269.0        4.1374        0.0257       39.9721       39.9978      35.860378       0.05351
  12     297.5        4.1356        0.0282       39.6887       39.7169      35.581339       0.08276
  11     328.5        4.1338        0.0308       39.2337       39.2645      35.130676       0.12253
  10     361.9        4.1324        0.0334       38.5358       38.5692      34.436813       0.17555
   9     398.1        4.1316        0.0359       37.5305       37.5664      33.434814       0.23344
   8     437.6        4.1318        0.0381       36.1837       36.2218      32.090085       0.28751
   7     480.5        4.1336        0.0401       34.5199       34.5599      30.426313       0.32676
   6     533.0        4.1391        0.0419       32.3568       32.3987      28.259671       0.34854
   5     589.8        4.1502        0.0435       30.1106       30.1540      26.003827       0.33484
   4     651.6        4.1709        0.0448       27.8883       27.9331      23.762168       0.30655
   3     718.7        4.2058        0.0460       25.8167       25.8627      21.656912       0.26457
   2     792.3        4.2639        0.0473       23.8870       23.9343      19.670322       0.22784
   1     891.5        4.3906        0.0488       21.7372       21.7861      17.395428       0.19358
   0    1013.0        4.6641        0.0508       19.7124       19.7633      15.099147       0.15944



 Wavenumbers:  7700. -  8050. cm-1, ATM      1
 LEVEL PRESSURE   UPWARD FLUX   DIFDOWN FLUX  DIRDOWN FLUX  DOWNWARD FLUX   NET FLUX    HEATING RATE
          mb          W/m2          W/m2          W/m2        W/m2          W/m2       degree/day
  51    .06700        5.6217        0.0000       11.1810       11.1810       5.559238       0.00000
  50    .07753        5.6217        0.0000       11.1809       11.1809       5.559216       0.01722
  49    .09103        5.6217        0.0000       11.1809       11.1809       5.559189       0.01688
  48    0.1069        5.6217        0.0000       11.1809       11.1809       5.559158       0.01652
  47    0.1255        5.6217        0.0000       11.1809       11.1809       5.559122       0.01617
  46    0.1487        5.6218        0.0000       11.1808       11.1808       5.559077       0.01641
  45    0.1794        5.6218        0.0000       11.1808       11.1808       5.559016       0.01688
  44    0.2165        5.6218        0.0000       11.1807       11.1807       5.558943       0.01656
  43    0.2613        5.6218        0.0000       11.1806       11.1806       5.558857       0.01625
  42    0.3336        5.6218        0.0000       11.1805       11.1805       5.558714       0.01663
  41    0.4307        5.6218        0.0000       11.1803       11.1804       5.558525       0.01645
  40    0.5894        5.6219        0.0000       11.1801       11.1801       5.558216       0.01643
  39     1.339        5.6221        0.0001       11.1788       11.1789       5.556755       0.01645
  38     1.782        5.6223        0.0001       11.1781       11.1782       5.555896       0.01634
  37     2.292        5.6224        0.0002       11.1771       11.1773       5.554903       0.01646
  36     2.964        5.6226        0.0002       11.1759       11.1762       5.553598       0.01638
  35     3.853        5.6229        0.0003       11.1744       11.1747       5.551874       0.01636
  34     5.035        5.6232        0.0004       11.1724       11.1728       5.549585       0.01635
  33     6.613        5.6237        0.0005       11.1698       11.1703       5.546527       0.01635
  32     8.786        5.6244        0.0006       11.1662       11.1668       5.542409       0.01600
  31     11.80        5.6254        0.0008       11.1611       11.1619       5.536520       0.01649
  30     15.07        5.6264        0.0009       11.1557       11.1566       5.530204       0.01631
  29     18.79        5.6276        0.0011       11.1495       11.1506       5.523076       0.01616
  28     23.16        5.6289        0.0014       11.1423       11.1437       5.514762       0.01608
  27     28.12        5.6305        0.0016       11.1341       11.1358       5.505270       0.01614
  26     33.73        5.6323        0.0019       11.1250       11.1270       5.494669       0.01594
  25     40.54        5.6344        0.0023       11.1140       11.1163       5.481893       0.01585
  24     48.69        5.6370        0.0028       11.1008       11.1036       5.466536       0.01589
  23     57.69        5.6399        0.0032       11.0864       11.0896       5.449728       0.01576
  22     68.43        5.6434        0.0038       11.0694       11.0732       5.429793       0.01567
  21     81.20        5.6475        0.0045       11.0492       11.0537       5.406161       0.01562
  20     96.49        5.6525        0.0053       11.0254       11.0307       5.378171       0.01545
  19     114.6        5.6585        0.0063       10.9973       11.0036       5.345078       0.01545
  18     136.5        5.6657        0.0074       10.9644       10.9719       5.306192       0.01495
  17     162.9        5.6743        0.0088       10.9259       10.9347       5.260338       0.01466
  16     196.4        5.6858        0.0106       10.8768       10.8873       5.201543       0.01480
  15     218.7        5.6934        0.0117       10.8450       10.8567       5.163243       0.01454
  14     243.0        5.7019        0.0130       10.8108       10.8238       5.121917       0.01433
  13     269.0        5.7112        0.0143       10.7742       10.7885       5.077359       0.01445
  12     297.5        5.7215        0.0158       10.7350       10.7508       5.029371       0.01423
  11     328.5        5.7328        0.0174       10.6930       10.7104       4.977575       0.01408
  10     361.9        5.7455        0.0191       10.6481       10.6672       4.921657       0.01415
   9     398.1        5.7597        0.0209       10.5997       10.6207       4.861009       0.01413
   8     437.6        5.7756        0.0229       10.5476       10.5705       4.794909       0.01413
   7     480.5        5.7936        0.0250       10.4912       10.5162       4.722593       0.01420
   6     533.0        5.8173        0.0276       10.4204       10.4479       4.630599       0.01480
   5     589.8        5.8452        0.0304       10.3418       10.3721       4.526927       0.01539
   4     651.6        5.8784        0.0333       10.2535       10.2868       4.408419       0.01621
   3     718.7        5.9181        0.0365       10.1540       10.1905       4.272358       0.01710
   2     792.3        5.9663        0.0398       10.0411       10.0810       4.114718       0.01808
   1     891.5        6.0413        0.0443        9.8790        9.9233       3.882013       0.01980
   0    1013.0        6.1474        0.0495        9.6722        9.7217       3.574341       0.02136



 Wavenumbers:  8050. - 12850. cm-1, ATM      1
 LEVEL PRESSURE   UPWARD FLUX   DIFDOWN FLUX  DIRDOWN FLUX  DOWNWARD FLUX   NET FLUX    HEATING RATE
          mb          W/m2          W/m2          W/m2        W/m2          W/m2       degree/day
  51    .06700       96.1645        0.0000      156.5418      156.5418      60.377274       0.00000
  50    .07753       96.1645        0.0000      156.5417      156.5417      60.377274       0.00000
  49    .09103       96.1644        0.0001      156.5417      156.5417      60.377274      -0.00000
  48    0.1069       96.1644        0.0001      156.5416      156.5417      60.377274      -0.00000
  47    0.1255       96.1644        0.0002      156.5415      156.5417      60.377274       0.00000
  46    0.1487       96.1644        0.0002      156.5414      156.5417      60.377274       0.00000
  45    0.1794       96.1644        0.0003      156.5413      156.5416      60.377274       0.00000
  44    0.2165       96.1643        0.0004      156.5412      156.5416      60.377274      -0.00000
  43    0.2613       96.1643        0.0006      156.5410      156.5415      60.377274       0.00000
  42    0.3336       96.1642        0.0008      156.5407      156.5415      60.377274       0.00000
  41    0.4307       96.1641        0.0010      156.5403      156.5414      60.377274      -0.00000
  40    0.5894       96.1639        0.0015      156.5397      156.5412      60.377274       0.00000
  39     1.339       96.1631        0.0036      156.5367      156.5404      60.377274      -0.00000
  38     1.782       96.1626        0.0049      156.5350      156.5399      60.377274       0.00000
  37     2.292       96.1607        0.0099      156.5281      156.5380      60.377274      -0.00000
  36     2.964       96.1596        0.0129      156.5239      156.5368      60.377274       0.00000
  35     3.853       96.1584        0.0160      156.5196      156.5356      60.377274      -0.00000
  34     5.035       96.1570        0.0197      156.5145      156.5342      60.377274       0.00000
  33     6.613       96.1552        0.0244      156.5080      156.5325      60.377274      -0.00000
  32     8.786       96.1528        0.0306      156.4995      156.5301      60.377274       0.00000
  31     11.80       96.1495        0.0394      156.4874      156.5268      60.377274      -0.00000
  30     15.07       96.1459        0.0487      156.4745      156.5232      60.377274      -0.00000
  29     18.79       96.1419        0.0593      156.4599      156.5192      60.377274       0.00000
  28     23.16       96.1372        0.0717      156.4428      156.5145      60.377274      -0.00000
  27     28.12       96.1318        0.0858      156.4233      156.5091      60.377274      -0.00000
  26     33.73       96.1258        0.1016      156.4015      156.5031      60.377274       0.00000
  25     40.54       96.1185        0.1208      156.3750      156.4958      60.377274       0.00000
  24     48.69       96.1097        0.1439      156.3431      156.4870      60.377274       0.00000
  23     57.69       96.1000        0.1693      156.3080      156.4773      60.377274      -0.00000
  22     68.43       96.0885        0.1997      156.2661      156.4658      60.377274      -0.00000
  21     81.20       96.0747        0.2359      156.2161      156.4520      60.377274       0.00000
  20     96.49       96.0583        0.2791      156.1565      156.4355      60.377274      -0.00000
  19     114.6       96.0452        0.3303      155.9003      156.2306      60.185367       0.08961
  18     136.5       96.0281        0.3911      155.6539      156.0451      60.017024       0.06473
  17     162.9       96.0053        0.4637      155.4084      155.8721      59.866796       0.04802
  16     196.4       95.9734        0.5581      155.1160      155.6741      59.700678       0.04181
  15     218.7       95.9521        0.6201      154.8761      155.4963      59.544120       0.05944
  14     243.0       95.9285        0.6877      154.6355      155.3231      59.394578       0.05187
  13     269.0       95.9042        0.7608      154.3099      155.0707      59.166588       0.07396
  12     297.5       95.8801        0.8398      153.8734      154.7132      58.833139       0.09890
  11     328.5       95.8579        0.9249      153.2898      154.2147      58.356800       0.12952
  10     361.9       95.8404        1.0160      152.5016      153.5176      57.677211       0.17194
   9     398.1       95.8321        1.1133      151.4342      152.5474      56.715361       0.22409
   8     437.6       95.8399        1.2163      150.0209      151.2373      55.397355       0.28180
   7     480.5       95.8747        1.3249      148.2024      149.5274      53.652721       0.34264
   6     533.0       95.9676        1.4555      145.5764      147.0318      51.064263       0.41640
   5     589.8       96.1492        1.5920      142.3639      143.9559      47.806687       0.48353
   4     651.6       96.4764        1.7336      138.5775      140.3110      43.834618       0.54319
   3     718.7       97.0143        1.8804      134.4056      136.2860      39.271667       0.57344
   2     792.3       97.8920        2.0307      129.8209      131.8516      33.959621       0.60923
   1     891.5       99.7379        2.2237      123.6694      125.8930      26.155086       0.66413
   0    1013.0      103.3898        2.4440      116.8556      119.2997      15.909825       0.71138



 Wavenumbers: 12850. - 16000. cm-1, ATM      1
 LEVEL PRESSURE   UPWARD FLUX   DIFDOWN FLUX  DIRDOWN FLUX  DOWNWARD FLUX   NET FLUX    HEATING RATE
          mb          W/m2          W/m2          W/m2        W/m2          W/m2       degree/day
  51    .06700       80.4965        0.0000       98.0872       98.0872      17.590695       0.00000
  50    .07753       80.4965        0.0001       98.0864       98.0864      17.589902       0.63495
  49    .09103       80.4965        0.0002       98.0853       98.0855      17.588907       0.62194
  48    0.1069       80.4966        0.0003       98.0841       98.0843      17.587764       0.60868
  47    0.1255       80.4966        0.0004       98.0826       98.0830      17.586450       0.59573
  46    0.1487       80.4966        0.0005       98.0809       98.0814      17.584791       0.60465
  45    0.1794       80.4966        0.0007       98.0784       98.0792      17.582534       0.61963
  44    0.2165       80.4967        0.0010       98.0756       98.0766      17.579878       0.60415
  43    0.2613       80.4968        0.0013       98.0723       98.0736      17.576754       0.58891
  42    0.3336       80.4971        0.0017       98.0670       98.0687      17.571653       0.59476
  41    0.4307       80.4975        0.0024       98.0602       98.0625      17.565053       0.57384
  40    0.5894       80.4983        0.0034       98.0496       98.0530      17.554646       0.55342
  39     1.339       80.5052        0.0082       98.0043       98.0126      17.507380       0.53213
  38     1.782       80.5114        0.0111       97.9793       97.9903      17.478932       0.54160
  37     2.292       80.5183        0.0223       97.9394       97.9617      17.443454       0.58761
  36     2.964       80.5328        0.0292       97.8952       97.9243      17.391507       0.65209
  35     3.853       80.5571        0.0362       97.8350       97.8712      17.314094       0.73467
  34     5.035       80.5939        0.0445       97.7516       97.7961      17.202234       0.79908
  33     6.613       80.6455        0.0550       97.6392       97.6943      17.048786       0.82033
  32     8.786       80.7128        0.0689       97.4934       97.5622      16.849480       0.77403
  31     11.80       80.8004        0.0885       97.3003       97.3888      16.588318       0.73117
  30     15.07       80.8846        0.1094       97.1106       97.2200      16.335433       0.65290
  29     18.79       80.9706        0.1329       96.9122       97.0452      16.074578       0.59144
  28     23.16       81.0607        0.1604       96.6987       96.8591      15.798471       0.53390
  27     28.12       81.1515        0.1918       96.4756       96.6674      15.515899       0.48035
  26     33.73       81.2357        0.2269       96.2551       96.4821      15.246346       0.40528
  25     40.54       81.3173        0.2693       96.0228       96.2921      14.974814       0.33687
  24     48.69       81.3961        0.3205       95.7765       96.0971      14.700943       0.28341
  23     57.69       81.4637        0.3767       95.5392       95.9159      14.452270       0.23309
  22     68.43       81.5235        0.4437       95.2925       95.7362      14.212685       0.18835
  21     81.20       81.5667        0.5236       95.0462       95.5698      14.003191       0.13843
  20     96.49       81.5919        0.6189       94.7972       95.4161      13.824174       0.09880
  19     114.6       81.6227        0.7334       94.5200       95.2533      13.630665       0.09035
  18     136.5       81.6473        0.8690       94.2080       95.0770      13.429675       0.07729
  17     162.9       81.6659        1.0305       93.8487       94.8792      13.213261       0.06917
  16     196.4       81.6672        1.2399       93.4050       94.6449      12.977781       0.05927
  15     218.7       81.6600        1.3775       93.1187       94.4962      12.836160       0.05377
  14     243.0       81.6484        1.5270       92.8099       94.3369      12.688504       0.05121
  13     269.0       81.6326        1.6890       92.4761       94.1651      12.532527       0.05060
  12     297.5       81.6127        1.8641       92.1146       93.9787      12.366030       0.04938
  11     328.5       81.5913        2.0533       91.7203       93.7736      12.182368       0.04994
  10     361.9       81.5695        2.2570       91.2891       93.5461      11.976586       0.05207
   9     398.1       81.5494        2.4762       90.8149       93.2911      11.741636       0.05474
   8     437.6       81.5346        2.7114       90.2887       93.0001      11.465492       0.05904
   7     480.5       81.5295        2.9633       89.6996       92.6629      11.133410       0.06522
   6     533.0       81.5446        3.2728       88.9310       92.2038      10.659231       0.07628
   5     589.8       81.5953        3.6055       88.0400       91.6455      10.050246       0.09039
   4     651.6       81.7002        3.9607       87.0073       90.9680       9.267787       0.10700
   3     718.7       81.8728        4.3381       85.8384       90.1765       8.303723       0.12116
   2     792.3       82.1525        4.7362       84.5120       89.2481       7.095637       0.13855
   1     891.5       82.7223        5.2628       82.6306       87.8934       5.171090       0.16377
   0    1013.0       83.7206        5.8822       80.3525       86.2347       2.514148       0.18449



 Wavenumbers: 16000. - 22650. cm-1, ATM      1
 LEVEL PRESSURE   UPWARD FLUX   DIFDOWN FLUX  DIRDOWN FLUX  DOWNWARD FLUX   NET FLUX    HEATING RATE
          mb          W/m2          W/m2          W/m2        W/m2          W/m2       degree/day
  51    .06700      140.7559        0.0000      156.3892      156.3892      15.633307       0.00000
  50    .07753      140.7559        0.0004      156.3887      156.3891      15.633160       0.11822
  49    .09103      140.7559        0.0009      156.3879      156.3888      15.632945       0.13409
  48    0.1069      140.7559        0.0015      156.3871      156.3885      15.632658       0.15290
  47    0.1255      140.7559        0.0021      156.3861      156.3882      15.632273       0.17429
  46    0.1487      140.7560        0.0030      156.3847      156.3877      15.631707       0.20653
  45    0.1794      140.7561        0.0041      156.3828      156.3869      15.630821       0.24317
  44    0.2165      140.7563        0.0054      156.3805      156.3859      15.629619       0.27330
  43    0.2613      140.7567        0.0070      156.3776      156.3846      15.627989       0.30725
  42    0.3336      140.7574        0.0096      156.3726      156.3823      15.624890       0.36133
  41    0.4307      140.7586        0.0131      156.3657      156.3789      15.620219       0.40617
  40    0.5894      140.7612        0.0188      156.3537      156.3725      15.611310       0.47378
  39     1.339      140.7837        0.0458      156.2834      156.3292      15.545487       0.74104
  38     1.782      140.8046        0.0616      156.2324      156.2940      15.489415       1.06753
  37     2.292      140.8257        0.1244      156.1096      156.2339      15.408252       1.34427
  36     2.964      140.8743        0.1627      155.9884      156.1511      15.276774       1.65045
  35     3.853      140.9566        0.2017      155.8231      156.0248      15.068154       1.97984
  34     5.035      141.0824        0.2480      155.5913      155.8393      14.756913       2.22338
  33     6.613      141.2589        0.3066      155.2766      155.5832      14.324382       2.31231
  32     8.786      141.4891        0.3837      154.8670      155.2507      13.761564       2.18578
  31     11.80      141.7890        0.4926      154.3237      154.8163      13.027238       2.05588
  30     15.07      142.0764        0.6088      153.7884      154.3972      12.320844       1.82377
  29     18.79      142.3698        0.7396      153.2271      153.9667      11.596861       1.64149
  28     23.16      142.6765        0.8921      152.6206      153.5127      10.836146       1.47098
  27     28.12      142.9851        1.0661      151.9837      153.0498      10.064658       1.31148
  26     33.73      143.2699        1.2606      151.3493      152.6099       9.340005       1.08954
  25     40.54      143.5439        1.4954      150.6722      152.1677       8.623791       0.88854
  24     48.69      143.8061        1.7782      149.9426      151.7208       7.914733       0.73376
  23     57.69      144.0284        2.0884      149.2242      151.3127       7.284314       0.59092
  22     68.43      144.2220        2.4575      148.4570      150.9146       6.692520       0.46523
  21     81.20      144.3555        2.8970      147.6615      150.5585       6.202972       0.32349
  20     96.49      144.4242        3.4201      146.8229      150.2430       5.818802       0.21203
  19     114.6      144.4598        4.0394      145.8866      149.9260       5.466274       0.16461
  18     136.5      144.4705        4.7707      144.8193      149.5900       5.119475       0.13335
  17     162.9      144.4547        5.6375      143.5894      149.2268       4.772111       0.11103
  16     196.4      144.3726        6.7558      142.0763      148.8321       4.459508       0.07869
  15     218.7      144.2963        7.4867      141.1147      148.6014       4.305140       0.05861
  14     243.0      144.2027        8.2777      140.0871      148.3648       4.162066       0.04962
  13     269.0      144.0906        9.1311      138.9919      148.1230       4.032415       0.04206
  12     297.5      143.9591       10.0488      137.8270      147.8758       3.916736       0.03431
  11     328.5      143.8124       11.0352      136.5813      147.6165       3.804038       0.03064
  10     361.9      143.6505       12.0913      135.2533      147.3446       3.694106       0.02781
   9     398.1      143.4729       13.2210      133.8375      147.0585       3.585637       0.02527
   8     437.6      143.2809       14.4264      132.3295      146.7559       3.475071       0.02364
   7     480.5      143.0744       15.7097      130.7257      146.4354       3.360948       0.02241
   6     533.0      142.8220       17.2772      128.7657      146.0429       3.220889       0.02253
   5     589.8      142.5555       18.9520      126.6664      145.6184       3.062893       0.02345
   4     651.6      142.2792       20.7356      124.4208      145.1564       2.877186       0.02540
   3     718.7      141.9960       22.6294      122.0239      144.6534       2.657352       0.02763
   2     792.3      141.7157       24.6313      119.4696      144.1009       2.385163       0.03122
   1     891.5      141.3826       27.2884      116.0416      143.3301       1.947469       0.03725
   0    1013.0      141.0397       30.4122      111.9780      142.3902       1.350492       0.04145



 Wavenumbers: 22650. - 29000. cm-1, ATM      1
 LEVEL PRESSURE   UPWARD FLUX   DIFDOWN FLUX  DIRDOWN FLUX  DOWNWARD FLUX   NET FLUX    HEATING RATE
          mb          W/m2          W/m2          W/m2        W/m2          W/m2       degree/day
  51    .06700       58.6820        0.0000       59.0156       59.0156       0.333644       0.00000
  50    .07753       58.6819        0.0005       59.0151       59.0155       0.333644       0.00000
  49    .09103       58.6818        0.0010       59.0144       59.0154       0.333644       0.00000
  48    0.1069       58.6816        0.0017       59.0136       59.0153       0.333644      -0.00000
  47    0.1255       58.6815        0.0025       59.0127       59.0151       0.333644      -0.00000
  46    0.1487       58.6813        0.0035       59.0115       59.0149       0.333644       0.00000
  45    0.1794       58.6810        0.0048       59.0099       59.0147       0.333644      -0.00000
  44    0.2165       58.6807        0.0063       59.0080       59.0144       0.333644       0.00000
  43    0.2613       58.6804        0.0082       59.0058       59.0140       0.333644      -0.00000
  42    0.3336       58.6798        0.0113       59.0022       59.0134       0.333644       0.00000
  41    0.4307       58.6790        0.0154       58.9973       59.0127       0.333644      -0.00000
  40    0.5894       58.6777        0.0220       58.9894       59.0114       0.333644       0.00000
  39     1.339       58.6717        0.0535       58.9518       59.0053       0.333644       0.00000
  38     1.782       58.6681        0.0720       58.9297       59.0017       0.333644       0.00000
  37     2.292       58.6540        0.1452       58.8424       58.9876       0.333644      -0.00000
  36     2.964       58.6454        0.1900       58.7891       58.9790       0.333644       0.00000
  35     3.853       58.6366        0.2356       58.7347       58.9703       0.333644       0.00000
  34     5.035       58.6262        0.2897       58.6701       58.9598       0.333644       0.00000
  33     6.613       58.6130        0.3584       58.5883       58.9466       0.333644       0.00000
  32     8.786       58.5956        0.4486       58.4807       58.9292       0.333644      -0.00000
  31     11.80       58.5711        0.5760       58.3287       58.9047       0.333644      -0.00000
  30     15.07       58.5449        0.7120       58.1665       58.8785       0.333644       0.00000
  29     18.79       58.5154        0.8651       57.9840       58.8491       0.333644       0.00000
  28     23.16       58.4811        1.0432       57.7716       58.8148       0.333644      -0.00000
  27     28.12       58.4420        1.2462       57.5295       58.7757       0.333644      -0.00000
  26     33.73       58.3984        1.4725       57.2595       58.7321       0.333644       0.00000
  25     40.54       58.3460        1.7448       56.9348       58.6796       0.333644      -0.00000
  24     48.69       58.2831        2.0714       56.5453       58.6167       0.333644      -0.00000
  23     57.69       58.2144        2.4278       56.1202       58.5480       0.333644       0.00000
  22     68.43       58.1332        2.8493       55.6176       58.4668       0.333644      -0.00000
  21     81.20       58.0373        3.3469       55.0240       58.3709       0.333644       0.00000
  20     96.49       57.9242        3.9337       54.3242       58.2578       0.333644       0.00000
  19     114.6       57.7916        4.6214       53.5039       58.1253       0.333644       0.00000
  18     136.5       57.6368        5.4240       52.5465       57.9705       0.333644      -0.00000
  17     162.9       57.4558        6.3623       51.4272       57.7895       0.333644       0.00000
  16     196.4       57.2264        7.5511       50.0090       57.5600       0.333644       0.00000
  15     218.7       57.0789        8.3150       49.0975       57.4125       0.333644       0.00000
  14     243.0       56.9213        9.1306       48.1244       57.2550       0.333644      -0.00000
  13     269.0       56.7538        9.9975       47.0900       57.0875       0.333644      -0.00000
  12     297.5       56.5765       10.9147       45.9955       56.9102       0.333644       0.00000
  11     328.5       56.3891       11.8837       44.8390       56.7227       0.333644       0.00000
  10     361.9       56.1920       12.9021       43.6236       56.5257       0.333644       0.00000
   9     398.1       55.9853       13.9698       42.3491       56.3189       0.333644       0.00000
   8     437.6       55.7692       15.0848       41.0181       56.1029       0.333644       0.00000
   7     480.5       55.5443       16.2447       39.6332       55.8779       0.333644       0.00000
   6     533.0       55.2765       17.6246       37.9855       55.6101       0.333644      -0.00000
   5     589.8       54.9985       19.0552       36.2770       55.3321       0.333644       0.00000
   4     651.6       54.7117       20.5291       34.5163       55.0454       0.333644       0.00000
   3     718.7       54.4173       22.0404       32.7105       54.7509       0.333644      -0.00000
   2     792.3       54.1168       23.5802       30.8702       54.4505       0.333644       0.00000
   1     891.5       53.7350       25.5327       28.5360       54.0686       0.333644       0.00000
   0    1013.0       53.3095       27.7025       25.9406       53.6431       0.333644      -0.00000



 Wavenumbers: 29000. - 38000. cm-1, ATM      1
 LEVEL PRESSURE   UPWARD FLUX   DIFDOWN FLUX  DIRDOWN FLUX  DOWNWARD FLUX   NET FLUX    HEATING RATE
          mb          W/m2          W/m2          W/m2        W/m2          W/m2       degree/day
  51    .06700        8.7841        0.0000       20.8114       20.8114      12.027292       0.00000
  50    .07753        8.7839        0.0003       20.8070       20.8074      12.023483       3.05265
  49    .09103        8.7837        0.0007       20.8009       20.8016      12.017944       3.46210
  48    0.1069        8.7834        0.0012       20.7928       20.7939      12.010532       3.94572
  47    0.1255        8.7831        0.0017       20.7820       20.7837      12.000623       4.49198
  46    0.1487        8.7828        0.0024       20.7665       20.7688      11.986055       5.31039
  45    0.1794        8.7823        0.0033       20.7424       20.7457      11.963382       6.22435
  44    0.2165        8.7818        0.0044       20.7103       20.7147      11.932847       6.94602
  43    0.2613        8.7813        0.0056       20.6675       20.6731      11.891837       7.73029
  42    0.3336        8.7804        0.0077       20.5880       20.5957      11.815246       8.92978
  41    0.4307        8.7794        0.0104       20.4722       20.4826      11.703247       9.73805
  40    0.5894        8.7779        0.0147       20.2637       20.2784      11.500473      10.78327
  39     1.339        8.7753        0.0332       19.0984       19.1315      10.356247      12.88190
  38     1.782        8.7766        0.0427       18.4394       18.4821       9.705547      12.38829
  37     2.292        8.7629        0.0822       17.7257       17.8079       9.044996      10.94044
  36     2.964        8.7647        0.1025       16.9853       17.0878       8.323119       9.06174
  35     3.853        8.7753        0.1211       16.2078       16.3289       7.553578       7.30308
  34     5.035        8.7953        0.1417       15.4206       15.5623       6.766999       5.61900
  33     6.613        8.8254        0.1670       14.6575       14.8245       5.999155       4.10489
  32     8.786        8.8656        0.1996       13.9383       14.1379       5.272283       2.82291
  31     11.80        8.9184        0.2451       13.2312       13.4763       4.557897       2.00006
  30     15.07        8.9694        0.2928       12.6887       12.9815       4.012154       1.40900
  29     18.79        9.0221        0.3456       12.2181       12.5637       3.541597       1.06690
  28     23.16        9.0781        0.4061       11.7834       12.1895       3.111416       0.83183
  27     28.12        9.1355        0.4740       11.3831       11.8571       2.721584       0.66269
  26     33.73        9.1885        0.5490       11.0263       11.5753       2.386790       0.50337
  25     40.54        9.2388        0.6389       10.6792       11.3181       2.079258       0.38153
  24     48.69        9.2863        0.7456       10.3340       11.0796       1.793272       0.29595
  23     57.69        9.3253        0.8613       10.0160       10.8773       1.551979       0.22618
  22     68.43        9.3570        0.9971        9.6952       10.6923       1.335347       0.17030
  21     81.20        9.3722        1.1577        9.3772       10.5348       1.162596       0.11415
  20     96.49        9.3692        1.3465        9.0538       10.4002       1.031085       0.07258
  19     114.6        9.3559        1.5647        8.7052       10.2699       0.914018       0.05466
  18     136.5        9.3354        1.8142        8.3228       10.1371       0.801684       0.04320
  17     162.9        9.3078        2.0987        7.9007        9.9995       0.691690       0.03516
  16     196.4        9.2611        2.4519        7.4040        9.8559       0.594827       0.02438
  15     218.7        9.2274        2.6736        7.1014        9.7750       0.547603       0.01793
  14     243.0        9.1906        2.9054        6.7892        9.6946       0.503994       0.01512
  13     269.0        9.1503        3.1464        6.4687        9.6152       0.464836       0.01270
  12     297.5        9.1067        3.3956        6.1415        9.5371       0.430314       0.01024
  11     328.5        9.0612        3.6519        5.8065        9.4585       0.397261       0.00899
  10     361.9        9.0142        3.9130        5.4671        9.3801       0.365824       0.00795
   9     398.1        8.9659        4.1782        5.1238        9.3019       0.336031       0.00694
   8     437.6        8.9168        4.4460        4.7781        9.2241       0.307309       0.00614
   7     480.5        8.8672        4.7143        4.4329        9.1473       0.280044       0.00535
   6     533.0        8.8104        5.0203        4.0404        9.0607       0.250320       0.00478
   5     589.8        8.7544        5.3220        3.6539        8.9759       0.221540       0.00427
   4     651.6        8.7000        5.6166        3.2768        8.8934       0.193378       0.00385
   3     718.7        8.6481        5.9008        2.9131        8.8139       0.165793       0.00347
   2     792.3        8.5992        6.1722        2.5658        8.7380       0.138789       0.00310
   1     891.5        8.5434        6.4910        2.1578        8.6488       0.105444       0.00284
   0    1013.0        8.4903        6.8105        1.7484        8.5589       0.068591       0.00256



 Wavenumbers: 38000. - 50000. cm-1, ATM      1
 LEVEL PRESSURE   UPWARD FLUX   DIFDOWN FLUX  DIRDOWN FLUX  DOWNWARD FLUX   NET FLUX    HEATING RATE
          mb          W/m2          W/m2          W/m2        W/m2          W/m2       degree/day
  51    .06700        0.0072        0.0000        1.2836        1.2836       1.276455       0.00000
  50    .07753        0.0071        0.0001        1.2812        1.2812       1.274120       1.87224
  49    .09103        0.0070        0.0002        1.2777        1.2778       1.270787       2.08324
  48    0.1069        0.0070        0.0002        1.2731        1.2734       1.266407       2.33141
  47    0.1255        0.0069        0.0004        1.2672        1.2675       1.260650       2.60995
  46    0.1487        0.0068        0.0005        1.2586        1.2591       1.252321       3.03595
  45    0.1794        0.0066        0.0007        1.2455        1.2462       1.239549       3.50627
  44    0.2165        0.0064        0.0009        1.2282        1.2291       1.222618       3.85152
  43    0.2613        0.0063        0.0011        1.2054        1.2065       1.200262       4.21385
  42    0.3336        0.0060        0.0015        1.1639        1.1654       1.159426       4.76112
  41    0.4307        0.0056        0.0020        1.1051        1.1071       1.101449       5.04099
  40    0.5894        0.0051        0.0026        1.0039        1.0064       1.001374       5.32188
  39     1.339        0.0037        0.0035        0.5438        0.5473       0.543671       5.15290
  38     1.782        0.0034        0.0032        0.3635        0.3667       0.363235       3.43521
  37     2.292        0.0016        0.0041        0.2328        0.2369       0.235327       2.11849
  36     2.964        0.0010        0.0034        0.1432        0.1466       0.145582       1.12658
  35     3.853        0.0006        0.0025        0.0843        0.0868       0.086178       0.56375
  34     5.035        0.0004        0.0018        0.0479        0.0497       0.049274       0.26363
  33     6.613        0.0003        0.0012        0.0268        0.0280       0.027738       0.11513
  32     8.786        0.0002        0.0009        0.0141        0.0150       0.014805       0.05023
  31     11.80        0.0001        0.0005        0.0064        0.0069       0.006852       0.02227
  30     15.07        0.0000        0.0003        0.0030        0.0033       0.003307       0.00915
  29     18.79        0.0000        0.0002        0.0014        0.0016       0.001574       0.00393
  28     23.16        0.0000        0.0001        0.0006        0.0007       0.000717       0.00166
  27     28.12        0.0000        0.0001        0.0003        0.0003       0.000316       0.00068
  26     33.73        0.0000        0.0000        0.0001        0.0001       0.000139       0.00027
  25     40.54        0.0000        0.0000        0.0000        0.0001       0.000057       0.00010
  24     48.69        0.0000        0.0000        0.0000        0.0000       0.000021       0.00004
  23     57.69        0.0000        0.0000        0.0000        0.0000       0.000008       0.00001
  22     68.43        0.0000        0.0000        0.0000        0.0000       0.000003       0.00000
  21     81.20        0.0000        0.0000        0.0000        0.0000       0.000001       0.00000
  20     96.49        0.0000        0.0000        0.0000        0.0000       0.000000       0.00000
  19     114.6        0.0000        0.0000        0.0000        0.0000       0.000000       0.00000
  18     136.5        0.0000        0.0000        0.0000        0.0000       0.000000       0.00000
  17     162.9        0.0000        0.0000        0.0000        0.0000       0.000000       0.00000
  16     196.4        0.0000        0.0000        0.0000        0.0000       0.000000       0.00000
  15     218.7        0.0000        0.0000        0.0000        0.0000       0.000000       0.00000
  14     243.0        0.0000        0.0000        0.0000        0.0000       0.000000       0.00000
  13     269.0        0.0000        0.0000        0.0000        0.0000       0.000000       0.00000
  12     297.5        0.0000        0.0000        0.0000        0.0000       0.000000       0.00000
  11     328.5        0.0000        0.0000        0.0000        0.0000       0.000000       0.00000
  10     361.9        0.0000        0.0000        0.0000        0.0000       0.000000       0.00000
   9     398.1        0.0000        0.0000        0.0000        0.0000       0.000000       0.00000
   8     437.6        0.0000        0.0000        0.0000        0.0000       0.000000       0.00000
   7     480.5        0.0000        0.0000        0.0000        0.0000       0.000000       0.00000
   6     533.0        0.0000        0.0000        0.0000        0.0000       0.000000       0.00000
   5     589.8        0.0000        0.0000        0.0000        0.0000       0.000000       0.00000
   4     651.6        0.0000        0.0000        0.0000        0.0000       0.000000       0.00000
   3     718.7        0.0000        0.0000        0.0000        0.0000       0.000000       0.00000
   2     792.3        0.0000        0.0000        0.0000        0.0000       0.000000       0.00000
   1     891.5        0.0000        0.0000        0.0000        0.0000       0.000000       0.00000
   0    1013.0        0.0000        0.0000        0.0000        0.0000       0.000000       0.00000



 Wavenumbers:   820. -  2600. cm-1, ATM      1
 LEVEL PRESSURE   UPWARD FLUX   DIFDOWN FLUX  DIRDOWN FLUX  DOWNWARD FLUX   NET FLUX    HEATING RATE
          mb          W/m2          W/m2          W/m2        W/m2          W/m2       degree/day
  51    .06700        0.0065        0.0000        6.0047        6.0047       5.998139       0.00000
  50    .07753        0.0065        0.0000        6.0009        6.0009       5.994359       3.02937
  49    .09103        0.0065        0.0000        6.0001        6.0001       5.993569       0.49378
  48    0.1069        0.0065        0.0000        5.9992        5.9992       5.992694       0.46572
  47    0.1255        0.0065        0.0000        5.9982        5.9982       5.991713       0.44470
  46    0.1487        0.0065        0.0000        5.9970        5.9970       5.990535       0.42941
  45    0.1794        0.0065        0.0000        5.9956        5.9956       5.989069       0.40259
  44    0.2165        0.0065        0.0000        5.9940        5.9940       5.987536       0.34860
  43    0.2613        0.0065        0.0000        5.9925        5.9925       5.985957       0.29770
  42    0.3336        0.0065        0.0000        5.9902        5.9902       5.983728       0.25991
  41    0.4307        0.0065        0.0000        5.9877        5.9877       5.981139       0.22503
  40    0.5894        0.0065        0.0000        5.9836        5.9836       5.977107       0.21442
  39     1.339        0.0065        0.0000        5.9651        5.9651       5.958597       0.20839
  38     1.782        0.0065        0.0000        5.9549        5.9549       5.948381       0.19451
  37     2.292        0.0076        0.0000        1.2705        1.2705       1.262857      77.60450
  36     2.964        0.0081        0.0000        1.1753        1.1753       1.167226       1.20045
  35     3.853        0.0083        0.0000        1.1343        1.1343       1.125990       0.39134
  34     5.035        0.0084        0.0000        1.1123        1.1123       1.103865       0.15805
  33     6.613        0.0085        0.0000        1.0995        1.0995       1.091050       0.06851
  32     8.786        0.0085        0.0000        1.0920        1.0920       1.083500       0.02932
  31     11.80        0.0086        0.0000        1.0874        1.0874       1.078779       0.01322
  30     15.07        0.0086        0.0000        1.0849        1.0849       1.076302       0.00639
  29     18.79        0.0086        0.0000        1.0834        1.0834       1.074798       0.00341
  28     23.16        0.0086        0.0000        1.0824        1.0824       1.073749       0.00203
  27     28.12        0.0086        0.0000        1.0816        1.0816       1.072959       0.00134
  26     33.73        0.0086        0.0000        1.0810        1.0810       1.072351       0.00091
  25     40.54        0.0086        0.0000        1.0801        1.0801       1.071515       0.00104
  24     48.69        0.0086        0.0000        1.0794        1.0794       1.070801       0.00074
  23     57.69        0.0086        0.0000        1.0789        1.0789       1.070242       0.00052
  22     68.43        0.0086        0.0000        1.0784        1.0784       1.069762       0.00038
  21     81.20        0.0086        0.0000        1.0780        1.0780       1.069349       0.00027
  20     96.49        0.0086        0.0000        1.0776        1.0776       1.068988       0.00020
  19     114.6        0.0086        0.0000        1.0773        1.0773       1.068701       0.00013
  18     136.5        0.0086        0.0000        1.0770        1.0770       1.068400       0.00012
  17     162.9        0.0086        0.0000        1.0768        1.0768       1.068120       0.00009
  16     196.4        0.0086        0.0000        1.0765        1.0765       1.067843       0.00007
  15     218.7        0.0086        0.0000        1.0763        1.0763       1.067664       0.00007
  14     243.0        0.0086        0.0000        1.0762        1.0762       1.067522       0.00005
  13     269.0        0.0086        0.0000        1.0760        1.0760       1.067337       0.00006
  12     297.5        0.0086        0.0000        1.0757        1.0757       1.067057       0.00008
  11     328.5        0.0087        0.0000        1.0753        1.0753       1.066626       0.00012
  10     361.9        0.0087        0.0000        1.0746        1.0746       1.065939       0.00017
   9     398.1        0.0087        0.0000        1.0735        1.0735       1.064877       0.00025
   8     437.6        0.0087        0.0000        1.0720        1.0720       1.063301       0.00034
   7     480.5        0.0087        0.0000        1.0697        1.0697       1.061001       0.00045
   6     533.0        0.0087        0.0000        1.0655        1.0656       1.056837       0.00067
   5     589.8        0.0088        0.0000        1.0591        1.0591       1.050332       0.00097
   4     651.6        0.0088        0.0000        1.0480        1.0481       1.039212       0.00152
   3     718.7        0.0090        0.0000        1.0313        1.0313       1.022295       0.00213
   2     792.3        0.0092        0.0000        1.0067        1.0067       0.997549       0.00284
   1     891.5        0.0096        0.0000        0.9618        0.9618       0.952287       0.00385
   0    1013.0        0.0102        0.0000        0.8950        0.8950       0.884788       0.00469

  Modules and versions used in this calculation:

       rrtmg_sw.1col.f90:  $Revision$                    rrtmg_sw_init.f90:  $Revision$        
     rrtmgsw_cldprop.f90:  $Revision$                  rrtmgsw_cldprmc.f90:  NOT USED          
     rrtmg_sw_reftra.f90:  $Revision$                  rrtmg_sw_spcvrt.f90:  NOT USED          
     rrtmg_sw_spcvmc.f90:  NOT USED                    rrtmgsw_setcoef.f90:  NOT USED          
     rrtmg_sw_taumol.f90:  $Revision$                  rrtmg_sw_vrtqdr.f90:  NOT USED          
                rrtatm.f:  NOT USED                             util_xxx.f:  NOT USED          
                 extra.f:  NOT USED                       rrtmg_sw_k_g.f90:  $Revision$        

