

 Wavenumbers:   820. - 50000. cm-1, ATM      1
 LEVEL PRESSURE   UPWARD FLUX   DIFDOWN FLUX  DIRDOWN FLUX  DOWNWARD FLUX   NET FLUX    HEATING RATE
          mb          W/m2          W/m2          W/m2        W/m2          W/m2       degree/day
  51    .06700      479.1953        0.0000      617.8126      617.8126     138.617338       0.00000
  50    .07753      479.1949        0.0014      617.7951      617.7965     138.601537      12.66518
  49    .09103      479.1945        0.0030      617.7786      617.7816     138.587137       9.00029
  48    0.1069      479.1940        0.0050      617.7593      617.7643     138.570332       8.94543
  47    0.1255      479.1935        0.0072      617.7358      617.7430     138.549496       9.44603
  46    0.1487      479.1929        0.0101      617.7033      617.7134     138.520441      10.59083
  45    0.1794      479.1922        0.0139      617.6554      617.6693     138.477047      11.91279
  44    0.2165      479.1915        0.0185      617.5938      617.6122     138.420700      12.81791
  43    0.2613      479.1909        0.0238      617.5144      617.5382     138.347346      13.82696
  42    0.3336      479.1901        0.0327      617.3716      617.4043     138.214206      15.52280
  41    0.4307      479.1894        0.0443      617.1693      617.2136     138.024191      16.52132
  40    0.5894      479.1895        0.0631      616.8151      616.8783     137.688796      17.83590
  39     1.339      479.2081        0.1481      614.9781      615.1263     135.918162      19.93413
  38     1.782      479.2320        0.1960      614.0108      614.2068     134.974775      17.96056
  37     2.292      479.2714        0.2504      613.0603      613.3107     134.039306      15.49381
  36     2.964      479.3408        0.3212      612.0250      612.3462     133.005387      12.97882
  35     3.853      479.4572        0.4140      610.8857      611.2997     131.842451      11.03648
  34     5.035      479.6361        0.5364      609.6358      610.1722     130.536070       9.33224
  33     6.613      479.8880        0.6989      608.2735      608.9724     129.084460       7.76031
  32     8.786      480.2161        0.9170      606.7805      607.6975     127.481313       6.22604
  31     11.80      480.6413        1.2274      605.0381      606.2655     125.624151       5.19947
  30     15.07      481.0463        1.5587      603.4640      605.0227     123.976422       4.25412
  29     18.79      481.4578        1.9315      601.9020      603.8335     122.375693       3.62935
  28     23.16      481.8853        2.3646      600.2775      602.6421     120.756836       3.13035
  27     28.12      482.3121        2.8576      598.6101      601.4677     119.155617       2.72196
  26     33.73      482.6989        3.4072      596.9557      600.3629     117.663949       2.24276
  25     40.54      483.0606        4.0690      595.1753      599.2443     116.183670       1.83645
  24     48.69      483.3944        4.8631      593.2345      598.0975     114.703140       1.53212
  23     57.69      483.6619        5.7311      591.2898      597.0209     113.359001       1.25993
  22     68.43      483.8731        6.7595      589.1643      595.9238     112.050694       1.02850
  21     81.20      483.9755        7.9788      586.8714      594.8503     110.874770       0.77703
  20     96.49      483.9593        9.4225      584.3622      593.7848     109.825449       0.57915
  19     114.6      483.8791       11.1208      581.5253      592.6461     108.767044       0.49420
  18     136.5      483.7408       13.1094      578.2941      591.4035     107.662722       0.42464
  17     162.9      483.5399       15.4432      574.5914      590.0346     106.494771       0.37332
  16     196.4      483.1941       18.4197      570.0330      588.4527     105.258633       0.31115
  15     218.7      482.9391       20.3444      567.1463      587.4908     104.551631       0.26842
  14     243.0      482.6528       22.4092      564.0812      586.4903     103.837515       0.24768
  13     269.0      482.3334       24.6156      560.8405      585.4561     103.122695       0.23188
  12     297.5      481.9810       26.9647      557.4261      584.3908     102.409843       0.21142
  11     328.5      481.6030       29.4629      553.8238      583.2867     101.683620       0.19746
  10     361.9      481.2010       32.1065      550.0408      582.1473     100.946276       0.18656
   9     398.1      480.7752       34.9008      546.0725      580.9733     100.198083       0.17431
   8     437.6      480.3289       37.8451      541.9166      579.7617      99.432796       0.16362
   7     480.5      479.8636       40.9383      537.5736      578.5119      98.648301       0.15407
   6     533.0      479.3117       44.6602      532.3669      577.0271      97.715343       0.15008
   5     589.8      478.7459       48.5712      526.9064      575.4776      96.731765       0.14600
   4     651.6      478.1735       52.6658      521.1908      573.8566      95.683108       0.14341
   3     718.7      477.6031       56.9375      515.2243      572.1618      94.558722       0.14130
   2     792.3      477.0453       61.3765      509.0166      570.3930      93.347701       0.13889
   1     891.5      476.3876       67.1537      500.9241      568.0779      91.690317       0.14104
   0    1013.0      475.7594       73.7922      491.6124      565.4046      89.645179       0.14200



 Wavenumbers:  2600. -  3250. cm-1, ATM      1
 LEVEL PRESSURE   UPWARD FLUX   DIFDOWN FLUX  DIRDOWN FLUX  DOWNWARD FLUX   NET FLUX    HEATING RATE
          mb          W/m2          W/m2          W/m2        W/m2          W/m2       degree/day
  51    .06700        3.0777        0.0000        5.4450        5.4450       2.367286       0.00000
  50    .07753        3.0777        0.0000        5.4450        5.4450       2.367278       0.00641
  49    .09103        3.0777        0.0000        5.4450        5.4450       2.367268       0.00627
  48    0.1069        3.0777        0.0000        5.4450        5.4450       2.367257       0.00614
  47    0.1255        3.0777        0.0000        5.4450        5.4450       2.367244       0.00600
  46    0.1487        3.0777        0.0000        5.4450        5.4450       2.367227       0.00608
  45    0.1794        3.0777        0.0000        5.4450        5.4450       2.367204       0.00625
  44    0.2165        3.0777        0.0000        5.4449        5.4449       2.367177       0.00613
  43    0.2613        3.0777        0.0000        5.4449        5.4449       2.367145       0.00601
  42    0.3336        3.0777        0.0000        5.4448        5.4448       2.367092       0.00618
  41    0.4307        3.0777        0.0000        5.4448        5.4448       2.367021       0.00621
  40    0.5894        3.0777        0.0000        5.4446        5.4446       2.366901       0.00638
  39     1.339        3.0777        0.0000        5.4439        5.4439       2.366192       0.00799
  38     1.782        3.0778        0.0000        5.4434        5.4434       2.365647       0.01037
  37     2.292        3.0778        0.0000        5.4427        5.4427       2.364929       0.01189
  36     2.964        3.0778        0.0000        5.4416        5.4416       2.363888       0.01308
  35     3.853        3.0778        0.0000        5.4402        5.4402       2.362405       0.01407
  34     5.035        3.0778        0.0000        5.4381        5.4381       2.360342       0.01474
  33     6.613        3.0778        0.0000        5.4353        5.4353       2.357549       0.01493
  32     8.786        3.0778        0.0000        5.4317        5.4317       2.353897       0.01418
  31     11.80        3.0778        0.0000        5.4269        5.4269       2.349082       0.01348
  30     15.07        3.0779        0.0000        5.4224        5.4224       2.344510       0.01180
  29     18.79        3.0779        0.0000        5.4180        5.4180       2.340037       0.01014
  28     23.16        3.0780        0.0000        5.4135        5.4135       2.335467       0.00884
  27     28.12        3.0781        0.0000        5.4088        5.4088       2.330706       0.00809
  26     33.73        3.0783        0.0000        5.4036        5.4036       2.325313       0.00811
  25     40.54        3.0785        0.0000        5.3966        5.3967       2.318146       0.00889
  24     48.69        3.0788        0.0000        5.3872        5.3872       2.308341       0.01015
  23     57.69        3.0793        0.0000        5.3754        5.3754       2.296132       0.01144
  22     68.43        3.0799        0.0000        5.3599        5.3599       2.280063       0.01263
  21     81.20        3.0806        0.0000        5.3401        5.3401       2.259455       0.01362
  20     96.49        3.0817        0.0000        5.3155        5.3155       2.233863       0.01413
  19     114.6        3.0830        0.0001        5.2861        5.2862       2.203165       0.01433
  18     136.5        3.0848        0.0001        5.2520        5.2521       2.167281       0.01380
  17     162.9        3.0872        0.0001        5.2137        5.2138       2.126632       0.01299
  16     196.4        3.0908        0.0001        5.1693        5.1694       2.078598       0.01209
  15     218.7        3.0934        0.0001        5.1433        5.1434       2.049987       0.01086
  14     243.0        3.0966        0.0001        5.1177        5.1179       2.021274       0.00996
  13     269.0        3.1003        0.0001        5.0928        5.0929       1.992643       0.00929
  12     297.5        3.1047        0.0001        5.0686        5.0688       1.964061       0.00848
  11     328.5        3.1099        0.0002        5.0450        5.0451       1.935275       0.00783
  10     361.9        3.1159        0.0002        5.0217        5.0219       1.906026       0.00740
   9     398.1        3.1229        0.0002        4.9985        4.9987       1.875757       0.00705
   8     437.6        3.1310        0.0002        4.9745        4.9747       1.843664       0.00686
   7     480.5        3.1405        0.0002        4.9492        4.9495       1.808974       0.00681
   6     533.0        3.1531        0.0003        4.9180        4.9182       1.765105       0.00706
   5     589.8        3.1680        0.0003        4.8837        4.8840       1.715957       0.00730
   4     651.6        3.1855        0.0003        4.8458        4.8461       1.660623       0.00757
   3     718.7        3.2059        0.0003        4.8040        4.8043       1.598401       0.00782
   2     792.3        3.2299        0.0004        4.7579        4.7583       1.528415       0.00803
   1     891.5        3.2656        0.0004        4.6938        4.6942       1.428599       0.00849
   0    1013.0        3.3143        0.0005        4.6148        4.6153       1.301012       0.00886



 Wavenumbers:  3250. -  4000. cm-1, ATM      1
 LEVEL PRESSURE   UPWARD FLUX   DIFDOWN FLUX  DIRDOWN FLUX  DOWNWARD FLUX   NET FLUX    HEATING RATE
          mb          W/m2          W/m2          W/m2        W/m2          W/m2       degree/day
  51    .06700        4.1677        0.0000        9.1795        9.1795       5.011875       0.00000
  50    .07753        4.1677        0.0000        9.1749        9.1749       5.007214       3.73574
  49    .09103        4.1677        0.0000        9.1717        9.1717       5.004033       1.98847
  48    0.1069        4.1677        0.0000        9.1694        9.1694       5.001722       1.22989
  47    0.1255        4.1677        0.0000        9.1673        9.1673       4.999684       0.92393
  46    0.1487        4.1677        0.0000        9.1652        9.1652       4.997499       0.79680
  45    0.1794        4.1677        0.0000        9.1626        9.1626       4.994929       0.70551
  44    0.2165        4.1677        0.0000        9.1600        9.1600       4.992338       0.58930
  43    0.2613        4.1677        0.0000        9.1574        9.1574       4.989737       0.49029
  42    0.3336        4.1677        0.0000        9.1538        9.1538       4.986167       0.41621
  41    0.4307        4.1677        0.0000        9.1499        9.1499       4.982204       0.34462
  40    0.5894        4.1677        0.0000        9.1442        9.1442       4.976498       0.30341
  39     1.339        4.1677        0.0000        9.1217        9.1217       4.954028       0.25297
  38     1.782        4.1677        0.0000        9.1114        9.1114       4.943763       0.19545
  37     2.292        4.1677        0.0000        9.1014        9.1014       4.933785       0.16525
  36     2.964        4.1677        0.0000        9.0902        9.0902       4.922520       0.14142
  35     3.853        4.1677        0.0000        9.0769        9.0769       4.909204       0.12636
  34     5.035        4.1677        0.0000        9.0602        9.0603       4.892594       0.11866
  33     6.613        4.1677        0.0000        9.0383        9.0383       4.870650       0.11731
  32     8.786        4.1677        0.0000        9.0077        9.0077       4.840007       0.11901
  31     11.80        4.1677        0.0000        8.9617        8.9617       4.794041       0.12869
  30     15.07        4.1677        0.0000        8.9102        8.9103       4.742551       0.13294
  29     18.79        4.1677        0.0000        8.8504        8.8505       4.682720       0.13566
  28     23.16        4.1678        0.0000        8.7804        8.7805       4.612689       0.13542
  27     28.12        4.1679        0.0001        8.7025        8.7025       4.534672       0.13262
  26     33.73        4.1679        0.0001        8.6206        8.6207       4.452777       0.12313
  25     40.54        4.1680        0.0001        8.5307        8.5308       4.362749       0.11169
  24     48.69        4.1682        0.0001        8.4348        8.4349       4.266726       0.09937
  23     57.69        4.1684        0.0001        8.3403        8.3404       4.171988       0.08880
  22     68.43        4.1687        0.0001        8.2352        8.2354       4.066708       0.08276
  21     81.20        4.1690        0.0001        8.1144        8.1145       3.945473       0.08011
  20     96.49        4.1695        0.0002        7.9739        7.9740       3.804507       0.07780
  19     114.6        4.1702        0.0002        7.8144        7.8145       3.644330       0.07479
  18     136.5        4.1711        0.0002        7.6392        7.6394       3.468299       0.06769
  17     162.9        4.1724        0.0003        7.4510        7.4513       3.278904       0.06054
  16     196.4        4.1742        0.0003        7.2347        7.2350       3.060807       0.05490
  15     218.7        4.1756        0.0004        7.1048        7.1052       2.929557       0.04983
  14     243.0        4.1773        0.0004        6.9738        6.9742       2.796884       0.04602
  13     269.0        4.1794        0.0004        6.8447        6.8451       2.665728       0.04255
  12     297.5        4.1819        0.0005        6.7213        6.7217       2.539864       0.03733
  11     328.5        4.1849        0.0005        6.6078        6.6083       2.423434       0.03166
  10     361.9        4.1885        0.0005        6.5077        6.5083       2.319787       0.02622
   9     398.1        4.1928        0.0006        6.4235        6.4241       2.231294       0.02062
   8     437.6        4.1980        0.0006        6.3555        6.3562       2.158225       0.01562
   7     480.5        4.2041        0.0007        6.3025        6.3032       2.099131       0.01161
   6     533.0        4.2124        0.0008        6.2561        6.2569       2.044466       0.00879
   5     589.8        4.2224        0.0009        6.2196        6.2205       1.998080       0.00689
   4     651.6        4.2344        0.0009        6.1876        6.1886       1.954225       0.00600
   3     718.7        4.2486        0.0010        6.1561        6.1571       1.908525       0.00574
   2     792.3        4.2654        0.0011        6.1227        6.1238       1.858400       0.00575
   1     891.5        4.2907        0.0013        6.0770        6.0783       1.787603       0.00602
   0    1013.0        4.3249        0.0014        6.0211        6.0226       1.697655       0.00625



 Wavenumbers:  4000. -  4650. cm-1, ATM      1
 LEVEL PRESSURE   UPWARD FLUX   DIFDOWN FLUX  DIRDOWN FLUX  DOWNWARD FLUX   NET FLUX    HEATING RATE
          mb          W/m2          W/m2          W/m2        W/m2          W/m2       degree/day
  51    .06700        6.8601        0.0000       10.7795       10.7795       3.919411       0.00000
  50    .07753        6.8601        0.0000       10.7795       10.7795       3.919410       0.00096
  49    .09103        6.8601        0.0000       10.7795       10.7795       3.919408       0.00094
  48    0.1069        6.8601        0.0000       10.7795       10.7795       3.919406       0.00092
  47    0.1255        6.8601        0.0000       10.7795       10.7795       3.919404       0.00090
  46    0.1487        6.8601        0.0000       10.7795       10.7795       3.919402       0.00091
  45    0.1794        6.8601        0.0000       10.7795       10.7795       3.919398       0.00094
  44    0.2165        6.8601        0.0000       10.7795       10.7795       3.919394       0.00092
  43    0.2613        6.8601        0.0000       10.7795       10.7795       3.919390       0.00090
  42    0.3336        6.8601        0.0000       10.7795       10.7795       3.919382       0.00093
  41    0.4307        6.8601        0.0000       10.7795       10.7795       3.919371       0.00094
  40    0.5894        6.8601        0.0000       10.7795       10.7795       3.919353       0.00097
  39     1.339        6.8601        0.0000       10.7794       10.7794       3.919244       0.00122
  38     1.782        6.8602        0.0000       10.7793       10.7793       3.919160       0.00161
  37     2.292        6.8602        0.0000       10.7792       10.7792       3.919046       0.00189
  36     2.964        6.8602        0.0000       10.7790       10.7791       3.918876       0.00213
  35     3.853        6.8602        0.0000       10.7788       10.7788       3.918625       0.00239
  34     5.035        6.8602        0.0000       10.7785       10.7785       3.918254       0.00265
  33     6.613        6.8603        0.0000       10.7780       10.7780       3.917708       0.00292
  32     8.786        6.8604        0.0000       10.7772       10.7773       3.916901       0.00313
  31     11.80        6.8605        0.0001       10.7761       10.7761       3.915631       0.00356
  30     15.07        6.8606        0.0001       10.7747       10.7748       3.914138       0.00386
  29     18.79        6.8608        0.0001       10.7730       10.7731       3.912326       0.00411
  28     23.16        6.8611        0.0001       10.7710       10.7711       3.910069       0.00436
  27     28.12        6.8614        0.0001       10.7685       10.7687       3.907325       0.00466
  26     33.73        6.8618        0.0002       10.7655       10.7657       3.903928       0.00511
  25     40.54        6.8623        0.0002       10.7614       10.7616       3.899297       0.00575
  24     48.69        6.8632        0.0002       10.7560       10.7562       3.893090       0.00642
  23     57.69        6.8642        0.0003       10.7496       10.7499       3.885684       0.00694
  22     68.43        6.8656        0.0003       10.7416       10.7419       3.876335       0.00735
  21     81.20        6.8674        0.0004       10.7317       10.7321       3.864728       0.00767
  20     96.49        6.8698        0.0005       10.7198       10.7203       3.850479       0.00786
  19     114.6        6.8729        0.0006       10.7055       10.7060       3.833188       0.00807
  18     136.5        6.8768        0.0007       10.6883       10.6890       3.812143       0.00809
  17     162.9        6.8820        0.0008       10.6676       10.6684       3.786436       0.00822
  16     196.4        6.8894        0.0010       10.6406       10.6416       3.752211       0.00861
  15     218.7        6.8946        0.0011       10.6227       10.6238       3.729220       0.00873
  14     243.0        6.9006        0.0012       10.6031       10.6043       3.703749       0.00883
  13     269.0        6.9075        0.0013       10.5817       10.5830       3.675567       0.00914
  12     297.5        6.9153        0.0015       10.5583       10.5598       3.644482       0.00922
  11     328.5        6.9243        0.0016       10.5329       10.5345       3.610184       0.00933
  10     361.9        6.9345        0.0018       10.5054       10.5072       3.572734       0.00948
   9     398.1        6.9459        0.0020       10.4759       10.4778       3.531947       0.00950
   8     437.6        6.9587        0.0022       10.4441       10.4462       3.487534       0.00950
   7     480.5        6.9731        0.0024       10.4100       10.4123       3.439184       0.00950
   6     533.0        6.9918        0.0026       10.3679       10.3705       3.378729       0.00973
   5     589.8        7.0129        0.0029       10.3226       10.3255       3.312579       0.00982
   4     651.6        7.0368        0.0032       10.2741       10.2773       3.240545       0.00985
   3     718.7        7.0635        0.0035       10.2224       10.2259       3.162377       0.00982
   2     792.3        7.0934        0.0038       10.1675       10.1713       3.077910       0.00969
   1     891.5        7.1359        0.0043       10.0941       10.0984       2.962545       0.00982
   0    1013.0        7.1899        0.0048       10.0071       10.0119       2.821994       0.00976



 Wavenumbers:  4650. -  5150. cm-1, ATM      1
 LEVEL PRESSURE   UPWARD FLUX   DIFDOWN FLUX  DIRDOWN FLUX  DOWNWARD FLUX   NET FLUX    HEATING RATE
          mb          W/m2          W/m2          W/m2        W/m2          W/m2       degree/day
  51    .06700        4.5949        0.0000       10.2033       10.2033       5.608494       0.00000
  50    .07753        4.5948        0.0000       10.2031       10.2031       5.608265       0.18363
  49    .09103        4.5948        0.0000       10.2028       10.2028       5.607979       0.17904
  48    0.1069        4.5948        0.0000       10.2025       10.2025       5.607651       0.17422
  47    0.1255        4.5948        0.0000       10.2021       10.2021       5.607278       0.16932
  46    0.1487        4.5948        0.0000       10.2017       10.2017       5.606810       0.17041
  45    0.1794        4.5948        0.0000       10.2010       10.2010       5.606178       0.17348
  44    0.2165        4.5948        0.0000       10.2003       10.2003       5.605440       0.16792
  43    0.2613        4.5948        0.0000       10.1994       10.1994       5.604580       0.16222
  42    0.3336        4.5948        0.0000       10.1980       10.1980       5.603187       0.16236
  41    0.4307        4.5948        0.0000       10.1962       10.1962       5.601398       0.15558
  40    0.5894        4.5948        0.0000       10.1934       10.1935       5.598603       0.14861
  39     1.339        4.5948        0.0000       10.1822       10.1822       5.587326       0.12696
  38     1.782        4.5948        0.0000       10.1768       10.1768       5.581943       0.10247
  37     2.292        4.5948        0.0000       10.1715       10.1715       5.576629       0.08802
  36     2.964        4.5948        0.0000       10.1657       10.1657       5.570856       0.07247
  35     3.853        4.5949        0.0000       10.1596       10.1596       5.564792       0.05755
  34     5.035        4.5949        0.0000       10.1534       10.1535       5.558598       0.04425
  33     6.613        4.5949        0.0000       10.1471       10.1471       5.552267       0.03384
  32     8.786        4.5949        0.0001       10.1402       10.1403       5.545368       0.02679
  31     11.80        4.5949        0.0001       10.1313       10.1314       5.536440       0.02500
  30     15.07        4.5950        0.0001       10.1216       10.1217       5.526663       0.02524
  29     18.79        4.5951        0.0001       10.1097       10.1098       5.514765       0.02698
  28     23.16        4.5952        0.0002       10.0946       10.0948       5.499588       0.02935
  27     28.12        4.5954        0.0002       10.0758       10.0760       5.480637       0.03221
  26     33.73        4.5956        0.0002       10.0531       10.0533       5.457698       0.03449
  25     40.54        4.5959        0.0003       10.0236       10.0239       5.427968       0.03688
  24     48.69        4.5964        0.0003        9.9860        9.9864       5.389974       0.03932
  23     57.69        4.5970        0.0004        9.9432        9.9436       5.346578       0.04068
  22     68.43        4.5979        0.0005        9.8913        9.8918       5.293922       0.04139
  21     81.20        4.5990        0.0006        9.8299        9.8305       5.231469       0.04127
  20     96.49        4.6006        0.0007        9.7593        9.7600       5.159333       0.03981
  19     114.6        4.6029        0.0008        9.6808        9.6816       5.078717       0.03764
  18     136.5        4.6059        0.0009        9.5960        9.5969       4.991047       0.03371
  17     162.9        4.6101        0.0011        9.5057        9.5068       4.896713       0.03015
  16     196.4        4.6165        0.0013        9.4018        9.4031       4.786641       0.02771
  15     218.7        4.6213        0.0015        9.3385        9.3400       4.718662       0.02581
  14     243.0        4.6272        0.0016        9.2719        9.2735       4.646290       0.02510
  13     269.0        4.6343        0.0018        9.2008        9.2025       4.568253       0.02531
  12     297.5        4.6428        0.0020        9.1236        9.1256       4.482775       0.02535
  11     328.5        4.6530        0.0022        9.0392        9.0413       4.388351       0.02567
  10     361.9        4.6651        0.0024        8.9462        8.9486       4.283452       0.02654
   9     398.1        4.6797        0.0026        8.8440        8.8466       4.166885       0.02716
   8     437.6        4.6970        0.0028        8.7320        8.7348       4.037736       0.02761
   7     480.5        4.7177        0.0030        8.6100        8.6131       3.895367       0.02796
   6     533.0        4.7463        0.0033        8.4582        8.4615       3.715217       0.02898
   5     589.8        4.7811        0.0036        8.2945        8.2981       3.516992       0.02942
   4     651.6        4.8237        0.0039        8.1203        8.1243       3.300550       0.02960
   3     718.7        4.8759        0.0043        7.9374        7.9417       3.065804       0.02950
   2     792.3        4.9401        0.0046        7.7474        7.7520       2.811936       0.02912
   1     891.5        5.0426        0.0051        7.5025        7.5076       2.464986       0.02952
   0    1013.0        5.1950        0.0056        7.2282        7.2338       2.038783       0.02959



 Wavenumbers:  5150. -  6150. cm-1, ATM      1
 LEVEL PRESSURE   UPWARD FLUX   DIFDOWN FLUX  DIRDOWN FLUX  DOWNWARD FLUX   NET FLUX    HEATING RATE
          mb          W/m2          W/m2          W/m2        W/m2          W/m2       degree/day
  51    .06700       18.0987        0.0000       25.5798       25.5798       7.481126       0.00000
  50    .07753       18.0987        0.0000       25.5798       25.5798       7.481126       0.00028
  49    .09103       18.0987        0.0000       25.5798       25.5798       7.481125       0.00028
  48    0.1069       18.0987        0.0000       25.5798       25.5798       7.481125       0.00027
  47    0.1255       18.0987        0.0000       25.5798       25.5798       7.481124       0.00026
  46    0.1487       18.0987        0.0000       25.5798       25.5798       7.481123       0.00027
  45    0.1794       18.0987        0.0000       25.5798       25.5798       7.481122       0.00028
  44    0.2165       18.0987        0.0000       25.5798       25.5798       7.481121       0.00027
  43    0.2613       18.0987        0.0000       25.5798       25.5798       7.481120       0.00027
  42    0.3336       18.0987        0.0000       25.5798       25.5798       7.481117       0.00027
  41    0.4307       18.0987        0.0000       25.5798       25.5798       7.481114       0.00028
  40    0.5894       18.0987        0.0000       25.5798       25.5798       7.481109       0.00028
  39     1.339       18.0987        0.0000       25.5797       25.5798       7.481077       0.00036
  38     1.782       18.0987        0.0001       25.5797       25.5798       7.481052       0.00048
  37     2.292       18.0987        0.0001       25.5796       25.5797       7.481018       0.00056
  36     2.964       18.0987        0.0001       25.5796       25.5797       7.480968       0.00063
  35     3.853       18.0987        0.0001       25.5795       25.5796       7.480893       0.00071
  34     5.035       18.0988        0.0002       25.5794       25.5795       7.480784       0.00078
  33     6.613       18.0988        0.0002       25.5792       25.5794       7.480622       0.00086
  32     8.786       18.0989        0.0003       25.5789       25.5793       7.480384       0.00093
  31     11.80       18.0990        0.0004       25.5785       25.5790       7.480009       0.00105
  30     15.07       18.0991        0.0006       25.5781       25.5787       7.479568       0.00114
  29     18.79       18.0993        0.0007       25.5776       25.5783       7.479033       0.00121
  28     23.16       18.0995        0.0009       25.5770       25.5778       7.478366       0.00129
  27     28.12       18.0997        0.0010       25.5762       25.5773       7.477553       0.00138
  26     33.73       18.1000        0.0012       25.5753       25.5766       7.476545       0.00152
  25     40.54       18.1005        0.0015       25.5741       25.5756       7.475167       0.00171
  24     48.69       18.1011        0.0018       25.5726       25.5744       7.473311       0.00192
  23     57.69       18.1018        0.0021       25.5708       25.5729       7.471087       0.00209
  22     68.43       18.1027        0.0025       25.5685       25.5710       7.468268       0.00222
  21     81.20       18.1039        0.0030       25.5657       25.5687       7.464751       0.00232
  20     96.49       18.1054        0.0035       25.5623       25.5658       7.460418       0.00239
  19     114.6       18.1072        0.0042       25.5581       25.5623       7.455120       0.00247
  18     136.5       18.1094        0.0050       25.5531       25.5581       7.448661       0.00248
  17     162.9       18.1121        0.0060       25.5469       25.5529       7.440768       0.00252
  16     196.4       18.1157        0.0072       25.5388       25.5460       7.430265       0.00264
  15     218.7       18.1181        0.0080       25.5334       25.5414       7.423217       0.00268
  14     243.0       18.1208        0.0089       25.5274       25.5363       7.415415       0.00271
  13     269.0       18.1238        0.0098       25.5208       25.5306       7.406796       0.00280
  12     297.5       18.1271        0.0109       25.5135       25.5244       7.397297       0.00282
  11     328.5       18.1308        0.0120       25.5056       25.5176       7.386829       0.00285
  10     361.9       18.1348        0.0132       25.4969       25.5102       7.375405       0.00289
   9     398.1       18.1391        0.0146       25.4875       25.5021       7.362972       0.00290
   8     437.6       18.1439        0.0160       25.4773       25.4933       7.349440       0.00289
   7     480.5       18.1490        0.0175       25.4662       25.4838       7.334717       0.00289
   6     533.0       18.1555        0.0194       25.4524       25.4718       7.316311       0.00296
   5     589.8       18.1627        0.0215       25.4373       25.4588       7.296179       0.00299
   4     651.6       18.1704        0.0237       25.4209       25.4447       7.274252       0.00300
   3     718.7       18.1789        0.0262       25.4032       25.4293       7.250461       0.00299
   2     792.3       18.1880        0.0288       25.3840       25.4128       7.224755       0.00295
   1     891.5       18.2006        0.0324       25.3579       25.3903       7.189689       0.00298
   0    1013.0       18.2159        0.0367       25.3262       25.3629       7.147013       0.00296



 Wavenumbers:  6150. -  7700. cm-1, ATM      1
 LEVEL PRESSURE   UPWARD FLUX   DIFDOWN FLUX  DIRDOWN FLUX  DOWNWARD FLUX   NET FLUX    HEATING RATE
          mb          W/m2          W/m2          W/m2        W/m2          W/m2       degree/day
  51    .06700       33.1128        0.0000       47.3109       47.3109      14.198139       0.00000
  50    .07753       33.1128        0.0000       47.3109       47.3109      14.198123       0.01296
  49    .09103       33.1128        0.0000       47.3109       47.3109      14.198103       0.01270
  48    0.1069       33.1128        0.0000       47.3108       47.3108      14.198080       0.01244
  47    0.1255       33.1128        0.0000       47.3108       47.3108      14.198053       0.01217
  46    0.1487       33.1128        0.0000       47.3108       47.3108      14.198019       0.01235
  45    0.1794       33.1128        0.0000       47.3107       47.3107      14.197973       0.01270
  44    0.2165       33.1128        0.0000       47.3107       47.3107      14.197918       0.01246
  43    0.2613       33.1128        0.0000       47.3106       47.3106      14.197853       0.01222
  42    0.3336       33.1128        0.0000       47.3105       47.3105      14.197746       0.01250
  41    0.4307       33.1128        0.0001       47.3103       47.3104      14.197604       0.01236
  40    0.5894       33.1127        0.0001       47.3100       47.3101      14.197371       0.01235
  39     1.339       33.1127        0.0002       47.3088       47.3090      14.196274       0.01236
  38     1.782       33.1127        0.0003       47.3081       47.3083      14.195629       0.01227
  37     2.292       33.1127        0.0003       47.3072       47.3076      14.194884       0.01235
  36     2.964       33.1127        0.0005       47.3061       47.3066      14.193905       0.01229
  35     3.853       33.1127        0.0006       47.3047       47.3053      14.192613       0.01226
  34     5.035       33.1126        0.0008       47.3028       47.3035      14.190898       0.01225
  33     6.613       33.1126        0.0010       47.3002       47.3012      14.188611       0.01223
  32     8.786       33.1126        0.0013       47.2967       47.2981      14.185537       0.01194
  31     11.80       33.1125        0.0018       47.2918       47.2937      14.181154       0.01227
  30     15.07       33.1125        0.0023       47.2866       47.2889      14.176470       0.01209
  29     18.79       33.1124        0.0029       47.2807       47.2836      14.171205       0.01194
  28     23.16       33.1124        0.0036       47.2739       47.2775      14.165092       0.01182
  27     28.12       33.1124        0.0044       47.2662       47.2706      14.158147       0.01181
  26     33.73       33.1124        0.0052       47.2576       47.2629      14.150433       0.01160
  25     40.54       33.1125        0.0063       47.2474       47.2537      14.141194       0.01146
  24     48.69       33.1126        0.0075       47.2353       47.2428      14.130172       0.01141
  23     57.69       33.1128        0.0089       47.2221       47.2310      14.118205       0.01122
  22     68.43       33.1131        0.0106       47.2067       47.2173      14.104136       0.01106
  21     81.20       33.1136        0.0125       47.1887       47.2012      14.087623       0.01091
  20     96.49       33.1143        0.0149       47.1677       47.1826      14.068274       0.01068
  19     114.6       33.1154        0.0177       47.1434       47.1611      14.045725       0.01053
  18     136.5       33.1169        0.0210       47.1154       47.1365      14.019529       0.01007
  17     162.9       33.1191        0.0250       47.0830       47.1080      13.988941       0.00978
  16     196.4       33.1225        0.0302       47.0425       47.0727      13.950242       0.00974
  15     218.7       33.1250        0.0336       47.0166       47.0502      13.925210       0.00950
  14     243.0       33.1281        0.0373       46.9891       47.0264      13.898288       0.00934
  13     269.0       33.1318        0.0413       46.9598       47.0011      13.869399       0.00937
  12     297.5       33.1361        0.0457       46.9288       46.9745      13.838420       0.00919
  11     328.5       33.1412        0.0504       46.8959       46.9464      13.805140       0.00905
  10     361.9       33.1472        0.0555       46.8611       46.9167      13.769425       0.00904
   9     398.1       33.1542        0.0611       46.8243       46.8853      13.731098       0.00893
   8     437.6       33.1624        0.0670       46.7853       46.8523      13.689884       0.00881
   7     480.5       33.1719        0.0734       46.7439       46.8174      13.645489       0.00872
   6     533.0       33.1845        0.0814       46.6935       46.7749      13.590415       0.00886
   5     589.8       33.1993        0.0900       46.6397       46.7297      13.530352       0.00892
   4     651.6       33.2166        0.0993       46.5821       46.6815      13.464843       0.00896
   3     718.7       33.2368        0.1094       46.5206       46.6300      13.393239       0.00900
   2     792.3       33.2601        0.1203       46.4547       46.5751      13.315007       0.00897
   1     891.5       33.2944        0.1352       46.3658       46.5009      13.206567       0.00923
   0    1013.0       33.3399        0.1532       46.2585       46.4117      13.071839       0.00935



 Wavenumbers:  7700. -  8050. cm-1, ATM      1
 LEVEL PRESSURE   UPWARD FLUX   DIFDOWN FLUX  DIRDOWN FLUX  DOWNWARD FLUX   NET FLUX    HEATING RATE
          mb          W/m2          W/m2          W/m2        W/m2          W/m2       degree/day
  51    .06700        6.6570        0.0000       11.1810       11.1810       4.523920       0.00000
  50    .07753        6.6571        0.0000       11.1809       11.1809       4.523898       0.01796
  49    .09103        6.6571        0.0000       11.1809       11.1809       4.523870       0.01760
  48    0.1069        6.6571        0.0000       11.1809       11.1809       4.523837       0.01723
  47    0.1255        6.6571        0.0000       11.1809       11.1809       4.523800       0.01686
  46    0.1487        6.6571        0.0000       11.1808       11.1808       4.523753       0.01711
  45    0.1794        6.6571        0.0000       11.1808       11.1808       4.523689       0.01760
  44    0.2165        6.6571        0.0000       11.1807       11.1807       4.523613       0.01727
  43    0.2613        6.6571        0.0000       11.1806       11.1806       4.523523       0.01694
  42    0.3336        6.6572        0.0000       11.1805       11.1805       4.523375       0.01734
  41    0.4307        6.6572        0.0000       11.1803       11.1804       4.523178       0.01715
  40    0.5894        6.6573        0.0000       11.1801       11.1801       4.522855       0.01713
  39     1.339        6.6576        0.0001       11.1788       11.1789       4.521331       0.01716
  38     1.782        6.6577        0.0001       11.1781       11.1782       4.520436       0.01704
  37     2.292        6.6579        0.0001       11.1772       11.1773       4.519400       0.01716
  36     2.964        6.6582        0.0002       11.1761       11.1762       4.518039       0.01708
  35     3.853        6.6586        0.0002       11.1746       11.1748       4.516242       0.01706
  34     5.035        6.6590        0.0003       11.1726       11.1729       4.513855       0.01706
  33     6.613        6.6596        0.0004       11.1699       11.1703       4.510666       0.01705
  32     8.786        6.6605        0.0005       11.1664       11.1669       4.506369       0.01669
  31     11.80        6.6617        0.0007       11.1613       11.1619       4.500227       0.01720
  30     15.07        6.6630        0.0009       11.1558       11.1567       4.493636       0.01701
  29     18.79        6.6645        0.0011       11.1496       11.1507       4.486198       0.01686
  28     23.16        6.6662        0.0013       11.1424       11.1438       4.477521       0.01678
  27     28.12        6.6682        0.0016       11.1342       11.1358       4.467611       0.01685
  26     33.73        6.6705        0.0019       11.1251       11.1270       4.456542       0.01664
  25     40.54        6.6732        0.0023       11.1141       11.1164       4.443196       0.01656
  24     48.69        6.6765        0.0028       11.1009       11.1036       4.427149       0.01661
  23     57.69        6.6801        0.0033       11.0864       11.0897       4.409578       0.01647
  22     68.43        6.6845        0.0039       11.0693       11.0732       4.388728       0.01639
  21     81.20        6.6897        0.0046       11.0491       11.0537       4.363999       0.01634
  20     96.49        6.6960        0.0054       11.0253       11.0307       4.334687       0.01618
  19     114.6        6.7036        0.0065       10.9972       11.0037       4.300105       0.01615
  18     136.5        6.7126        0.0077       10.9644       10.9720       4.259412       0.01565
  17     162.9        6.7236        0.0091       10.9259       10.9349       4.211352       0.01536
  16     196.4        6.7381        0.0109       10.8768       10.8877       4.149636       0.01553
  15     218.7        6.7477        0.0122       10.8450       10.8572       4.109444       0.01526
  14     243.0        6.7584        0.0135       10.8109       10.8244       4.066032       0.01506
  13     269.0        6.7701        0.0149       10.7745       10.7894       4.019290       0.01516
  12     297.5        6.7830        0.0164       10.7356       10.7521       3.969093       0.01489
  11     328.5        6.7971        0.0181       10.6942       10.7123       3.915176       0.01466
  10     361.9        6.8127        0.0199       10.6502       10.6701       3.857445       0.01461
   9     398.1        6.8298        0.0218       10.6036       10.6254       3.795636       0.01440
   8     437.6        6.8485        0.0239       10.5542       10.5781       3.729549       0.01413
   7     480.5        6.8691        0.0261       10.5019       10.5281       3.658971       0.01386
   6     533.0        6.8951        0.0288       10.4386       10.4675       3.572326       0.01394
   5     589.8        6.9241        0.0318       10.3714       10.4032       3.479023       0.01385
   4     651.6        6.9564        0.0350       10.3001       10.3350       3.378647       0.01373
   3     718.7        6.9923        0.0384       10.2247       10.2630       3.270741       0.01356
   2     792.3        7.0322        0.0420       10.1449       10.1869       3.154747       0.01330
   1     891.5        7.0886        0.0469       10.0388       10.0857       2.997061       0.01342
   0    1013.0        7.1604        0.0528        9.9130        9.9658       2.805348       0.01331



 Wavenumbers:  8050. - 12850. cm-1, ATM      1
 LEVEL PRESSURE   UPWARD FLUX   DIFDOWN FLUX  DIRDOWN FLUX  DOWNWARD FLUX   NET FLUX    HEATING RATE
          mb          W/m2          W/m2          W/m2        W/m2          W/m2       degree/day
  51    .06700      112.9115        0.0000      156.5418      156.5418      43.630255       0.00000
  50    .07753      112.9115        0.0000      156.5417      156.5417      43.630255      -0.00000
  49    .09103      112.9115        0.0001      156.5417      156.5417      43.630255       0.00000
  48    0.1069      112.9115        0.0001      156.5416      156.5417      43.630255      -0.00000
  47    0.1255      112.9114        0.0002      156.5415      156.5417      43.630255       0.00000
  46    0.1487      112.9114        0.0002      156.5414      156.5417      43.630255      -0.00000
  45    0.1794      112.9114        0.0003      156.5413      156.5416      43.630255      -0.00000
  44    0.2165      112.9113        0.0004      156.5412      156.5416      43.630255       0.00000
  43    0.2613      112.9113        0.0006      156.5410      156.5416      43.630255       0.00000
  42    0.3336      112.9112        0.0008      156.5407      156.5415      43.630255       0.00000
  41    0.4307      112.9111        0.0011      156.5403      156.5414      43.630255       0.00000
  40    0.5894      112.9110        0.0015      156.5397      156.5412      43.630255       0.00000
  39     1.339      112.9102        0.0037      156.5367      156.5405      43.630255       0.00000
  38     1.782      112.9098        0.0050      156.5350      156.5400      43.630255      -0.00000
  37     2.292      112.9093        0.0065      156.5330      156.5395      43.630255       0.00000
  36     2.964      112.9086        0.0085      156.5303      156.5388      43.630255       0.00000
  35     3.853      112.9077        0.0111      156.5268      156.5380      43.630255       0.00000
  34     5.035      112.9065        0.0146      156.5222      156.5368      43.630255      -0.00000
  33     6.613      112.9049        0.0192      156.5160      156.5352      43.630255       0.00000
  32     8.786      112.9028        0.0254      156.5076      156.5331      43.630255       0.00000
  31     11.80      112.8998        0.0344      156.4957      156.5300      43.630255      -0.00000
  30     15.07      112.8965        0.0440      156.4828      156.5267      43.630255       0.00000
  29     18.79      112.8928        0.0548      156.4682      156.5230      43.630255       0.00000
  28     23.16      112.8885        0.0675      156.4512      156.5187      43.630255      -0.00000
  27     28.12      112.8835        0.0821      156.4317      156.5138      43.630255      -0.00000
  26     33.73      112.8779        0.0983      156.4099      156.5082      43.630255       0.00000
  25     40.54      112.8712        0.1180      156.3834      156.5015      43.630255       0.00000
  24     48.69      112.8631        0.1418      156.3515      156.4933      43.630255       0.00000
  23     57.69      112.8542        0.1680      156.3164      156.4844      43.630255       0.00000
  22     68.43      112.8435        0.1992      156.2746      156.4738      43.630255       0.00000
  21     81.20      112.8308        0.2365      156.2246      156.4610      43.630255       0.00000
  20     96.49      112.8156        0.2809      156.1649      156.4459      43.630255       0.00000
  19     114.6      112.7975        0.3338      156.0940      156.4278      43.630255      -0.00000
  18     136.5      112.7761        0.3966      156.0097      156.4063      43.630255       0.00000
  17     162.9      112.7504        0.4716      155.9090      156.3807      43.630255      -0.00000
  16     196.4      112.7171        0.5692      155.7781      156.3473      43.630255       0.00000
  15     218.7      112.6951        0.6334      155.6919      156.3253      43.630255       0.00000
  14     243.0      112.6711        0.7034      155.5980      156.3014      43.630255      -0.00000
  13     269.0      112.6451        0.7794      155.4959      156.2754      43.630255       0.00000
  12     297.5      112.6169        0.8618      155.3853      156.2472      43.630255       0.00000
  11     328.5      112.5863        0.9511      155.2654      156.2166      43.630255      -0.00000
  10     361.9      112.5532        1.0476      155.1359      156.1835      43.630255       0.00000
   9     398.1      112.5175        1.1519      154.9959      156.1478      43.630255      -0.00000
   8     437.6      112.4790        1.2643      154.8449      156.1092      43.630255       0.00000
   7     480.5      112.4374        1.3853      154.6823      156.0677      43.630255       0.00000
   6     533.0      112.3860        1.5352      154.4810      156.0162      43.630255      -0.00000
   5     589.8      112.3301        1.6978      154.2626      155.9603      43.630255      -0.00000
   4     651.6      112.2695        1.8738      154.0260      155.8998      43.630255       0.00000
   3     718.7      112.2040        2.0642      153.7700      155.8343      43.630255       0.00000
   2     792.3      112.1333        2.2696      153.4939      155.7635      43.630255      -0.00000
   1     891.5      112.0368        2.5492      153.1179      155.6671      43.630255       0.00000
   0    1013.0      111.9196        2.8887      152.6612      155.5499      43.630255      -0.00000



 Wavenumbers: 12850. - 16000. cm-1, ATM      1
 LEVEL PRESSURE   UPWARD FLUX   DIFDOWN FLUX  DIRDOWN FLUX  DOWNWARD FLUX   NET FLUX    HEATING RATE
          mb          W/m2          W/m2          W/m2        W/m2          W/m2       degree/day
  51    .06700       77.5512        0.0000       98.0872       98.0872      20.535991       0.00000
  50    .07753       77.5512        0.0001       98.0864       98.0864      20.535198       0.63569
  49    .09103       77.5512        0.0002       98.0853       98.0855      20.534202       0.62278
  48    0.1069       77.5513        0.0003       98.0841       98.0843      20.533056       0.60964
  47    0.1255       77.5513        0.0004       98.0826       98.0830      20.531740       0.59683
  46    0.1487       77.5513        0.0005       98.0809       98.0814      20.530078       0.60594
  45    0.1794       77.5514        0.0007       98.0784       98.0792      20.527815       0.62115
  44    0.2165       77.5514        0.0010       98.0756       98.0766      20.525152       0.60587
  43    0.2613       77.5516        0.0013       98.0723       98.0736      20.522017       0.59084
  42    0.3336       77.5518        0.0017       98.0670       98.0687      20.516896       0.59703
  41    0.4307       77.5523        0.0023       98.0602       98.0625      20.510267       0.57639
  40    0.5894       77.5531        0.0034       98.0496       98.0529      20.499804       0.55640
  39     1.339       77.5604        0.0082       98.0043       98.0125      20.452124       0.53679
  38     1.782       77.5670        0.0110       97.9793       97.9903      20.423324       0.54830
  37     2.292       77.5767        0.0143       97.9498       97.9640      20.387334       0.59609
  36     2.964       77.5928        0.0185       97.9088       97.9274      20.334557       0.66251
  35     3.853       77.6187        0.0242       97.8503       97.8746      20.255824       0.74719
  34     5.035       77.6577        0.0317       97.7680       97.7997      20.141991       0.81318
  33     6.613       77.7122        0.0418       97.6562       97.6980      19.985791       0.83505
  32     8.786       77.7831        0.0553       97.5107       97.5660      19.782889       0.78800
  31     11.80       77.8755        0.0746       97.3179       97.3925      19.517012       0.74437
  30     15.07       77.9641        0.0953       97.1283       97.2237      19.259566       0.66467
  29     18.79       78.0547        0.1187       96.9300       97.0487      18.994010       0.60210
  28     23.16       78.1497        0.1460       96.7166       96.8626      18.712932       0.54352
  27     28.12       78.2454        0.1772       96.4935       96.6707      18.425281       0.48899
  26     33.73       78.3343        0.2121       96.2731       96.4852      18.150920       0.41251
  25     40.54       78.4205        0.2543       96.0408       96.2951      17.874582       0.34283
  24     48.69       78.5039        0.3052       95.7946       96.0998      17.595842       0.28845
  23     57.69       78.5757        0.3611       95.5573       95.9184      17.342641       0.23734
  22     68.43       78.6398        0.4277       95.3106       95.7383      17.098487       0.19194
  21     81.20       78.6868        0.5072       95.0644       95.5715      16.884708       0.14126
  20     96.49       78.7157        0.6020       94.8153       95.4173      16.701569       0.10108
  19     114.6       78.7438        0.7153       94.5412       95.2565      16.512731       0.08817
  18     136.5       78.7666        0.8497       94.2324       95.0821      16.315554       0.07582
  17     162.9       78.7843        1.0097       93.8760       94.8857      16.101403       0.06845
  16     196.4       78.7869        1.2172       93.4359       94.6531      15.866142       0.05922
  15     218.7       78.7815        1.3534       93.1536       94.5070      15.725472       0.05341
  14     243.0       78.7728        1.5015       92.8489       94.3504      15.577626       0.05128
  13     269.0       78.7603        1.6620       92.5219       94.1839      15.423649       0.04995
  12     297.5       78.7441        1.8354       92.1720       94.0074      15.263241       0.04758
  11     328.5       78.7261        2.0227       91.7963       93.8190      15.092875       0.04632
  10     361.9       78.7065        2.2244       91.3943       93.6187      14.912215       0.04571
   9     398.1       78.6855        2.4415       90.9654       93.4069      14.721332       0.04447
   8     437.6       78.6642        2.6747       90.5078       93.1825      14.518331       0.04340
   7     480.5       78.6428        2.9247       90.0212       92.9459      14.303029       0.04228
   6     533.0       78.6198        3.2326       89.4254       92.6580      14.038209       0.04260
   5     589.8       78.6002        3.5648       88.7860       92.3508      13.750575       0.04269
   4     651.6       78.5867        3.9223       88.0992       92.0215      13.434794       0.04318
   3     718.7       78.5826        4.3061       87.3637       91.6698      13.087146       0.04369
   2     792.3       78.5923        4.7170       86.5776       91.2947      12.702367       0.04413
   1     891.5       78.6335        5.2718       85.5217       90.7935      12.160012       0.04615
   0    1013.0       78.7387        5.9379       84.2675       90.2054      11.466646       0.04814



 Wavenumbers: 16000. - 22650. cm-1, ATM      1
 LEVEL PRESSURE   UPWARD FLUX   DIFDOWN FLUX  DIRDOWN FLUX  DOWNWARD FLUX   NET FLUX    HEATING RATE
          mb          W/m2          W/m2          W/m2        W/m2          W/m2       degree/day
  51    .06700      141.8075        0.0000      156.3892      156.3892      14.581797       0.00000
  50    .07753      141.8074        0.0004      156.3887      156.3891      14.581648       0.11917
  49    .09103      141.8074        0.0009      156.3879      156.3888      14.581432       0.13516
  48    0.1069      141.8074        0.0015      156.3871      156.3885      14.581143       0.15413
  47    0.1255      141.8074        0.0021      156.3861      156.3882      14.580755       0.17569
  46    0.1487      141.8075        0.0030      156.3847      156.3877      14.580184       0.20818
  45    0.1794      141.8076        0.0041      156.3828      156.3869      14.579291       0.24512
  44    0.2165      141.8079        0.0054      156.3805      156.3859      14.578080       0.27549
  43    0.2613      141.8082        0.0070      156.3776      156.3847      14.576437       0.30972
  42    0.3336      141.8090        0.0097      156.3726      156.3823      14.573313       0.36422
  41    0.4307      141.8103        0.0132      156.3657      156.3789      14.568604       0.40943
  40    0.5894      141.8129        0.0189      156.3537      156.3726      14.559624       0.47758
  39     1.339      141.8360        0.0459      156.2834      156.3293      14.493274       0.74698
  38     1.782      141.8574        0.0618      156.2324      156.2941      14.436751       1.07610
  37     2.292      141.8893        0.0801      156.1641      156.2442      14.354934       1.35511
  36     2.964      141.9423        0.1042      156.0605      156.1647      14.222388       1.66385
  35     3.853      142.0280        0.1360      155.9041      156.0401      14.012068       1.99598
  34     5.035      142.1573        0.1782      155.6774      155.8556      13.698282       2.24156
  33     6.613      142.3380        0.2346      155.3656      155.6002      13.262201       2.33129
  32     8.786      142.5733        0.3104      154.9577      155.2680      12.694743       2.20380
  31     11.80      142.8796        0.4187      154.4153      154.8339      11.954327       2.07293
  30     15.07      143.1731        0.5348      153.8804      154.4152      11.242038       1.83899
  29     18.79      143.4729        0.6658      153.3191      153.9849      10.511975       1.65528
  28     23.16      143.7862        0.8185      152.7126      153.5311       9.744829       1.48341
  27     28.12      144.1016        0.9929      152.0755      153.0684       8.966776       1.32264
  26     33.73      144.3929        1.1879      151.4409      152.6288       8.235914       1.09887
  25     40.54      144.6734        1.4233      150.7637      152.1870       7.513524       0.89621
  24     48.69      144.9423        1.7067      150.0339      151.7406       6.798309       0.74013
  23     57.69      145.1705        2.0178      149.3151      151.3329       6.162380       0.59609
  22     68.43      145.3700        2.3878      148.5476      150.9354       5.565381       0.46932
  21     81.20      145.5085        2.8284      147.7517      150.5800       5.071500       0.32635
  20     96.49      145.5816        3.3528      146.9127      150.2655       4.683911       0.21392
  19     114.6      145.6203        3.9737      145.9763      149.9501       4.329759       0.16536
  18     136.5      145.6344        4.7069      144.9088      149.6158       3.981362       0.13397
  17     162.9      145.6222        5.5760      143.6786      149.2546       3.632379       0.11155
  16     196.4      145.5439        6.6973      142.1652      148.8625       3.318585       0.07899
  15     218.7      145.4695        7.4300      141.2037      148.6337       3.164182       0.05862
  14     243.0      145.3781        8.2231      140.1761      148.3992       3.021170       0.04960
  13     269.0      145.2678        9.0787      139.0814      148.1601       2.892377       0.04178
  12     297.5      145.1377        9.9988      137.9178      147.9165       2.778784       0.03369
  11     328.5      144.9920       10.9876      136.6743      147.6620       2.669928       0.02960
  10     361.9      144.8301       12.0462      135.3504      147.3967       2.566522       0.02616
   9     398.1      144.6512       13.1786      133.9413      147.1199       2.468629       0.02281
   8     437.6      144.4557       14.3866      132.4437      146.8303       2.374588       0.02011
   7     480.5      144.2426       15.6725      130.8557      146.5282       2.285619       0.01747
   6     533.0      143.9769       17.2429      128.9231      146.1660       2.189127       0.01552
   5     589.8      143.6885       18.9207      126.8640      145.7847       2.096170       0.01380
   4     651.6      143.3776       20.7071      124.6764      145.3835       2.005887       0.01235
   3     718.7      143.0438       22.6041      122.3579      144.9620       1.918176       0.01102
   2     792.3      142.6874       24.6103      119.9104      144.5207       1.833220       0.00974
   1     891.5      142.2098       27.2766      116.6626      143.9392       1.729431       0.00883
   0    1013.0      141.6435       30.4159      112.8439      143.2597       1.616280       0.00786



 Wavenumbers: 22650. - 29000. cm-1, ATM      1
 LEVEL PRESSURE   UPWARD FLUX   DIFDOWN FLUX  DIRDOWN FLUX  DOWNWARD FLUX   NET FLUX    HEATING RATE
          mb          W/m2          W/m2          W/m2        W/m2          W/m2       degree/day
  51    .06700       58.3821        0.0000       59.0156       59.0156       0.633512       0.00000
  50    .07753       58.3820        0.0005       59.0151       59.0155       0.633512       0.00000
  49    .09103       58.3819        0.0010       59.0144       59.0154       0.633512      -0.00000
  48    0.1069       58.3818        0.0017       59.0136       59.0153       0.633512      -0.00000
  47    0.1255       58.3816        0.0025       59.0127       59.0151       0.633512       0.00000
  46    0.1487       58.3814        0.0034       59.0115       59.0149       0.633512      -0.00000
  45    0.1794       58.3812        0.0048       59.0099       59.0147       0.633512       0.00000
  44    0.2165       58.3809        0.0063       59.0080       59.0144       0.633512       0.00000
  43    0.2613       58.3805        0.0082       59.0058       59.0140       0.633512      -0.00000
  42    0.3336       58.3799        0.0113       59.0022       59.0134       0.633512       0.00000
  41    0.4307       58.3791        0.0153       58.9973       59.0126       0.633512       0.00000
  40    0.5894       58.3778        0.0220       58.9894       59.0113       0.633512      -0.00000
  39     1.339       58.3717        0.0534       58.9518       59.0052       0.633512       0.00000
  38     1.782       58.3681        0.0719       58.9297       59.0016       0.633512      -0.00000
  37     2.292       58.3639        0.0933       58.9042       58.9974       0.633512       0.00000
  36     2.964       58.3584        0.1213       58.8706       58.9920       0.633512      -0.00000
  35     3.853       58.3512        0.1584       58.8264       58.9847       0.633512       0.00000
  34     5.035       58.3416        0.2076       58.7676       58.9751       0.633512       0.00000
  33     6.613       58.3288        0.2732       58.6891       58.9623       0.633512       0.00000
  32     8.786       58.3116        0.3617       58.5834       58.9451       0.633512      -0.00000
  31     11.80       58.2869        0.4880       58.4325       58.9205       0.633512       0.00000
  30     15.07       58.2605        0.6234       58.2706       58.8940       0.633512      -0.00000
  29     18.79       58.2308        0.7760       58.0882       58.8643       0.633512       0.00000
  28     23.16       58.1961        0.9539       57.8757       58.8296       0.633512       0.00000
  27     28.12       58.1565        1.1567       57.6333       58.7900       0.633512      -0.00000
  26     33.73       58.1124        1.3828       57.3631       58.7459       0.633512       0.00000
  25     40.54       58.0593        1.6549       57.0379       58.6928       0.633512      -0.00000
  24     48.69       57.9956        1.9812       56.6479       58.6291       0.633512       0.00000
  23     57.69       57.9260        2.3375       56.2221       58.5596       0.633512       0.00000
  22     68.43       57.8438        2.7587       55.7186       58.4773       0.633512      -0.00000
  21     81.20       57.7466        3.2562       55.1239       58.3801       0.633512       0.00000
  20     96.49       57.6320        3.8427       54.4228       58.2655       0.633512       0.00000
  19     114.6       57.4976        4.5301       53.6010       58.1311       0.633512      -0.00000
  18     136.5       57.3407        5.3324       52.6418       57.9742       0.633512       0.00000
  17     162.9       57.1571        6.2702       51.5204       57.7906       0.633512      -0.00000
  16     196.4       56.9244        7.4584       50.0995       57.5579       0.633512       0.00000
  15     218.7       56.7747        8.2219       49.1863       57.4082       0.633512       0.00000
  14     243.0       56.6148        9.0369       48.2114       57.2483       0.633512      -0.00000
  13     269.0       56.4447        9.9030       47.1752       57.0782       0.633512       0.00000
  12     297.5       56.2647       10.8194       46.0788       56.8982       0.633512      -0.00000
  11     328.5       56.0743       11.7873       44.9205       56.7078       0.633512       0.00000
  10     361.9       55.8741       12.8042       43.7034       56.5076       0.633512      -0.00000
   9     398.1       55.6640       13.8701       42.4274       56.2975       0.633512       0.00000
   8     437.6       55.4444       14.9828       41.0951       56.0779       0.633512      -0.00000
   7     480.5       55.2158       16.1396       39.7096       55.8493       0.633512       0.00000
   6     533.0       54.9436       17.5144       38.0628       55.5771       0.633512      -0.00000
   5     589.8       54.6612       18.9378       36.3569       55.2947       0.633512       0.00000
   4     651.6       54.3698       20.4036       34.5997       55.0033       0.633512      -0.00000
   3     718.7       54.0705       21.9049       32.7991       54.7040       0.633512       0.00000
   2     792.3       53.7648       23.4337       30.9646       54.3983       0.633512      -0.00000
   1     891.5       53.3761       25.3697       28.6400       54.0097       0.633512       0.00000
   0    1013.0       52.9428       27.5170       26.0593       53.5763       0.633512       0.00000



 Wavenumbers: 29000. - 38000. cm-1, ATM      1
 LEVEL PRESSURE   UPWARD FLUX   DIFDOWN FLUX  DIRDOWN FLUX  DOWNWARD FLUX   NET FLUX    HEATING RATE
          mb          W/m2          W/m2          W/m2        W/m2          W/m2       degree/day
  51    .06700        8.7365        0.0000       20.8114       20.8114      12.074868       0.00000
  50    .07753        8.7363        0.0003       20.8070       20.8074      12.071060       3.05152
  49    .09103        8.7361        0.0007       20.8009       20.8016      12.065523       3.46081
  48    0.1069        8.7358        0.0012       20.7928       20.7939      12.058114       3.94425
  47    0.1255        8.7355        0.0017       20.7820       20.7837      12.048209       4.49029
  46    0.1487        8.7352        0.0024       20.7665       20.7688      12.033646       5.30838
  45    0.1794        8.7347        0.0033       20.7424       20.7457      12.010981       6.22197
  44    0.2165        8.7342        0.0044       20.7103       20.7147      11.980459       6.94332
  43    0.2613        8.7336        0.0056       20.6675       20.6731      11.939465       7.72723
  42    0.3336        8.7327        0.0077       20.5880       20.5956      11.862905       8.92613
  41    0.4307        8.7317        0.0104       20.4722       20.4826      11.750954       9.73389
  40    0.5894        8.7301        0.0147       20.2637       20.2784      11.548273      10.77831
  39     1.339        8.7267        0.0331       19.0984       19.1315      10.404818      12.87322
  38     1.782        8.7271        0.0427       18.4394       18.4820       9.754913      12.37315
  37     2.292        8.7298        0.0530       17.7714       17.8244       9.094595      10.93659
  36     2.964        8.7363        0.0656       17.0421       17.1078       8.371514       9.07685
  35     3.853        8.7490        0.0816       16.2679       16.3494       7.600402       7.31799
  34     5.035        8.7700        0.1017       15.4803       15.5820       6.812007       5.63197
  33     6.613        8.8006        0.1275       14.7157       14.8432       6.042562       4.11346
  32     8.786        8.8410        0.1612       13.9936       14.1548       5.313793       2.83027
  31     11.80        8.8937        0.2082       13.2835       13.4918       4.598068       2.00380
  30     15.07        8.9445        0.2570       12.7394       12.9963       4.051827       1.41029
  29     18.79        8.9970        0.3110       12.2666       12.5776       3.580624       1.06836
  28     23.16        9.0528        0.3725       11.8300       12.2025       3.149746       0.83318
  27     28.12        9.1099        0.4413       11.4279       11.8692       2.759324       0.66369
  26     33.73        9.1625        0.5172       11.0695       11.5866       2.424080       0.50405
  25     40.54        9.2125        0.6078       10.7209       11.3287       2.116180       0.38199
  24     48.69        9.2596        0.7153       10.3742       11.0895       1.829896       0.29626
  23     57.69        9.2982        0.8317       10.0549       10.8866       1.588386       0.22638
  22     68.43        9.3293        0.9682        9.7327       10.7009       1.371591       0.17043
  21     81.20        9.3441        1.1294        9.4134       10.5428       1.198732       0.11422
  20     96.49        9.3405        1.3189        9.0887       10.4076       1.067156       0.07262
  19     114.6        9.3265        1.5378        8.7388       10.2766       0.950045       0.05468
  18     136.5        9.3053        1.7881        8.3549       10.1430       0.837684       0.04321
  17     162.9        9.2768        2.0733        7.9311       10.0045       0.727679       0.03516
  16     196.4        9.2291        2.4267        7.4333        9.8600       0.630864       0.02437
  15     218.7        9.1948        2.6489        7.1296        9.7785       0.583650       0.01793
  14     243.0        9.1572        2.8812        6.8161        9.6973       0.540056       0.01512
  13     269.0        9.1162        3.1227        6.4944        9.6171       0.500914       0.01270
  12     297.5        9.0717        3.3723        6.1659        9.5381       0.466413       0.01023
  11     328.5        9.0253        3.6290        5.8297        9.4587       0.433382       0.00898
  10     361.9        8.9774        3.8904        5.4889        9.3793       0.401971       0.00795
   9     398.1        8.9280        4.1558        5.1444        9.3002       0.372207       0.00693
   8     437.6        8.8778        4.4240        4.7974        9.2214       0.343519       0.00613
   7     480.5        8.8271        4.6926        4.4508        9.1434       0.316287       0.00535
   6     533.0        8.7689        4.9984        4.0571        9.0555       0.286612       0.00477
   5     589.8        8.7116        5.2991        3.6704        8.9695       0.257882       0.00426
   4     651.6        8.6559        5.5925        3.2932        8.8857       0.229777       0.00384
   3     718.7        8.6026        5.8750        2.9298        8.8049       0.202253       0.00346
   2     792.3        8.5522        6.1447        2.5828        8.7275       0.175315       0.00309
   1     891.5        8.4943        6.4608        2.1756        8.6364       0.142059       0.00283
   0    1013.0        8.4387        6.7775        1.7665        8.5440       0.105329       0.00255



 Wavenumbers: 38000. - 50000. cm-1, ATM      1
 LEVEL PRESSURE   UPWARD FLUX   DIFDOWN FLUX  DIRDOWN FLUX  DOWNWARD FLUX   NET FLUX    HEATING RATE
          mb          W/m2          W/m2          W/m2        W/m2          W/m2       degree/day
  51    .06700        0.0061        0.0000        1.2836        1.2836       1.277518       0.00000
  50    .07753        0.0061        0.0001        1.2812        1.2812       1.275183       1.87150
  49    .09103        0.0060        0.0002        1.2777        1.2778       1.271851       2.08247
  48    0.1069        0.0059        0.0002        1.2731        1.2734       1.267473       2.33059
  47    0.1255        0.0058        0.0004        1.2672        1.2675       1.261717       2.60908
  46    0.1487        0.0057        0.0005        1.2586        1.2591       1.253391       3.03499
  45    0.1794        0.0055        0.0007        1.2455        1.2462       1.240623       3.50520
  44    0.2165        0.0054        0.0009        1.2282        1.2291       1.223697       3.85037
  43    0.2613        0.0052        0.0011        1.2054        1.2065       1.201348       4.21261
  42    0.3336        0.0049        0.0015        1.1639        1.1654       1.160524       4.75970
  41    0.4307        0.0045        0.0020        1.1051        1.1070       1.102565       5.03943
  40    0.5894        0.0039        0.0026        1.0039        1.0064       1.002524       5.32007
  39     1.339        0.0022        0.0035        0.5438        0.5473       0.545105       5.14971
  38     1.782        0.0016        0.0032        0.3635        0.3666       0.365006       3.42879
  37     2.292        0.0012        0.0027        0.2356        0.2383       0.237058       2.11916
  36     2.964        0.0009        0.0022        0.1455        0.1477       0.146786       1.13318
  35     3.853        0.0006        0.0017        0.0858        0.0875       0.086906       0.56828
  34     5.035        0.0004        0.0013        0.0488        0.0501       0.049701       0.26578
  33     6.613        0.0003        0.0010        0.0273        0.0282       0.027974       0.11615
  32     8.786        0.0002        0.0007        0.0144        0.0151       0.014928       0.05067
  31     11.80        0.0001        0.0004        0.0065        0.0070       0.006903       0.02247
  30     15.07        0.0000        0.0003        0.0031        0.0034       0.003329       0.00923
  29     18.79        0.0000        0.0002        0.0014        0.0016       0.001583       0.00396
  28     23.16        0.0000        0.0001        0.0006        0.0007       0.000720       0.00167
  27     28.12        0.0000        0.0001        0.0003        0.0003       0.000317       0.00069
  26     33.73        0.0000        0.0000        0.0001        0.0001       0.000140       0.00027
  25     40.54        0.0000        0.0000        0.0000        0.0001       0.000057       0.00010
  24     48.69        0.0000        0.0000        0.0000        0.0000       0.000021       0.00004
  23     57.69        0.0000        0.0000        0.0000        0.0000       0.000008       0.00001
  22     68.43        0.0000        0.0000        0.0000        0.0000       0.000003       0.00000
  21     81.20        0.0000        0.0000        0.0000        0.0000       0.000001       0.00000
  20     96.49        0.0000        0.0000        0.0000        0.0000       0.000000       0.00000
  19     114.6        0.0000        0.0000        0.0000        0.0000       0.000000       0.00000
  18     136.5        0.0000        0.0000        0.0000        0.0000       0.000000       0.00000
  17     162.9        0.0000        0.0000        0.0000        0.0000       0.000000       0.00000
  16     196.4        0.0000        0.0000        0.0000        0.0000       0.000000       0.00000
  15     218.7        0.0000        0.0000        0.0000        0.0000       0.000000       0.00000
  14     243.0        0.0000        0.0000        0.0000        0.0000       0.000000       0.00000
  13     269.0        0.0000        0.0000        0.0000        0.0000       0.000000       0.00000
  12     297.5        0.0000        0.0000        0.0000        0.0000       0.000000       0.00000
  11     328.5        0.0000        0.0000        0.0000        0.0000       0.000000       0.00000
  10     361.9        0.0000        0.0000        0.0000        0.0000       0.000000       0.00000
   9     398.1        0.0000        0.0000        0.0000        0.0000       0.000000       0.00000
   8     437.6        0.0000        0.0000        0.0000        0.0000       0.000000       0.00000
   7     480.5        0.0000        0.0000        0.0000        0.0000       0.000000       0.00000
   6     533.0        0.0000        0.0000        0.0000        0.0000       0.000000       0.00000
   5     589.8        0.0000        0.0000        0.0000        0.0000       0.000000       0.00000
   4     651.6        0.0000        0.0000        0.0000        0.0000       0.000000       0.00000
   3     718.7        0.0000        0.0000        0.0000        0.0000       0.000000       0.00000
   2     792.3        0.0000        0.0000        0.0000        0.0000       0.000000       0.00000
   1     891.5        0.0000        0.0000        0.0000        0.0000       0.000000       0.00000
   0    1013.0        0.0000        0.0000        0.0000        0.0000       0.000000       0.00000



 Wavenumbers:   820. -  2600. cm-1, ATM      1
 LEVEL PRESSURE   UPWARD FLUX   DIFDOWN FLUX  DIRDOWN FLUX  DOWNWARD FLUX   NET FLUX    HEATING RATE
          mb          W/m2          W/m2          W/m2        W/m2          W/m2       degree/day
  51    .06700        3.2315        0.0000        6.0047        6.0047       2.773146       0.00000
  50    .07753        3.2315        0.0000        6.0009        6.0009       2.769366       3.02937
  49    .09103        3.2315        0.0000        6.0001        6.0001       2.768576       0.49378
  48    0.1069        3.2315        0.0000        5.9992        5.9992       2.767701       0.46572
  47    0.1255        3.2315        0.0000        5.9982        5.9982       2.766720       0.44470
  46    0.1487        3.2315        0.0000        5.9970        5.9970       2.765542       0.42941
  45    0.1794        3.2315        0.0000        5.9956        5.9956       2.764076       0.40259
  44    0.2165        3.2315        0.0000        5.9940        5.9940       2.762543       0.34860
  43    0.2613        3.2315        0.0000        5.9925        5.9925       2.760964       0.29771
  42    0.3336        3.2315        0.0000        5.9902        5.9902       2.758735       0.25992
  41    0.4307        3.2315        0.0000        5.9877        5.9877       2.756146       0.22504
  40    0.5894        3.2315        0.0000        5.9836        5.9836       2.752114       0.21443
  39     1.339        3.2315        0.0000        5.9651        5.9651       2.733603       0.20841
  38     1.782        3.2315        0.0000        5.9549        5.9549       2.723385       0.19453
  37     2.292        3.2315        0.0000        5.9434        5.9434       2.711928       0.18975
  36     2.964        3.2315        0.0000        5.9288        5.9288       2.697323       0.18333
  35     3.853        3.2315        0.0000        5.9102        5.9102       2.678709       0.17665
  34     5.035        3.2315        0.0000        5.8865        5.8865       2.654998       0.16938
  33     6.613        3.2315        0.0000        5.8556        5.8556       2.624092       0.16522
  32     8.786        3.2316        0.0000        5.8143        5.8143       2.582729       0.16064
  31     11.80        3.2316        0.0000        5.7591        5.7591       2.527491       0.15465
  30     15.07        3.2317        0.0000        5.7101        5.7101       2.478358       0.12685
  29     18.79        3.2318        0.0000        5.6693        5.6693       2.437448       0.09275
  28     23.16        3.2319        0.0000        5.6380        5.6380       2.406051       0.06071
  27     28.12        3.2321        0.0000        5.6156        5.6156       2.383500       0.03834
  26     33.73        3.2324        0.0000        5.5982        5.5983       2.365893       0.02647
  25     40.54        3.2327        0.0000        5.5805        5.5805       2.347843       0.02239
  24     48.69        3.2331        0.0000        5.5596        5.5596       2.326540       0.02205
  23     57.69        3.2336        0.0000        5.5362        5.5362       2.302567       0.02247
  22     68.43        3.2344        0.0000        5.5077        5.5077       2.273304       0.02301
  21     81.20        3.2353        0.0000        5.4739        5.4739       2.238566       0.02295
  20     96.49        3.2366        0.0000        5.4341        5.4341       2.197485       0.02267
  19     114.6        3.2383        0.0000        5.3886        5.3886       2.150392       0.02199
  18     136.5        3.2402        0.0000        5.3382        5.3382       2.097982       0.02015
  17     162.9        3.2425        0.0000        5.2823        5.2823       2.039796       0.01860
  16     196.4        3.2456        0.0000        5.2164        5.2165       1.970874       0.01735
  15     218.7        3.2476        0.0000        5.1769        5.1769       1.929263       0.01580
  14     243.0        3.2499        0.0000        5.1368        5.1368       1.886965       0.01467
  13     269.0        3.2523        0.0000        5.0966        5.0966       1.844313       0.01384
  12     297.5        3.2549        0.0000        5.0565        5.0566       1.801647       0.01265
  11     328.5        3.2579        0.0001        5.0171        5.0171       1.759279       0.01152
  10     361.9        3.2610        0.0001        4.9785        4.9786       1.717527       0.01056
   9     398.1        3.2645        0.0001        4.9410        4.9411       1.676558       0.00954
   8     437.6        3.2683        0.0001        4.9048        4.9049       1.636560       0.00855
   7     480.5        3.2725        0.0001        4.8702        4.8703       1.597767       0.00762
   6     533.0        3.2778        0.0001        4.8327        4.8328       1.555060       0.00687
   5     589.8        3.2836        0.0001        4.7978        4.7978       1.514209       0.00606
   4     651.6        3.2902        0.0001        4.7653        4.7654       1.475199       0.00533
   3     718.7        3.2977        0.0001        4.7354        4.7355       1.437832       0.00470
   2     792.3        3.3062        0.0001        4.7079        4.7080       1.401862       0.00413
   1     891.5        3.3187        0.0001        4.6765        4.6767       1.357998       0.00373
   0    1013.0        3.3358        0.0002        4.6452        4.6454       1.309514       0.00337

  Modules and versions used in this calculation:

       rrtmg_sw.1col.f90:  $Revision$                    rrtmg_sw_init.f90:  $Revision$        
     rrtmgsw_cldprop.f90:  $Revision$                  rrtmgsw_cldprmc.f90:  NOT USED          
     rrtmg_sw_reftra.f90:  $Revision$                  rrtmg_sw_spcvrt.f90:  NOT USED          
     rrtmg_sw_spcvmc.f90:  NOT USED                    rrtmgsw_setcoef.f90:  NOT USED          
     rrtmg_sw_taumol.f90:  $Revision$                  rrtmg_sw_vrtqdr.f90:  NOT USED          
                rrtatm.f:  NOT USED                             util_xxx.f:  NOT USED          
                 extra.f:  NOT USED                       rrtmg_sw_k_g.f90:  $Revision$        

