

 Wavenumbers:   820. - 50000. cm-1, ATM      1
 LEVEL PRESSURE   UPWARD FLUX   DIFDOWN FLUX  DIRDOWN FLUX  DOWNWARD FLUX   NET FLUX    HEATING RATE
          mb          W/m2          W/m2          W/m2        W/m2          W/m2       degree/day
  51    .06700      393.7394        0.0000      617.8126      617.8126     224.073133       0.00000
  50    .07753      393.7391        0.0014      617.7948      617.7962     224.057117      12.83683
  49    .09103      393.7386        0.0030      617.7782      617.7812     224.042573       9.09082
  48    0.1069      393.7382        0.0050      617.7588      617.7638     224.025664       9.00075
  47    0.1255      393.7376        0.0072      617.7352      617.7424     224.004737       9.48718
  46    0.1487      393.7371        0.0101      617.7026      617.7127     223.975585      10.62607
  45    0.1794      393.7364        0.0139      617.6545      617.6684     223.932078      11.94385
  44    0.2165      393.7356        0.0184      617.5928      617.6113     223.875618      12.84371
  43    0.2613      393.7350        0.0238      617.5133      617.5371     223.802151      13.84823
  42    0.3336      393.7341        0.0327      617.3703      617.4030     223.668858      15.54059
  41    0.4307      393.7335        0.0443      617.1679      617.2122     223.478678      16.53574
  40    0.5894      393.7334        0.0631      616.8134      616.8765     223.143050      17.84829
  39     1.339      393.7519        0.1480      614.9754      615.1233     221.371453      19.94496
  38     1.782      393.7760        0.1958      614.0075      614.2033     220.427338      17.97442
  37     2.292      393.7627        0.4280      595.6436      596.0716     202.308855     300.08934
  36     2.964      393.8142        0.5526      593.0338      593.5865     199.772263      31.84190
  35     3.853      393.9189        0.6708      591.0956      591.7664     197.847522      18.26615
  34     5.035      394.0873        0.8062      589.3594      590.1656     196.078283      12.63871
  33     6.613      394.3278        0.9751      587.6884      588.6635     194.335706       9.31582
  32     8.786      394.6427        1.1956      586.0101      587.2057     192.563033       6.88442
  31     11.80      395.0512        1.5058      584.1737      585.6795     190.628264       5.41674
  30     15.07      395.4402        1.8360      582.5761      584.4121     188.971918       4.27636
  29     18.79      395.8351        2.2067      581.0264      583.2331     187.398031       3.56849
  28     23.16      396.2449        2.6375      579.4315      582.0690     185.824113       3.04345
  27     28.12      396.6533        3.1280      577.8013      580.9293     184.276020       2.63165
  26     33.73      397.0221        3.6749      576.1897      579.8646     182.842476       2.15537
  25     40.54      397.3649        4.3337      574.4220      578.7557     181.390863       1.80089
  24     48.69      397.6786        5.1244      572.5038      577.6282     179.949614       1.49147
  23     57.69      397.9264        5.9887      570.5920      576.5808     178.654318       1.21415
  22     68.43      398.1168        7.0128      568.5173      575.5301     177.413342       0.97557
  21     81.20      398.1977        8.2272      566.2990      574.5261     176.328432       0.71689
  20     96.49      398.1589        9.6651      563.8918      573.5569     175.398040       0.51351
  19     114.6      398.0692       11.3568      560.8897      572.2466     174.177327       0.56999
  18     136.5      397.9156       13.3378      557.5477      570.8855     172.969930       0.46427
  17     162.9      397.6910       15.6627      553.7746      569.4373     171.746333       0.39111
  16     196.4      397.3073       18.6286      549.1215      567.7500     170.442676       0.32815
  15     218.7      397.0253       20.5458      546.0061      566.5518     169.526587       0.34780
  14     243.0      396.7063       22.6024      542.7029      565.3053     168.598999       0.32172
  13     269.0      396.3511       24.8001      538.9500      563.7501     167.398968       0.38928
  12     297.5      395.9612       27.1395      534.6144      561.7539     165.792722       0.47640
  11     328.5      395.5462       29.6268      529.5146      559.1414     163.595207       0.59750
  10     361.9      395.1119       32.2580      523.4510      555.7090     160.597104       0.75855
   9     398.1      394.6656       35.0375      516.2393      551.2769     156.611242       0.92862
   8     437.6      394.2217       37.9640      507.7843      545.7482     151.526538       1.08714
   7     480.5      393.7988       41.0351      498.1235      539.1586     145.359784       1.21113
   6     533.0      393.3771       44.7264      485.8269      530.5533     137.176182       1.31648
   5     589.8      393.0788       48.5991      472.5665      521.1656     128.086856       1.34915
   4     651.6      392.9915       52.6429      458.4902      511.1330     118.141561       1.36005
   3     718.7      393.2193       56.8501      443.9484      500.7985     107.579176       1.32740
   2     792.3      393.9719       61.2030      428.7663      489.9693      95.997424       1.32830
   1     891.5      396.0656       66.8385      409.2582      476.0967      80.031062       1.35866
   0    1013.0      400.7719       73.2729      387.9565      461.2294      60.457488       1.35909



 Wavenumbers:  2600. -  3250. cm-1, ATM      1
 LEVEL PRESSURE   UPWARD FLUX   DIFDOWN FLUX  DIRDOWN FLUX  DOWNWARD FLUX   NET FLUX    HEATING RATE
          mb          W/m2          W/m2          W/m2        W/m2          W/m2       degree/day
  51    .06700        0.0245        0.0000        5.4450        5.4450       5.420502       0.00000
  50    .07753        0.0245        0.0000        5.4450        5.4450       5.420494       0.00640
  49    .09103        0.0245        0.0000        5.4450        5.4450       5.420484       0.00627
  48    0.1069        0.0245        0.0000        5.4450        5.4450       5.420473       0.00613
  47    0.1255        0.0245        0.0000        5.4450        5.4450       5.420459       0.00599
  46    0.1487        0.0245        0.0000        5.4450        5.4450       5.420443       0.00608
  45    0.1794        0.0245        0.0000        5.4450        5.4450       5.420420       0.00625
  44    0.2165        0.0245        0.0000        5.4449        5.4449       5.420393       0.00612
  43    0.2613        0.0245        0.0000        5.4449        5.4449       5.420361       0.00600
  42    0.3336        0.0245        0.0000        5.4448        5.4448       5.420308       0.00617
  41    0.4307        0.0245        0.0000        5.4448        5.4448       5.420237       0.00620
  40    0.5894        0.0245        0.0000        5.4446        5.4446       5.420117       0.00637
  39     1.339        0.0245        0.0000        5.4439        5.4439       5.419410       0.00797
  38     1.782        0.0245        0.0000        5.4434        5.4434       5.418867       0.01034
  37     2.292        0.0245        0.0000        5.4427        5.4427       5.418151       0.01186
  36     2.964        0.0245        0.0000        5.4416        5.4416       5.417112       0.01304
  35     3.853        0.0245        0.0000        5.4402        5.4402       5.415635       0.01402
  34     5.035        0.0245        0.0000        5.4381        5.4381       5.413580       0.01468
  33     6.613        0.0245        0.0000        5.4353        5.4353       5.410799       0.01487
  32     8.786        0.0245        0.0000        5.4317        5.4317       5.407167       0.01411
  31     11.80        0.0245        0.0000        5.4269        5.4269       5.402387       0.01338
  30     15.07        0.0245        0.0000        5.4224        5.4224       5.397861       0.01169
  29     18.79        0.0245        0.0000        5.4180        5.4180       5.393449       0.01000
  28     23.16        0.0245        0.0000        5.4135        5.4135       5.388964       0.00867
  27     28.12        0.0245        0.0000        5.4088        5.4088       5.384318       0.00790
  26     33.73        0.0245        0.0000        5.4036        5.4036       5.379079       0.00788
  25     40.54        0.0245        0.0000        5.3966        5.3967       5.372139       0.00861
  24     48.69        0.0245        0.0000        5.3872        5.3872       5.362666       0.00980
  23     57.69        0.0245        0.0000        5.3754        5.3754       5.350887       0.01104
  22     68.43        0.0245        0.0000        5.3599        5.3599       5.335406       0.01217
  21     81.20        0.0245        0.0000        5.3401        5.3401       5.315583       0.01310
  20     96.49        0.0245        0.0000        5.3155        5.3155       5.291030       0.01355
  19     114.6        0.0245        0.0000        5.2604        5.2605       5.235992       0.02570
  18     136.5        0.0245        0.0000        5.2062        5.2063       5.181780       0.02085
  17     162.9        0.0245        0.0001        5.1540        5.1540       5.129544       0.01670
  16     196.4        0.0245        0.0001        5.0978        5.0979       5.073408       0.01413
  15     218.7        0.0245        0.0001        5.0600        5.0600       5.035552       0.01437
  14     243.0        0.0245        0.0001        5.0238        5.0239       4.999361       0.01255
  13     269.0        0.0245        0.0001        4.9808        4.9808       4.956341       0.01396
  12     297.5        0.0245        0.0001        4.9279        4.9280       4.903466       0.01568
  11     328.5        0.0245        0.0001        4.8602        4.8603       4.835804       0.01840
  10     361.9        0.0246        0.0001        4.7702        4.7704       4.745786       0.02278
   9     398.1        0.0246        0.0001        4.6499        4.6500       4.625409       0.02805
   8     437.6        0.0247        0.0001        4.4926        4.4928       4.468062       0.03364
   7     480.5        0.0248        0.0001        4.2974        4.2976       4.272783       0.03835
   6     533.0        0.0250        0.0001        4.0360        4.0362       4.011197       0.04208
   5     589.8        0.0253        0.0002        3.7608        3.7609       3.735642       0.04090
   4     651.6        0.0257        0.0002        3.4750        3.4752       3.449475       0.03913
   3     718.7        0.0264        0.0002        3.1785        3.1787       3.152352       0.03734
   2     792.3        0.0273        0.0002        2.8656        2.8657       2.838415       0.03601
   1     891.5        0.0292        0.0002        2.4789        2.4790       2.449804       0.03307
   0    1013.0        0.0329        0.0002        2.0955        2.0957       2.062760       0.02687



 Wavenumbers:  3250. -  4000. cm-1, ATM      1
 LEVEL PRESSURE   UPWARD FLUX   DIFDOWN FLUX  DIRDOWN FLUX  DOWNWARD FLUX   NET FLUX    HEATING RATE
          mb          W/m2          W/m2          W/m2        W/m2          W/m2       degree/day
  51    .06700        0.0003        0.0000        9.1795        9.1795       9.179276       0.00000
  50    .07753        0.0003        0.0000        9.1747        9.1747       9.174406       3.90287
  49    .09103        0.0003        0.0000        9.1713        9.1713       9.171087       2.07467
  48    0.1069        0.0003        0.0000        9.1689        9.1689       9.168680       1.28112
  47    0.1255        0.0003        0.0000        9.1668        9.1668       9.166560       0.96122
  46    0.1487        0.0003        0.0000        9.1645        9.1645       9.164288       0.82829
  45    0.1794        0.0003        0.0000        9.1619        9.1619       9.161618       0.73288
  44    0.2165        0.0003        0.0000        9.1592        9.1592       9.158929       0.61167
  43    0.2613        0.0003        0.0000        9.1565        9.1565       9.156232       0.50841
  42    0.3336        0.0003        0.0000        9.1528        9.1528       9.152535       0.43101
  41    0.4307        0.0003        0.0000        9.1487        9.1487       9.148437       0.35634
  40    0.5894        0.0003        0.0000        9.1428        9.1428       9.142545       0.31334
  39     1.339        0.0003        0.0000        9.1196        9.1196       9.119363       0.26099
  38     1.782        0.0003        0.0000        9.1090        9.1090       9.108779       0.20149
  37     2.292        0.0003        0.0000        5.3773        5.3773       5.377012      61.80779
  36     2.964        0.0003        0.0000        5.0073        5.0073       5.007082       4.64374
  35     3.853        0.0003        0.0000        4.8116        4.8116       4.811367       1.85738
  34     5.035        0.0003        0.0000        4.6825        4.6825       4.682235       0.92246
  33     6.613        0.0003        0.0000        4.5901        4.5901       4.589873       0.49377
  32     8.786        0.0003        0.0000        4.5216        4.5216       4.521339       0.26616
  31     11.80        0.0003        0.0000        4.4669        4.4669       4.466673       0.15305
  30     15.07        0.0003        0.0000        4.4306        4.4306       4.430324       0.09385
  29     18.79        0.0003        0.0000        4.4030        4.4031       4.402789       0.06243
  28     23.16        0.0003        0.0000        4.3793        4.3793       4.379020       0.04596
  27     28.12        0.0003        0.0000        4.3571        4.3572       4.356898       0.03761
  26     33.73        0.0003        0.0000        4.3362        4.3362       4.335960       0.03148
  25     40.54        0.0003        0.0000        4.3034        4.3034       4.303147       0.04071
  24     48.69        0.0002        0.0000        4.2694        4.2694       4.269194       0.03514
  23     57.69        0.0002        0.0000        4.2371        4.2372       4.236936       0.03024
  22     68.43        0.0002        0.0000        4.2043        4.2043       4.204062       0.02584
  21     81.20        0.0002        0.0001        4.1711        4.1711       4.170880       0.02193
  20     96.49        0.0002        0.0001        4.1368        4.1369       4.136691       0.01887
  19     114.6        0.0002        0.0001        4.0981        4.0982       4.097988       0.01807
  18     136.5        0.0002        0.0001        4.0537        4.0538       4.053598       0.01707
  17     162.9        0.0002        0.0001        4.0029        4.0030       4.002854       0.01622
  16     196.4        0.0002        0.0001        3.9333        3.9334       3.933266       0.01752
  15     218.7        0.0001        0.0001        3.8612        3.8613       3.861184       0.02737
  14     243.0        0.0001        0.0002        3.7837        3.7839       3.783733       0.02686
  13     269.0        0.0001        0.0002        3.6638        3.6640       3.663870       0.03888
  12     297.5        0.0001        0.0002        3.4901        3.4903       3.490207       0.05151
  11     328.5        0.0001        0.0002        3.2589        3.2591       3.259028       0.06286
  10     361.9        0.0001        0.0002        2.9730        2.9731       2.973074       0.07235
   9     398.1        0.0001        0.0002        2.6468        2.6470       2.646901       0.07599
   8     437.6        0.0000        0.0002        2.2964        2.2965       2.296484       0.07492
   7     480.5        0.0000        0.0002        1.9338        1.9340       1.933938       0.07120
   6     533.0        0.0000        0.0001        1.5214        1.5216       1.521529       0.06634
   5     589.8        0.0000        0.0001        1.1242        1.1243       1.124269       0.05897
   4     651.6        0.0000        0.0001        0.7598        0.7598       0.759826       0.04984
   3     718.7        0.0000        0.0001        0.4697        0.4698       0.469767       0.03645
   2     792.3        0.0000        0.0000        0.2482        0.2483       0.248268       0.02540
   1     891.5        0.0000        0.0000        0.0770        0.0771       0.077005       0.01457
   0    1013.0        0.0003        0.0000        0.0107        0.0107       0.010463       0.00462



 Wavenumbers:  4000. -  4650. cm-1, ATM      1
 LEVEL PRESSURE   UPWARD FLUX   DIFDOWN FLUX  DIRDOWN FLUX  DOWNWARD FLUX   NET FLUX    HEATING RATE
          mb          W/m2          W/m2          W/m2        W/m2          W/m2       degree/day
  51    .06700        1.1794        0.0000       10.7795       10.7795       9.600178       0.00000
  50    .07753        1.1794        0.0000       10.7795       10.7795       9.600177       0.00080
  49    .09103        1.1794        0.0000       10.7795       10.7795       9.600176       0.00078
  48    0.1069        1.1794        0.0000       10.7795       10.7795       9.600174       0.00076
  47    0.1255        1.1794        0.0000       10.7795       10.7795       9.600173       0.00074
  46    0.1487        1.1794        0.0000       10.7795       10.7795       9.600170       0.00075
  45    0.1794        1.1794        0.0000       10.7795       10.7795       9.600168       0.00078
  44    0.2165        1.1794        0.0000       10.7795       10.7795       9.600164       0.00076
  43    0.2613        1.1794        0.0000       10.7795       10.7795       9.600160       0.00074
  42    0.3336        1.1794        0.0000       10.7795       10.7795       9.600154       0.00077
  41    0.4307        1.1794        0.0000       10.7795       10.7795       9.600145       0.00077
  40    0.5894        1.1794        0.0000       10.7795       10.7795       9.600130       0.00079
  39     1.339        1.1794        0.0000       10.7794       10.7794       9.600041       0.00100
  38     1.782        1.1794        0.0000       10.7793       10.7793       9.599972       0.00132
  37     2.292        1.1794        0.0000       10.7792       10.7792       9.599878       0.00155
  36     2.964        1.1793        0.0000       10.7791       10.7791       9.599738       0.00175
  35     3.853        1.1793        0.0000       10.7789       10.7789       9.599531       0.00197
  34     5.035        1.1793        0.0000       10.7785       10.7786       9.599226       0.00218
  33     6.613        1.1793        0.0000       10.7781       10.7781       9.598776       0.00240
  32     8.786        1.1793        0.0000       10.7774       10.7774       9.598113       0.00258
  31     11.80        1.1793        0.0001       10.7763       10.7764       9.597070       0.00292
  30     15.07        1.1793        0.0001       10.7751       10.7752       9.595848       0.00316
  29     18.79        1.1793        0.0001       10.7736       10.7737       9.594371       0.00335
  28     23.16        1.1793        0.0001       10.7717       10.7718       9.592538       0.00354
  27     28.12        1.1793        0.0001       10.7695       10.7696       9.590321       0.00377
  26     33.73        1.1793        0.0001       10.7667       10.7668       9.587588       0.00411
  25     40.54        1.1792        0.0002       10.7630       10.7631       9.583885       0.00459
  24     48.69        1.1792        0.0002       10.7580       10.7582       9.578955       0.00510
  23     57.69        1.1792        0.0002       10.7521       10.7523       9.573118       0.00547
  22     68.43        1.1792        0.0003       10.7447       10.7450       9.565811       0.00574
  21     81.20        1.1792        0.0003       10.7357       10.7360       9.556828       0.00594
  20     96.49        1.1792        0.0004       10.7247       10.7251       9.545918       0.00602
  19     114.6        1.1792        0.0004       10.6971       10.6975       9.518274       0.01291
  18     136.5        1.1793        0.0005       10.6699       10.6704       9.491112       0.01044
  17     162.9        1.1795        0.0006       10.6411       10.6417       9.462233       0.00923
  16     196.4        1.1797        0.0007       10.6049       10.6056       9.425969       0.00913
  15     218.7        1.1799        0.0008       10.5774       10.5782       9.398297       0.01051
  14     243.0        1.1802        0.0009       10.5478       10.5487       9.368575       0.01031
  13     269.0        1.1806        0.0010       10.5098       10.5108       9.330239       0.01244
  12     297.5        1.1811        0.0011       10.4593       10.4604       9.279258       0.01512
  11     328.5        1.1820        0.0012       10.3908       10.3921       9.210091       0.01881
  10     361.9        1.1830        0.0013       10.2983       10.2996       9.116554       0.02367
   9     398.1        1.1844        0.0014       10.1765       10.1780       8.993542       0.02866
   8     437.6        1.1862        0.0016       10.0254       10.0269       8.840685       0.03268
   7     480.5        1.1886        0.0017        9.8508        9.8525       8.663874       0.03473
   6     533.0        1.1924        0.0018        9.6292        9.6311       8.438626       0.03624
   5     589.8        1.1980        0.0020        9.3706        9.3726       8.174561       0.03920
   4     651.6        1.2064        0.0021        9.0424        9.0445       7.838161       0.04600
   3     718.7        1.2186        0.0022        8.6503        8.6525       7.433900       0.05080
   2     792.3        1.2370        0.0024        8.2170        8.2194       6.982389       0.05178
   1     891.5        1.2730        0.0025        7.6829        7.6854       6.412430       0.04850
   0    1013.0        1.3409        0.0026        7.1340        7.1367       5.795801       0.04282



 Wavenumbers:  4650. -  5150. cm-1, ATM      1
 LEVEL PRESSURE   UPWARD FLUX   DIFDOWN FLUX  DIRDOWN FLUX  DOWNWARD FLUX   NET FLUX    HEATING RATE
          mb          W/m2          W/m2          W/m2        W/m2          W/m2       degree/day
  51    .06700        0.2995        0.0000       10.2033       10.2033       9.903857       0.00000
  50    .07753        0.2995        0.0000       10.2031       10.2031       9.903622       0.18911
  49    .09103        0.2995        0.0000       10.2028       10.2028       9.903327       0.18438
  48    0.1069        0.2995        0.0000       10.2025       10.2025       9.902989       0.17941
  47    0.1255        0.2995        0.0000       10.2021       10.2021       9.902605       0.17435
  46    0.1487        0.2995        0.0000       10.2016       10.2016       9.902124       0.17545
  45    0.1794        0.2995        0.0000       10.2010       10.2010       9.901473       0.17860
  44    0.2165        0.2995        0.0000       10.2002       10.2002       9.900713       0.17287
  43    0.2613        0.2995        0.0000       10.1993       10.1993       9.899827       0.16699
  42    0.3336        0.2995        0.0000       10.1979       10.1979       9.898394       0.16711
  41    0.4307        0.2995        0.0000       10.1960       10.1960       9.896552       0.16011
  40    0.5894        0.2995        0.0000       10.1932       10.1932       9.893677       0.15291
  39     1.339        0.2995        0.0000       10.1816       10.1816       9.882079       0.13057
  38     1.782        0.2995        0.0000       10.1760       10.1760       9.876547       0.10532
  37     2.292        0.2995        0.0000       10.1705       10.1706       9.871088       0.09042
  36     2.964        0.2995        0.0000       10.1646       10.1646       9.865162       0.07439
  35     3.853        0.2995        0.0000       10.1584       10.1584       9.858944       0.05900
  34     5.035        0.2994        0.0000       10.1520       10.1521       9.852606       0.04528
  33     6.613        0.2994        0.0001       10.1455       10.1456       9.846148       0.03453
  32     8.786        0.2994        0.0001       10.1385       10.1386       9.839137       0.02723
  31     11.80        0.2994        0.0001       10.1294       10.1295       9.830098       0.02530
  30     15.07        0.2994        0.0001       10.1195       10.1196       9.820224       0.02549
  29     18.79        0.2994        0.0001       10.1075       10.1076       9.808223       0.02721
  28     23.16        0.2994        0.0001       10.0921       10.0923       9.792929       0.02957
  27     28.12        0.2993        0.0002       10.0730       10.0732       9.773850       0.03243
  26     33.73        0.2993        0.0002       10.0499       10.0501       9.750777       0.03469
  25     40.54        0.2993        0.0002       10.0200       10.0202       9.720906       0.03706
  24     48.69        0.2993        0.0003        9.9818        9.9820       9.682782       0.03945
  23     57.69        0.2992        0.0003        9.9382        9.9385       9.639308       0.04075
  22     68.43        0.2992        0.0004        9.8855        9.8859       9.586669       0.04138
  21     81.20        0.2991        0.0005        9.8231        9.8236       9.524413       0.04114
  20     96.49        0.2991        0.0005        9.7514        9.7519       9.452792       0.03953
  19     114.6        0.2991        0.0006        9.6656        9.6662       9.367108       0.04001
  18     136.5        0.2991        0.0007        9.5746        9.5753       9.276233       0.03494
  17     162.9        0.2990        0.0009        9.4789        9.4797       9.180684       0.03054
  16     196.4        0.2990        0.0010        9.3687        9.3698       9.070717       0.02768
  15     218.7        0.2991        0.0011        9.2984        9.2996       9.000484       0.02666
  14     243.0        0.2991        0.0012        9.2242        9.2255       8.926343       0.02571
  13     269.0        0.2992        0.0014        9.1397        9.1410       8.841822       0.02742
  12     297.5        0.2994        0.0015        9.0411        9.0425       8.743168       0.02926
  11     328.5        0.2996        0.0016        8.9250        8.9267       8.627035       0.03158
  10     361.9        0.3000        0.0018        8.7860        8.7877       8.487746       0.03524
   9     398.1        0.3005        0.0019        8.6193        8.6212       8.320723       0.03891
   8     437.6        0.3012        0.0021        8.4198        8.4218       8.120622       0.04278
   7     480.5        0.3022        0.0022        8.1833        8.1855       7.883240       0.04662
   6     533.0        0.3039        0.0023        7.8678        7.8701       7.566244       0.05099
   5     589.8        0.3062        0.0025        7.5119        7.5144       7.208219       0.05314
   4     651.6        0.3096        0.0026        7.1239        7.1265       6.816850       0.05352
   3     718.7        0.3145        0.0027        6.7246        6.7273       6.412809       0.05078
   2     792.3        0.3215        0.0028        6.3216        6.3245       6.002945       0.04701
   1     891.5        0.3349        0.0029        5.8204        5.8233       5.488453       0.04378
   0    1013.0        0.3593        0.0030        5.2821        5.2851       4.925771       0.03907



 Wavenumbers:  5150. -  6150. cm-1, ATM      1
 LEVEL PRESSURE   UPWARD FLUX   DIFDOWN FLUX  DIRDOWN FLUX  DOWNWARD FLUX   NET FLUX    HEATING RATE
          mb          W/m2          W/m2          W/m2        W/m2          W/m2       degree/day
  51    .06700        2.5331        0.0000       25.5798       25.5798      23.046715       0.00000
  50    .07753        2.5331        0.0000       25.5798       25.5798      23.046715       0.00019
  49    .09103        2.5331        0.0000       25.5798       25.5798      23.046715       0.00018
  48    0.1069        2.5331        0.0000       25.5798       25.5798      23.046715       0.00018
  47    0.1255        2.5331        0.0000       25.5798       25.5798      23.046714       0.00017
  46    0.1487        2.5331        0.0000       25.5798       25.5798      23.046714       0.00018
  45    0.1794        2.5331        0.0000       25.5798       25.5798      23.046713       0.00018
  44    0.2165        2.5331        0.0000       25.5798       25.5798      23.046712       0.00018
  43    0.2613        2.5331        0.0000       25.5798       25.5798      23.046711       0.00018
  42    0.3336        2.5331        0.0000       25.5798       25.5798      23.046710       0.00018
  41    0.4307        2.5331        0.0000       25.5798       25.5798      23.046708       0.00018
  40    0.5894        2.5331        0.0000       25.5798       25.5798      23.046704       0.00019
  39     1.339        2.5331        0.0000       25.5797       25.5798      23.046683       0.00024
  38     1.782        2.5331        0.0000       25.5797       25.5797      23.046667       0.00031
  37     2.292        2.5339        0.0001       22.3073       22.3074      19.773507      54.21206
  36     2.964        2.5342        0.0001       21.8870       21.8871      19.352892       5.27998
  35     3.853        2.5344        0.0001       21.6643       21.6645      19.130023       2.11507
  34     5.035        2.5346        0.0002       21.5200       21.5202      18.985582       1.03183
  33     6.613        2.5348        0.0002       21.4185       21.4187      18.883965       0.54325
  32     8.786        2.5348        0.0003       21.3443       21.3446      18.809716       0.28836
  31     11.80        2.5349        0.0003       21.2858       21.2862      18.751242       0.16371
  30     15.07        2.5349        0.0004       21.2475       21.2479      18.712945       0.09888
  29     18.79        2.5350        0.0005       21.2189       21.2194      18.684448       0.06461
  28     23.16        2.5350        0.0006       21.1948       21.1954      18.660422       0.04646
  27     28.12        2.5350        0.0007       21.1729       21.1736      18.638646       0.03702
  26     33.73        2.5349        0.0008       21.1527       21.1535      18.618557       0.03021
  25     40.54        2.5350        0.0010       21.1198       21.1207      18.585756       0.04069
  24     48.69        2.5350        0.0011       21.0860       21.0872      18.552188       0.03474
  23     57.69        2.5350        0.0013       21.0545       21.0559      18.520872       0.02935
  22     68.43        2.5350        0.0016       21.0227       21.0242      18.489218       0.02488
  21     81.20        2.5350        0.0019       20.9905       20.9923      18.457283       0.02110
  20     96.49        2.5350        0.0022       20.9578       20.9599      18.424920       0.01786
  19     114.6        2.5350        0.0026       20.9219       20.9245      18.389489       0.01654
  18     136.5        2.5350        0.0031       20.8817       20.8848      18.349769       0.01527
  17     162.9        2.5350        0.0036       20.8380       20.8416      18.306637       0.01379
  16     196.4        2.5350        0.0043       20.7819       20.7863      18.251313       0.01393
  15     218.7        2.5350        0.0048       20.7262       20.7310      18.196023       0.02099
  14     243.0        2.5349        0.0053       20.6654       20.6707      18.135744       0.02091
  13     269.0        2.5349        0.0059       20.5626       20.5684      18.033491       0.03317
  12     297.5        2.5350        0.0064       20.3908       20.3972      17.862186       0.05081
  11     328.5        2.5352        0.0070       20.1171       20.1242      17.588941       0.07429
  10     361.9        2.5356        0.0076       19.7026       19.7102      17.174628       0.10483
   9     398.1        2.5362        0.0081       19.1211       19.1292      16.593013       0.13550
   8     437.6        2.5372        0.0086       18.3760       18.3846      15.847396       0.15942
   7     480.5        2.5387        0.0091       17.5216       17.5306      14.991910       0.16801
   6     533.0        2.5415        0.0095       16.5223       16.5318      13.990259       0.16113
   5     589.8        2.5462        0.0100       15.6166       15.6266      13.080437       0.13505
   4     651.6        2.5539        0.0106       14.8487       14.8592      12.305352       0.10599
   3     718.7        2.5661        0.0112       14.2175       14.2286      11.662564       0.08078
   2     792.3        2.5859        0.0119       13.6247       13.6366      11.050637       0.07018
   1     891.5        2.6291        0.0127       12.8616       12.8742      10.245140       0.06854
   0    1013.0        2.7269        0.0136       12.0711       12.0847       9.357845       0.06161



 Wavenumbers:  6150. -  7700. cm-1, ATM      1
 LEVEL PRESSURE   UPWARD FLUX   DIFDOWN FLUX  DIRDOWN FLUX  DOWNWARD FLUX   NET FLUX    HEATING RATE
          mb          W/m2          W/m2          W/m2        W/m2          W/m2       degree/day
  51    .06700        3.9429        0.0000       47.3109       47.3109      43.368002       0.00000
  50    .07753        3.9429        0.0000       47.3108       47.3108      43.367986       0.01303
  49    .09103        3.9429        0.0000       47.3108       47.3108      43.367966       0.01277
  48    0.1069        3.9429        0.0000       47.3108       47.3108      43.367942       0.01250
  47    0.1255        3.9429        0.0000       47.3108       47.3108      43.367915       0.01223
  46    0.1487        3.9428        0.0000       47.3107       47.3107      43.367881       0.01241
  45    0.1794        3.9428        0.0000       47.3107       47.3107      43.367835       0.01276
  44    0.2165        3.9428        0.0000       47.3106       47.3106      43.367780       0.01252
  43    0.2613        3.9428        0.0000       47.3105       47.3106      43.367715       0.01228
  42    0.3336        3.9428        0.0000       47.3104       47.3104      43.367607       0.01256
  41    0.4307        3.9428        0.0000       47.3102       47.3103      43.367464       0.01242
  40    0.5894        3.9428        0.0001       47.3100       47.3100      43.367231       0.01240
  39     1.339        3.9427        0.0001       47.3087       47.3089      43.366130       0.01240
  38     1.782        3.9427        0.0002       47.3080       47.3082      43.365483       0.01230
  37     2.292        3.9435        0.0004       41.8783       41.8787      37.935209      89.93950
  36     2.964        3.9439        0.0005       41.2334       41.2339      37.290043       8.09878
  35     3.853        3.9441        0.0006       40.8937       40.8943      36.950222       3.22496
  34     5.035        3.9442        0.0007       40.6768       40.6775      36.733300       1.54960
  33     6.613        3.9443        0.0009       40.5268       40.5277      36.583420       0.80126
  32     8.786        3.9443        0.0011       40.4191       40.4202      36.475955       0.41735
  31     11.80        3.9441        0.0014       40.3359       40.3373      36.393155       0.23181
  30     15.07        3.9439        0.0017       40.2823       40.2840      36.340072       0.13705
  29     18.79        3.9437        0.0021       40.2430       40.2450      36.301353       0.08779
  28     23.16        3.9434        0.0025       40.2102       40.2127      36.269301       0.06198
  27     28.12        3.9430        0.0029       40.1808       40.1838      36.240772       0.04850
  26     33.73        3.9426        0.0035       40.1542       40.1577      36.215110       0.03858
  25     40.54        3.9421        0.0041       40.1120       40.1161      36.174073       0.05091
  24     48.69        3.9414        0.0049       40.0699       40.0748      36.133373       0.04212
  23     57.69        3.9408        0.0057       40.0315       40.0372      36.096438       0.03462
  22     68.43        3.9399        0.0067       39.9932       39.9999      36.059961       0.02868
  21     81.20        3.9389        0.0079       39.9548       39.9627      36.023770       0.02391
  20     96.49        3.9377        0.0094       39.9157       39.9251      35.987358       0.02010
  19     114.6        3.9363        0.0111       39.8716       39.8827      35.946410       0.01912
  18     136.5        3.9346        0.0131       39.8203       39.8334      35.898834       0.01829
  17     162.9        3.9326        0.0155       39.7604       39.7759      35.843319       0.01774
  16     196.4        3.9300        0.0186       39.6749       39.6936      35.763608       0.02006
  15     218.7        3.9283        0.0207       39.5795       39.6002      35.671912       0.03481
  14     243.0        3.9265        0.0229       39.4718       39.4947      35.568211       0.03597
  13     269.0        3.9247        0.0252       39.2861       39.3113      35.386659       0.05889
  12     297.5        3.9228        0.0277       38.9743       39.0020      35.079199       0.09119
  11     328.5        3.9211        0.0302       38.4745       38.5047      34.583545       0.13477
  10     361.9        3.9197        0.0327       37.7126       37.7453      33.825599       0.19177
   9     398.1        3.9189        0.0350       36.6243       36.6593      32.740430       0.25282
   8     437.6        3.9190        0.0371       35.1831       35.2202      31.301157       0.30773
   7     480.5        3.9207        0.0388       33.4340       33.4728      29.552090       0.34351
   6     533.0        3.9259        0.0405       31.2169       31.2574      27.331489       0.35722
   5     589.8        3.9366        0.0418       28.9629       29.0048      25.068201       0.33595
   4     651.6        3.9564        0.0430       26.7553       26.7983      22.841920       0.30445
   3     718.7        3.9898        0.0441       24.7072       24.7513      20.761520       0.26145
   2     792.3        4.0454        0.0452       22.8083       22.8534      18.808030       0.22404
   1     891.5        4.1665        0.0466       20.7014       20.7480      16.581476       0.18947
   0    1013.0        4.4301        0.0484       18.7231       18.7715      14.341464       0.15554



 Wavenumbers:  7700. -  8050. cm-1, ATM      1
 LEVEL PRESSURE   UPWARD FLUX   DIFDOWN FLUX  DIRDOWN FLUX  DOWNWARD FLUX   NET FLUX    HEATING RATE
          mb          W/m2          W/m2          W/m2        W/m2          W/m2       degree/day
  51    .06700        5.5662        0.0000       11.1810       11.1810       5.614746       0.00000
  50    .07753        5.5662        0.0000       11.1809       11.1809       5.614724       0.01715
  49    .09103        5.5662        0.0000       11.1809       11.1809       5.614697       0.01681
  48    0.1069        5.5662        0.0000       11.1809       11.1809       5.614666       0.01646
  47    0.1255        5.5662        0.0000       11.1809       11.1809       5.614631       0.01611
  46    0.1487        5.5662        0.0000       11.1808       11.1808       5.614586       0.01634
  45    0.1794        5.5663        0.0000       11.1808       11.1808       5.614525       0.01682
  44    0.2165        5.5663        0.0000       11.1807       11.1807       5.614452       0.01650
  43    0.2613        5.5663        0.0000       11.1806       11.1806       5.614366       0.01619
  42    0.3336        5.5663        0.0000       11.1805       11.1805       5.614224       0.01656
  41    0.4307        5.5663        0.0000       11.1803       11.1804       5.614036       0.01638
  40    0.5894        5.5664        0.0000       11.1801       11.1801       5.613728       0.01636
  39     1.339        5.5666        0.0001       11.1788       11.1789       5.612272       0.01639
  38     1.782        5.5667        0.0001       11.1781       11.1782       5.611417       0.01628
  37     2.292        5.5669        0.0002       11.1771       11.1773       5.610427       0.01639
  36     2.964        5.5671        0.0003       11.1759       11.1762       5.609128       0.01631
  35     3.853        5.5673        0.0003       11.1744       11.1747       5.607411       0.01629
  34     5.035        5.5677        0.0004       11.1724       11.1728       5.605131       0.01629
  33     6.613        5.5682        0.0005       11.1697       11.1702       5.602085       0.01628
  32     8.786        5.5688        0.0006       11.1662       11.1668       5.597982       0.01593
  31     11.80        5.5697        0.0008       11.1611       11.1619       5.592117       0.01642
  30     15.07        5.5708        0.0010       11.1556       11.1566       5.585826       0.01624
  29     18.79        5.5719        0.0012       11.1495       11.1506       5.578727       0.01610
  28     23.16        5.5732        0.0014       11.1423       11.1437       5.570446       0.01601
  27     28.12        5.5748        0.0017       11.1341       11.1358       5.560993       0.01607
  26     33.73        5.5765        0.0020       11.1250       11.1269       5.550435       0.01587
  25     40.54        5.5786        0.0023       11.1140       11.1163       5.537711       0.01579
  24     48.69        5.5811        0.0028       11.1008       11.1036       5.522418       0.01583
  23     57.69        5.5840        0.0033       11.0864       11.0896       5.505681       0.01569
  22     68.43        5.5873        0.0038       11.0693       11.0731       5.485830       0.01561
  21     81.20        5.5914        0.0045       11.0491       11.0537       5.462301       0.01555
  20     96.49        5.5962        0.0053       11.0253       11.0306       5.434435       0.01538
  19     114.6        5.6021        0.0063       10.9972       11.0035       5.401463       0.01540
  18     136.5        5.6091        0.0074       10.9643       10.9718       5.362730       0.01489
  17     162.9        5.6175        0.0088       10.9258       10.9346       5.317068       0.01460
  16     196.4        5.6287        0.0106       10.8766       10.8872       5.258530       0.01473
  15     218.7        5.6361        0.0117       10.8448       10.8565       5.220386       0.01448
  14     243.0        5.6444        0.0130       10.8106       10.8236       5.179233       0.01427
  13     269.0        5.6535        0.0143       10.7740       10.7883       5.134835       0.01440
  12     297.5        5.6635        0.0158       10.7347       10.7505       5.086972       0.01420
  11     328.5        5.6747        0.0174       10.6925       10.7099       5.035226       0.01407
  10     361.9        5.6871        0.0191       10.6472       10.6663       4.979220       0.01417
   9     398.1        5.7011        0.0209       10.5984       10.6193       4.918242       0.01421
   8     437.6        5.7169        0.0229       10.5456       10.5685       4.851604       0.01425
   7     480.5        5.7348        0.0250       10.4881       10.5130       4.778234       0.01441
   6     533.0        5.7587        0.0275       10.4153       10.4428       4.684170       0.01513
   5     589.8        5.7869        0.0303       10.3338       10.3641       4.577123       0.01589
   4     651.6        5.8210        0.0332       10.2411       10.2744       4.453341       0.01693
   3     718.7        5.8624        0.0364       10.1357       10.1720       4.309648       0.01806
   2     792.3        5.9133        0.0397       10.0147       10.0544       4.141119       0.01933
   1     891.5        5.9938        0.0441        9.8392        9.8833       3.889515       0.02141
   0    1013.0        6.1098        0.0492        9.6131        9.6623       3.552491       0.02340



 Wavenumbers:  8050. - 12850. cm-1, ATM      1
 LEVEL PRESSURE   UPWARD FLUX   DIFDOWN FLUX  DIRDOWN FLUX  DOWNWARD FLUX   NET FLUX    HEATING RATE
          mb          W/m2          W/m2          W/m2        W/m2          W/m2       degree/day
  51    .06700       92.8168        0.0000      156.5418      156.5418      63.724998       0.00000
  50    .07753       92.8167        0.0000      156.5417      156.5417      63.724998       0.00000
  49    .09103       92.8167        0.0001      156.5417      156.5417      63.724998      -0.00000
  48    0.1069       92.8167        0.0001      156.5416      156.5417      63.724998      -0.00000
  47    0.1255       92.8167        0.0002      156.5415      156.5417      63.724998      -0.00000
  46    0.1487       92.8167        0.0002      156.5414      156.5417      63.724998       0.00000
  45    0.1794       92.8166        0.0003      156.5413      156.5416      63.724998       0.00000
  44    0.2165       92.8166        0.0004      156.5412      156.5416      63.724998       0.00000
  43    0.2613       92.8165        0.0006      156.5410      156.5415      63.724998      -0.00000
  42    0.3336       92.8165        0.0008      156.5407      156.5415      63.724998      -0.00000
  41    0.4307       92.8163        0.0010      156.5403      156.5413      63.724998       0.00000
  40    0.5894       92.8162        0.0015      156.5397      156.5412      63.724998       0.00000
  39     1.339       92.8153        0.0036      156.5367      156.5403      63.724998      -0.00000
  38     1.782       92.8148        0.0049      156.5350      156.5398      63.724998       0.00000
  37     2.292       92.8125        0.0108      156.5267      156.5375      63.724998      -0.00000
  36     2.964       92.8112        0.0141      156.5221      156.5362      63.724998       0.00000
  35     3.853       92.8099        0.0174      156.5175      156.5349      63.724998      -0.00000
  34     5.035       92.8084        0.0211      156.5123      156.5334      63.724998      -0.00000
  33     6.613       92.8066        0.0258      156.5057      156.5316      63.724998       0.00000
  32     8.786       92.8042        0.0320      156.4972      156.5292      63.724998       0.00000
  31     11.80       92.8007        0.0407      156.4850      156.5257      63.724998      -0.00000
  30     15.07       92.7971        0.0500      156.4721      156.5221      63.724998       0.00000
  29     18.79       92.7930        0.0605      156.4575      156.5180      63.724998       0.00000
  28     23.16       92.7881        0.0727      156.4404      156.5131      63.724998       0.00000
  27     28.12       92.7826        0.0867      156.4209      156.5076      63.724998      -0.00000
  26     33.73       92.7765        0.1024      156.3991      156.5015      63.724998      -0.00000
  25     40.54       92.7690        0.1214      156.3726      156.4940      63.724998       0.00000
  24     48.69       92.7600        0.1443      156.3407      156.4850      63.724998      -0.00000
  23     57.69       92.7500        0.1695      156.3056      156.4750      63.724998       0.00000
  22     68.43       92.7382        0.1995      156.2637      156.4632      63.724998      -0.00000
  21     81.20       92.7241        0.2354      156.2137      156.4491      63.724998       0.00000
  20     96.49       92.7072        0.2782      156.1541      156.4322      63.724998       0.00000
  19     114.6       92.6949        0.3289      155.8498      156.1787      63.483818       0.11261
  18     136.5       92.6781        0.3891      155.5681      155.9572      63.279076       0.07873
  17     162.9       92.6556        0.4609      155.2955      155.7565      63.100866       0.05696
  16     196.4       92.6235        0.5543      154.9768      155.5311      62.907647       0.04864
  15     218.7       92.6019        0.6157      154.7146      155.3303      62.728443       0.06804
  14     243.0       92.5778        0.6825      154.4537      155.1363      62.558436       0.05896
  13     269.0       92.5529        0.7549      154.0968      154.8517      62.298815       0.08422
  12     297.5       92.5282        0.8329      153.6108      154.4437      61.915483       0.11369
  11     328.5       92.5055        0.9169      152.9471      153.8639      61.358434       0.15146
  10     361.9       92.4876        1.0066      152.0361      153.0427      60.555156       0.20324
   9     398.1       92.4789        1.1022      150.8010      151.9032      59.424230       0.26348
   8     437.6       92.4867        1.2032      149.1780      150.3811      57.894401       0.32709
   7     480.5       92.5218        1.3092      147.1052      148.4144      55.892525       0.39316
   6     533.0       92.6161        1.4360      144.1377      145.5737      52.957650       0.47213
   5     589.8       92.8006        1.5681      140.5728      142.1409      49.340216       0.53695
   4     651.6       93.1336        1.7048      136.4460      138.1508      45.017239       0.59118
   3     718.7       93.6821        1.8456      131.9323      133.7779      40.095799       0.61849
   2     792.3       94.5785        1.9894      126.9699      128.9593      34.380801       0.65545
   1     891.5       96.4731        2.1719      120.4032      122.5751      26.101957       0.70449
   0    1013.0      100.2473        2.3803      113.2934      115.6737      15.426404       0.74126



 Wavenumbers: 12850. - 16000. cm-1, ATM      1
 LEVEL PRESSURE   UPWARD FLUX   DIFDOWN FLUX  DIRDOWN FLUX  DOWNWARD FLUX   NET FLUX    HEATING RATE
          mb          W/m2          W/m2          W/m2        W/m2          W/m2       degree/day
  51    .06700       79.4448        0.0000       98.0872       98.0872      18.642391       0.00000
  50    .07753       79.4448        0.0001       98.0864       98.0864      18.641599       0.63451
  49    .09103       79.4448        0.0002       98.0853       98.0855      18.640605       0.62144
  48    0.1069       79.4448        0.0003       98.0841       98.0843      18.639463       0.60812
  47    0.1255       79.4449        0.0004       98.0826       98.0830      18.638150       0.59509
  46    0.1487       79.4449        0.0005       98.0809       98.0814      18.636493       0.60389
  45    0.1794       79.4449        0.0007       98.0784       98.0792      18.634239       0.61873
  44    0.2165       79.4450        0.0010       98.0756       98.0766      18.631588       0.60314
  43    0.2613       79.4451        0.0013       98.0723       98.0736      18.628470       0.58778
  42    0.3336       79.4454        0.0017       98.0670       98.0687      18.623380       0.59343
  41    0.4307       79.4457        0.0023       98.0602       98.0625      18.616797       0.57234
  40    0.5894       79.4465        0.0034       98.0496       98.0529      18.606423       0.55167
  39     1.339       79.4531        0.0082       98.0043       98.0125      18.559400       0.52940
  38     1.782       79.4591        0.0110       97.9793       97.9903      18.531159       0.53766
  37     2.292       79.4649        0.0244       97.9365       97.9609      18.495980       0.58266
  36     2.964       79.4787        0.0320       97.8913       97.9232      18.444518       0.64600
  35     3.853       79.5020        0.0393       97.8306       97.8699      18.367876       0.72735
  34     5.035       79.5376        0.0478       97.7470       97.7948      18.257170       0.79084
  33     6.613       79.5875        0.0584       97.6344       97.6928      18.105327       0.81175
  32     8.786       79.6525        0.0722       97.4884       97.5606      17.908117       0.76589
  31     11.80       79.7373        0.0917       97.2953       97.3870      17.649702       0.72348
  30     15.07       79.8186        0.1125       97.1056       97.2181      17.399471       0.64605
  29     18.79       79.9018        0.1360       96.9072       97.0431      17.141350       0.58524
  28     23.16       79.9888        0.1633       96.6936       96.8569      16.868131       0.52832
  27     28.12       80.0764        0.1945       96.4705       96.6649      16.588505       0.47535
  26     33.73       80.1576        0.2294       96.2500       96.4794      16.321737       0.40109
  25     40.54       80.2362        0.2715       96.0176       96.2892      16.052979       0.33342
  24     48.69       80.3119        0.3224       95.7714       96.0938      15.781880       0.28055
  23     57.69       80.3766        0.3782       95.5341       95.9123      15.535705       0.23075
  22     68.43       80.4336        0.4448       95.2874       95.7321      15.298509       0.18647
  21     81.20       80.4742        0.5242       95.0411       95.5652      15.091043       0.13709
  20     96.49       80.4972        0.6189       94.7920       95.4109      14.913694       0.09788
  19     114.6       80.5265        0.7327       94.5139       95.2466      14.720022       0.09043
  18     136.5       80.5496        0.8675       94.2012       95.0687      14.519040       0.07728
  17     162.9       80.5663        1.0280       93.8409       94.8689      14.302574       0.06919
  16     196.4       80.5653        1.2362       93.3962       94.6324      14.067087       0.05927
  15     218.7       80.5567        1.3730       93.1087       94.4817      13.924932       0.05397
  14     243.0       80.5436        1.5216       92.7988       94.3204      13.776814       0.05137
  13     269.0       80.5261        1.6826       92.4630       94.1456      13.619545       0.05102
  12     297.5       80.5046        1.8567       92.0984       93.9551      13.450437       0.05016
  11     328.5       80.4817        2.0448       91.6988       93.7436      13.261929       0.05125
  10     361.9       80.4588        2.2473       91.2594       93.5067      13.047941       0.05414
   9     398.1       80.4381        2.4652       90.7725       93.2376      12.799501       0.05788
   8     437.6       80.4239        2.6991       90.2270       92.9261      12.502181       0.06357
   7     480.5       80.4214        2.9495       89.6096       92.5591      12.137742       0.07157
   6     533.0       80.4431        3.2569       88.7935       92.0505      11.607405       0.08531
   5     589.8       80.5052        3.5869       87.8400       91.4269      10.921650       0.10179
   4     651.6       80.6228        3.9382       86.7388       90.6770      10.054186       0.11863
   3     718.7       80.8176        4.3106       85.4834       89.7939       8.976292       0.13546
   2     792.3       81.1359        4.7022       84.0489       88.7511       7.615177       0.15610
   1     891.5       81.7796        5.2185       82.0229       87.2414       5.461812       0.18324
   0    1013.0       82.9092        5.8248       79.5742       85.3990       2.489780       0.20636



 Wavenumbers: 16000. - 22650. cm-1, ATM      1
 LEVEL PRESSURE   UPWARD FLUX   DIFDOWN FLUX  DIRDOWN FLUX  DOWNWARD FLUX   NET FLUX    HEATING RATE
          mb          W/m2          W/m2          W/m2        W/m2          W/m2       degree/day
  51    .06700      140.4491        0.0000      156.3892      156.3892      15.940167       0.00000
  50    .07753      140.4491        0.0004      156.3887      156.3891      15.940020       0.11798
  49    .09103      140.4490        0.0009      156.3879      156.3888      15.939806       0.13381
  48    0.1069      140.4490        0.0015      156.3871      156.3885      15.939519       0.15259
  47    0.1255      140.4490        0.0021      156.3861      156.3882      15.939135       0.17393
  46    0.1487      140.4491        0.0030      156.3847      156.3877      15.938570       0.20611
  45    0.1794      140.4492        0.0041      156.3828      156.3869      15.937686       0.24267
  44    0.2165      140.4494        0.0054      156.3805      156.3859      15.936487       0.27274
  43    0.2613      140.4498        0.0070      156.3776      156.3846      15.934860       0.30662
  42    0.3336      140.4505        0.0096      156.3726      156.3823      15.931767       0.36058
  41    0.4307      140.4517        0.0131      156.3657      156.3788      15.927106       0.40534
  40    0.5894      140.4543        0.0188      156.3537      156.3725      15.918215       0.47281
  39     1.339      140.4767        0.0458      156.2834      156.3292      15.852528       0.73951
  38     1.782      140.4974        0.0616      156.2324      156.2940      15.796571       1.06534
  37     2.292      140.5154        0.1370      156.0940      156.2309      15.715576       1.34148
  36     2.964      140.5628        0.1793      155.9679      156.1472      15.584372       1.64701
  35     3.853      140.6442        0.2204      155.8000      156.0204      15.376189       1.97570
  34     5.035      140.7690        0.2678      155.5667      155.8346      15.065601       2.21871
  33     6.613      140.9443        0.3272      155.2512      155.5783      14.633982       2.30744
  32     8.786      141.1733        0.4046      154.8411      155.2456      14.072357       2.18115
  31     11.80      141.4715        0.5136      154.2975      154.8111      13.339595       2.05150
  30     15.07      141.7573        0.6298      153.7622      154.3920      12.634715       1.81986
  29     18.79      142.0491        0.7606      153.2008      153.9614      11.912293       1.63795
  28     23.16      142.3541        0.9129      152.5943      153.5073      11.153228       1.46779
  27     28.12      142.6609        1.0868      151.9575      153.0443      10.383425       1.30861
  26     33.73      142.9440        1.2812      151.3232      152.6043       9.660365       1.08714
  25     40.54      143.2162        1.5158      150.6461      152.1620       8.945736       0.88658
  24     48.69      143.4767        1.7984      149.9166      151.7150       8.238258       0.73213
  23     57.69      143.6974        2.1084      149.1983      151.3067       7.609252       0.58960
  22     68.43      143.8895        2.4772      148.4312      150.9083       7.018794       0.46418
  21     81.20      144.0216        2.9163      147.6357      150.5520       6.530357       0.32275
  20     96.49      144.0892        3.4390      146.7973      150.2362       6.147064       0.21155
  19     114.6      144.1238        4.0578      145.8610      149.9188       5.794939       0.16442
  18     136.5      144.1336        4.7885      144.7937      149.5822       5.448536       0.13320
  17     162.9      144.1168        5.6545      143.5639      149.2184       5.101576       0.11090
  16     196.4      144.0336        6.7719      142.0509      148.8228       4.789266       0.07861
  15     218.7      143.9566        7.5022      141.0893      148.5915       4.634907       0.05860
  14     243.0      143.8624        8.2925      140.0617      148.3542       4.491826       0.04963
  13     269.0      143.7495        9.1452      138.9664      148.1115       4.361981       0.04212
  12     297.5      143.6175       10.0621      137.8011      147.8633       4.245814       0.03445
  11     328.5      143.4702       11.0478      136.5547      147.6025       4.132206       0.03089
  10     361.9      143.3079       12.1030      135.2256      147.3286       4.020720       0.02821
   9     398.1      143.1301       13.2319      133.8079      147.0398       3.909723       0.02586
   8     437.6      142.9382       14.4364      132.2970      146.7334       3.795201       0.02449
   7     480.5      142.7324       15.7189      130.6886      146.4075       3.675053       0.02360
   6     533.0      142.4819       17.2854      128.7210      146.0064       3.524572       0.02421
   5     589.8      142.2188       18.9594      126.6105      145.5699       3.351071       0.02575
   4     651.6      141.9483       20.7420      124.3490      145.0910       3.142739       0.02849
   3     718.7      141.6743       22.6349      121.9311      144.5661       2.891812       0.03153
   2     792.3      141.4087       24.6357      119.3487      143.9843       2.575589       0.03627
   1     891.5      141.1060       27.2910      115.8741      143.1651       2.059112       0.04395
   0    1013.0      140.8132       30.4112      111.7504      142.1616       1.348410       0.04935



 Wavenumbers: 22650. - 29000. cm-1, ATM      1
 LEVEL PRESSURE   UPWARD FLUX   DIFDOWN FLUX  DIRDOWN FLUX  DOWNWARD FLUX   NET FLUX    HEATING RATE
          mb          W/m2          W/m2          W/m2        W/m2          W/m2       degree/day
  51    .06700       58.6820        0.0000       59.0156       59.0156       0.333647       0.00000
  50    .07753       58.6819        0.0005       59.0151       59.0155       0.333647       0.00000
  49    .09103       58.6818        0.0010       59.0144       59.0154       0.333647      -0.00000
  48    0.1069       58.6816        0.0017       59.0136       59.0153       0.333647       0.00000
  47    0.1255       58.6815        0.0025       59.0127       59.0151       0.333647       0.00000
  46    0.1487       58.6813        0.0035       59.0115       59.0149       0.333647      -0.00000
  45    0.1794       58.6810        0.0048       59.0099       59.0147       0.333647       0.00000
  44    0.2165       58.6807        0.0063       59.0080       59.0144       0.333647       0.00000
  43    0.2613       58.6804        0.0082       59.0058       59.0140       0.333647       0.00000
  42    0.3336       58.6798        0.0113       59.0022       59.0134       0.333647       0.00000
  41    0.4307       58.6790        0.0154       58.9973       59.0127       0.333647       0.00000
  40    0.5894       58.6777        0.0220       58.9894       59.0114       0.333647      -0.00000
  39     1.339       58.6717        0.0535       58.9518       59.0053       0.333647       0.00000
  38     1.782       58.6681        0.0720       58.9297       59.0017       0.333647       0.00000
  37     2.292       58.6512        0.1600       58.8248       58.9848       0.333647       0.00000
  36     2.964       58.6416        0.2095       58.7658       58.9753       0.333647       0.00000
  35     3.853       58.6324        0.2575       58.7085       58.9660       0.333647       0.00000
  34     5.035       58.6217        0.3130       58.6423       58.9553       0.333647      -0.00000
  33     6.613       58.6083        0.3825       58.5595       58.9420       0.333647       0.00000
  32     8.786       58.5909        0.4732       58.4514       58.9245       0.333647       0.00000
  31     11.80       58.5663        0.6009       58.2990       58.8999       0.333647      -0.00000
  30     15.07       58.5401        0.7370       58.1367       58.8737       0.333647       0.00000
  29     18.79       58.5106        0.8900       57.9542       58.8442       0.333647       0.00000
  28     23.16       58.4763        1.0681       57.7418       58.8100       0.333647      -0.00000
  27     28.12       58.4372        1.2710       57.4998       58.7709       0.333647       0.00000
  26     33.73       58.3936        1.4973       57.2300       58.7273       0.333647      -0.00000
  25     40.54       58.3412        1.7695       56.9054       58.6749       0.333647      -0.00000
  24     48.69       58.2783        2.0959       56.5161       58.6120       0.333647       0.00000
  23     57.69       58.2097        2.4522       56.0912       58.5433       0.333647       0.00000
  22     68.43       58.1285        2.8734       55.5888       58.4622       0.333647      -0.00000
  21     81.20       58.0327        3.3709       54.9955       58.3663       0.333647       0.00000
  20     96.49       57.9196        3.9573       54.2960       58.2533       0.333647      -0.00000
  19     114.6       57.7871        4.6446       53.4762       58.1208       0.333647       0.00000
  18     136.5       57.6324        5.4468       52.5193       57.9661       0.333647      -0.00000
  17     162.9       57.4515        6.3846       51.4006       57.7852       0.333647       0.00000
  16     196.4       57.2222        7.5727       49.9831       57.5558       0.333647       0.00000
  15     218.7       57.0748        8.3363       49.0722       57.4084       0.333647      -0.00000
  14     243.0       56.9173        9.1514       48.0995       57.2510       0.333647       0.00000
  13     269.0       56.7499       10.0178       47.0657       57.0835       0.333647      -0.00000
  12     297.5       56.5727       10.9346       45.9717       56.9063       0.333647      -0.00000
  11     328.5       56.3853       11.9032       44.8158       56.7190       0.333647       0.00000
  10     361.9       56.1883       12.9211       43.6009       56.5220       0.333647       0.00000
   9     398.1       55.9816       13.9885       42.3268       56.3153       0.333647       0.00000
   8     437.6       55.7656       15.1032       40.9961       56.0993       0.333647      -0.00000
   7     480.5       55.5407       16.2630       39.6114       55.8744       0.333647       0.00000
   6     533.0       55.2729       17.6427       37.9638       55.6066       0.333647       0.00000
   5     589.8       54.9950       19.0732       36.2554       55.3286       0.333647      -0.00000
   4     651.6       54.7082       20.5473       34.4945       55.0418       0.333647      -0.00000
   3     718.7       54.4136       22.0591       32.6882       54.7473       0.333647       0.00000
   2     792.3       54.1131       23.5990       30.8478       54.4468       0.333647      -0.00000
   1     891.5       53.7306       25.5550       28.5093       54.0643       0.333647       0.00000
   0    1013.0       53.3047       27.7267       25.9116       53.6383       0.333647       0.00000



 Wavenumbers: 29000. - 38000. cm-1, ATM      1
 LEVEL PRESSURE   UPWARD FLUX   DIFDOWN FLUX  DIRDOWN FLUX  DOWNWARD FLUX   NET FLUX    HEATING RATE
          mb          W/m2          W/m2          W/m2        W/m2          W/m2       degree/day
  51    .06700        8.7888        0.0000       20.8114       20.8114      12.022575       0.00000
  50    .07753        8.7886        0.0003       20.8070       20.8074      12.018766       3.05296
  49    .09103        8.7884        0.0007       20.8009       20.8016      12.013227       3.46246
  48    0.1069        8.7881        0.0012       20.7928       20.7939      12.005813       3.94613
  47    0.1255        8.7878        0.0017       20.7820       20.7837      11.995904       4.49245
  46    0.1487        8.7875        0.0024       20.7665       20.7688      11.981334       5.31095
  45    0.1794        8.7871        0.0033       20.7424       20.7457      11.958658       6.22501
  44    0.2165        8.7866        0.0044       20.7103       20.7147      11.928121       6.94677
  43    0.2613        8.7860        0.0056       20.6675       20.6731      11.887106       7.73114
  42    0.3336        8.7851        0.0077       20.5880       20.5957      11.810506       8.93079
  41    0.4307        8.7841        0.0104       20.4722       20.4826      11.698494       9.73920
  40    0.5894        8.7827        0.0147       20.2637       20.2784      11.495694      10.78464
  39     1.339        8.7803        0.0332       19.0984       19.1315      10.351255      12.88430
  38     1.782        8.7818        0.0427       18.4394       18.4821       9.700333      12.39251
  37     2.292        8.7635        0.0906       17.7124       17.8030       9.039574      10.94390
  36     2.964        8.7639        0.1131       16.9688       17.0819       8.317987       9.05810
  35     3.853        8.7739        0.1324       16.1906       16.3230       7.549108       7.29680
  34     5.035        8.7935        0.1531       15.4037       15.5568       6.763244       5.61388
  33     6.613        8.8234        0.1782       14.6413       14.8195       5.996091       4.10120
  32     8.786        8.8636        0.2107       13.9219       14.1326       5.269023       2.82367
  31     11.80        8.9163        0.2557       13.2158       13.4715       4.555178       1.99854
  30     15.07        8.9672        0.3031       12.6739       12.9770       4.009826       1.40799
  29     18.79        9.0199        0.3555       12.2040       12.5595       3.539595       1.06616
  28     23.16        9.0759        0.4157       11.7699       12.1856       3.109702       0.83127
  27     28.12        9.1333        0.4833       11.3701       11.8534       2.720124       0.66226
  26     33.73        9.1863        0.5580       11.0138       11.5718       2.385541       0.50305
  25     40.54        9.2366        0.6476       10.6672       11.3148       2.078198       0.38129
  24     48.69        9.2841        0.7541       10.3224       11.0765       1.792384       0.29577
  23     57.69        9.3231        0.8695       10.0048       10.8743       1.551230       0.22605
  22     68.43        9.3547        1.0051        9.6844       10.6894       1.334721       0.17021
  21     81.20        9.3700        1.1653        9.3667       10.5320       1.162064       0.11409
  20     96.49        9.3670        1.3539        9.0437       10.3976       1.030624       0.07255
  19     114.6        9.3537        1.5718        8.6956       10.2673       0.913618       0.05463
  18     136.5        9.3333        1.8210        8.3136       10.1346       0.801341       0.04317
  17     162.9        9.3057        2.1051        7.8920        9.9971       0.691401       0.03514
  16     196.4        9.2591        2.4578        7.3958        9.8536       0.594585       0.02437
  15     218.7        9.2255        2.6793        7.0936        9.7729       0.547383       0.01792
  14     243.0        9.1887        2.9108        6.7817        9.6925       0.503795       0.01512
  13     269.0        9.1485        3.1515        6.4616        9.6131       0.464653       0.01270
  12     297.5        9.1049        3.4004        6.1347        9.5351       0.430147       0.01023
  11     328.5        9.0595        3.6565        5.8001        9.4566       0.397108       0.00898
  10     361.9        9.0125        3.9172        5.4610        9.3782       0.365685       0.00795
   9     398.1        8.9643        4.1821        5.1180        9.3002       0.335905       0.00694
   8     437.6        8.9152        4.4496        4.7728        9.2224       0.307195       0.00614
   7     480.5        8.8657        4.7176        4.4280        9.1456       0.279941       0.00535
   6     533.0        8.8089        5.0232        4.0359        9.0591       0.250230       0.00478
   5     589.8        8.7529        5.3246        3.6498        8.9744       0.221462       0.00427
   4     651.6        8.6987        5.6188        3.2732        8.8920       0.193311       0.00385
   3     718.7        8.6467        5.9030        2.9095        8.8125       0.165736       0.00347
   2     792.3        8.5978        6.1746        2.5619        8.7366       0.138743       0.00310
   1     891.5        8.5420        6.4931        2.1543        8.6474       0.105411       0.00284
   0    1013.0        8.4888        6.8128        1.7446        8.5574       0.068584       0.00256



 Wavenumbers: 38000. - 50000. cm-1, ATM      1
 LEVEL PRESSURE   UPWARD FLUX   DIFDOWN FLUX  DIRDOWN FLUX  DOWNWARD FLUX   NET FLUX    HEATING RATE
          mb          W/m2          W/m2          W/m2        W/m2          W/m2       degree/day
  51    .06700        0.0075        0.0000        1.2836        1.2836       1.276155       0.00000
  50    .07753        0.0074        0.0001        1.2812        1.2812       1.273819       1.87245
  49    .09103        0.0073        0.0002        1.2777        1.2778       1.270486       2.08346
  48    0.1069        0.0073        0.0002        1.2731        1.2734       1.266105       2.33164
  47    0.1255        0.0072        0.0004        1.2672        1.2675       1.260348       2.61019
  46    0.1487        0.0071        0.0005        1.2586        1.2591       1.252018       3.03622
  45    0.1794        0.0069        0.0007        1.2455        1.2462       1.239245       3.50657
  44    0.2165        0.0068        0.0009        1.2282        1.2291       1.222312       3.85185
  43    0.2613        0.0066        0.0011        1.2054        1.2065       1.199955       4.21420
  42    0.3336        0.0063        0.0015        1.1639        1.1654       1.159116       4.76152
  41    0.4307        0.0059        0.0020        1.1051        1.1071       1.101133       5.04143
  40    0.5894        0.0054        0.0026        1.0039        1.0064       1.001048       5.32239
  39     1.339        0.0041        0.0035        0.5438        0.5473       0.543266       5.15380
  38     1.782        0.0039        0.0032        0.3635        0.3667       0.362734       3.43704
  37     2.292        0.0017        0.0045        0.2320        0.2365       0.234825       2.11851
  36     2.964        0.0010        0.0037        0.1426        0.1463       0.145252       1.12442
  35     3.853        0.0006        0.0027        0.0839        0.0866       0.085975       0.56255
  34     5.035        0.0004        0.0019        0.0477        0.0496       0.049164       0.26296
  33     6.613        0.0003        0.0013        0.0266        0.0279       0.027675       0.11488
  32     8.786        0.0002        0.0009        0.0140        0.0149       0.014775       0.05010
  31     11.80        0.0001        0.0005        0.0064        0.0069       0.006840       0.02222
  30     15.07        0.0000        0.0003        0.0030        0.0033       0.003302       0.00913
  29     18.79        0.0000        0.0002        0.0014        0.0016       0.001572       0.00392
  28     23.16        0.0000        0.0001        0.0006        0.0007       0.000716       0.00166
  27     28.12        0.0000        0.0001        0.0003        0.0003       0.000316       0.00068
  26     33.73        0.0000        0.0000        0.0001        0.0001       0.000139       0.00027
  25     40.54        0.0000        0.0000        0.0000        0.0001       0.000057       0.00010
  24     48.69        0.0000        0.0000        0.0000        0.0000       0.000021       0.00004
  23     57.69        0.0000        0.0000        0.0000        0.0000       0.000008       0.00001
  22     68.43        0.0000        0.0000        0.0000        0.0000       0.000003       0.00000
  21     81.20        0.0000        0.0000        0.0000        0.0000       0.000001       0.00000
  20     96.49        0.0000        0.0000        0.0000        0.0000       0.000000       0.00000
  19     114.6        0.0000        0.0000        0.0000        0.0000       0.000000       0.00000
  18     136.5        0.0000        0.0000        0.0000        0.0000       0.000000       0.00000
  17     162.9        0.0000        0.0000        0.0000        0.0000       0.000000       0.00000
  16     196.4        0.0000        0.0000        0.0000        0.0000       0.000000       0.00000
  15     218.7        0.0000        0.0000        0.0000        0.0000       0.000000       0.00000
  14     243.0        0.0000        0.0000        0.0000        0.0000       0.000000       0.00000
  13     269.0        0.0000        0.0000        0.0000        0.0000       0.000000       0.00000
  12     297.5        0.0000        0.0000        0.0000        0.0000       0.000000       0.00000
  11     328.5        0.0000        0.0000        0.0000        0.0000       0.000000       0.00000
  10     361.9        0.0000        0.0000        0.0000        0.0000       0.000000       0.00000
   9     398.1        0.0000        0.0000        0.0000        0.0000       0.000000       0.00000
   8     437.6        0.0000        0.0000        0.0000        0.0000       0.000000       0.00000
   7     480.5        0.0000        0.0000        0.0000        0.0000       0.000000       0.00000
   6     533.0        0.0000        0.0000        0.0000        0.0000       0.000000       0.00000
   5     589.8        0.0000        0.0000        0.0000        0.0000       0.000000       0.00000
   4     651.6        0.0000        0.0000        0.0000        0.0000       0.000000       0.00000
   3     718.7        0.0000        0.0000        0.0000        0.0000       0.000000       0.00000
   2     792.3        0.0000        0.0000        0.0000        0.0000       0.000000       0.00000
   1     891.5        0.0000        0.0000        0.0000        0.0000       0.000000       0.00000
   0    1013.0        0.0000        0.0000        0.0000        0.0000       0.000000       0.00000



 Wavenumbers:   820. -  2600. cm-1, ATM      1
 LEVEL PRESSURE   UPWARD FLUX   DIFDOWN FLUX  DIRDOWN FLUX  DOWNWARD FLUX   NET FLUX    HEATING RATE
          mb          W/m2          W/m2          W/m2        W/m2          W/m2       degree/day
  51    .06700        0.0047        0.0000        6.0047        6.0047       5.999924       0.00000
  50    .07753        0.0047        0.0000        6.0009        6.0009       5.996144       3.02937
  49    .09103        0.0047        0.0000        6.0001        6.0001       5.995354       0.49378
  48    0.1069        0.0047        0.0000        5.9992        5.9992       5.994479       0.46572
  47    0.1255        0.0047        0.0000        5.9982        5.9982       5.993499       0.44470
  46    0.1487        0.0047        0.0000        5.9970        5.9970       5.992321       0.42941
  45    0.1794        0.0047        0.0000        5.9956        5.9956       5.990854       0.40259
  44    0.2165        0.0047        0.0000        5.9940        5.9940       5.989322       0.34860
  43    0.2613        0.0047        0.0000        5.9925        5.9925       5.987742       0.29770
  42    0.3336        0.0047        0.0000        5.9902        5.9902       5.985513       0.25991
  41    0.4307        0.0047        0.0000        5.9877        5.9877       5.982925       0.22503
  40    0.5894        0.0047        0.0000        5.9836        5.9836       5.978893       0.21442
  39     1.339        0.0047        0.0000        5.9651        5.9651       5.960383       0.20839
  38     1.782        0.0047        0.0000        5.9549        5.9549       5.950166       0.19451
  37     2.292        0.0058        0.0000        1.1848        1.1848       1.178985      79.02321
  36     2.964        0.0062        0.0000        1.0865        1.0865       1.080332       1.23838
  35     3.853        0.0064        0.0000        1.0430        1.0430       1.036597       0.41506
  34     5.035        0.0065        0.0000        1.0193        1.0193       1.012801       0.16999
  33     6.613        0.0066        0.0000        1.0055        1.0055       0.998920       0.07421
  32     8.786        0.0067        0.0000        0.9974        0.9974       0.990709       0.03189
  31     11.80        0.0067        0.0000        0.9923        0.9923       0.985563       0.01441
  30     15.07        0.0067        0.0000        0.9896        0.9896       0.982860       0.00698
  29     18.79        0.0067        0.0000        0.9879        0.9879       0.981217       0.00373
  28     23.16        0.0067        0.0000        0.9868        0.9868       0.980072       0.00221
  27     28.12        0.0067        0.0000        0.9859        0.9859       0.979208       0.00147
  26     33.73        0.0067        0.0000        0.9853        0.9853       0.978544       0.00100
  25     40.54        0.0067        0.0000        0.9844        0.9844       0.977630       0.00113
  24     48.69        0.0068        0.0000        0.9836        0.9836       0.976850       0.00081
  23     57.69        0.0068        0.0000        0.9830        0.9830       0.976239       0.00057
  22     68.43        0.0068        0.0000        0.9825        0.9825       0.975714       0.00041
  21     81.20        0.0068        0.0000        0.9820        0.9820       0.975264       0.00030
  20     96.49        0.0068        0.0000        0.9816        0.9816       0.974871       0.00022
  19     114.6        0.0068        0.0000        0.9813        0.9813       0.974561       0.00014
  18     136.5        0.0068        0.0000        0.9810        0.9810       0.974236       0.00013
  17     162.9        0.0068        0.0000        0.9807        0.9807       0.973932       0.00010
  16     196.4        0.0068        0.0000        0.9804        0.9804       0.973633       0.00008
  15     218.7        0.0068        0.0000        0.9802        0.9802       0.973437       0.00007
  14     243.0        0.0068        0.0000        0.9800        0.9800       0.973280       0.00005
  13     269.0        0.0068        0.0000        0.9798        0.9798       0.973070       0.00007
  12     297.5        0.0068        0.0000        0.9795        0.9795       0.972739       0.00010
  11     328.5        0.0068        0.0000        0.9790        0.9790       0.972213       0.00014
  10     361.9        0.0068        0.0000        0.9781        0.9781       0.971349       0.00022
   9     398.1        0.0068        0.0000        0.9768        0.9768       0.969977       0.00032
   8     437.6        0.0068        0.0000        0.9747        0.9747       0.967904       0.00044
   7     480.5        0.0068        0.0000        0.9716        0.9716       0.964808       0.00061
   6     533.0        0.0069        0.0000        0.9660        0.9660       0.959164       0.00091
   5     589.8        0.0069        0.0000        0.9573        0.9573       0.950359       0.00131
   4     651.6        0.0070        0.0000        0.9425        0.9425       0.935512       0.00203
   3     718.7        0.0072        0.0000        0.9205        0.9205       0.913329       0.00279
   2     792.3        0.0074        0.0000        0.8890        0.8890       0.881665       0.00363
   1     891.5        0.0078        0.0000        0.8331        0.8331       0.825300       0.00480
   0    1013.0        0.0086        0.0000        0.7526        0.7526       0.744068       0.00564

  Modules and versions used in this calculation:

       rrtmg_sw.1col.f90:  $Revision$                    rrtmg_sw_init.f90:  $Revision$        
     rrtmgsw_cldprop.f90:  $Revision$                  rrtmgsw_cldprmc.f90:  NOT USED          
     rrtmg_sw_reftra.f90:  $Revision$                  rrtmg_sw_spcvrt.f90:  NOT USED          
     rrtmg_sw_spcvmc.f90:  NOT USED                    rrtmgsw_setcoef.f90:  NOT USED          
     rrtmg_sw_taumol.f90:  $Revision$                  rrtmg_sw_vrtqdr.f90:  NOT USED          
                rrtatm.f:  NOT USED                             util_xxx.f:  NOT USED          
                 extra.f:  NOT USED                       rrtmg_sw_k_g.f90:  $Revision$        

