

 Wavenumbers:   820. - 50000. cm-1, ATM      1
 LEVEL PRESSURE   UPWARD FLUX   DIFDOWN FLUX  DIRDOWN FLUX  DOWNWARD FLUX   NET FLUX    HEATING RATE
          mb          W/m2          W/m2          W/m2        W/m2          W/m2       degree/day
  51    .06700      429.4545        0.0000      617.8126      617.8126     188.358101       0.00000
  50    .07753      429.4541        0.0014      617.7948      617.7962     188.342090      12.83369
  49    .09103      429.4537        0.0031      617.7782      617.7812     188.327549       9.08811
  48    0.1069      429.4532        0.0050      617.7588      617.7639     188.310645       8.99850
  47    0.1255      429.4527        0.0073      617.7352      617.7424     188.289722       9.48542
  46    0.1487      429.4522        0.0101      617.7026      617.7127     188.260574      10.62480
  45    0.1794      429.4515        0.0140      617.6546      617.6685     188.217069      11.94309
  44    0.2165      429.4508        0.0185      617.5929      617.6114     188.160609      12.84356
  43    0.2613      429.4502        0.0239      617.5134      617.5373     188.087139      13.84875
  42    0.3336      429.4494        0.0328      617.3705      617.4032     187.953836      15.54193
  41    0.4307      429.4489        0.0445      617.1680      617.2125     187.763631      16.53788
  40    0.5894      429.4490        0.0633      616.8137      616.8770     187.427943      17.85147
  39     1.339      429.4686        0.1486      614.9759      615.1245     185.655810      19.95100
  38     1.782      429.4934        0.1966      614.0082      614.2048     184.711409      17.97987
  37     2.292      429.5308        0.2710      602.9252      603.1962     173.665471     182.94955
  36     2.964      429.6011        0.3481      601.1138      601.4619     171.860806      22.65400
  35     3.853      429.7196        0.4441      599.6244      600.0685     170.348891      14.34835
  34     5.035      429.9018        0.5683      598.1808      598.7492     168.847361      10.72631
  33     6.613      430.1584        0.7321      596.7131      597.4452     167.286790       8.34282
  32     8.786      430.4926        0.9511      595.1790      596.1301     165.637511       6.40520
  31     11.80      430.9256        1.2626      593.4486      594.7112     163.785576       5.18484
  30     15.07      431.3382        1.5951      591.9136      593.5087     162.170488       4.16984
  29     18.79      431.7573        1.9689      590.4038      592.3727     160.615406       3.52585
  28     23.16      432.1929        2.4033      588.8383      591.2416     159.048679       3.02954
  27     28.12      432.6278        2.8977      587.2304      590.1282     157.500400       2.63197
  26     33.73      433.0221        3.4490      585.6362      589.0853     156.063177       2.16090
  25     40.54      433.3909        4.1128      583.9021      588.0149     154.623967       1.78550
  24     48.69      433.7313        4.9093      582.0132      586.9225     153.191205       1.48268
  23     57.69      434.0041        5.7801      580.1230      585.9032     151.899052       1.21120
  22     68.43      434.2194        6.8118      578.0651      584.8769     150.657540       0.97599
  21     81.20      434.3235        8.0351      575.8612      583.8963     149.572763       0.71680
  20     96.49      434.3065        9.4836      573.4655      582.9491     148.642638       0.51336
  19     114.6      434.2269       11.1876      570.7119      581.8995     147.672571       0.45295
  18     136.5      434.0865       13.1831      567.5768      580.7599     146.673388       0.38421
  17     162.9      433.8797       15.5252      563.9822      579.5074     145.627760       0.33422
  16     196.4      433.5206       18.5126      559.5365      578.0491     144.528466       0.27671
  15     218.7      433.2549       20.4444      556.6528      577.0972     143.842317       0.26051
  14     243.0      432.9547       22.5169      553.5890      576.1059     143.151155       0.23972
  13     269.0      432.6192       24.7317      550.2592      574.9909     142.371709       0.25285
  12     297.5      432.2490       27.0898      546.6174      573.7072     141.458241       0.27092
  11     328.5      431.8527       29.5977      542.5821      572.1798     140.327095       0.30756
  10     361.9      431.4339       32.2514      538.0698      570.3212     138.887290       0.36428
   9     398.1      430.9966       35.0562      532.9723      568.0285     137.031858       0.43227
   8     437.6      430.5497       38.0111      527.1828      565.1940     134.644204       0.51050
   7     480.5      430.1037       41.1146      520.6158      561.7304     131.626708       0.59262
   6     533.0      429.6150       44.8475      512.1018      556.9493     127.334289       0.69051
   5     589.8      429.1827       48.7676      502.5770      551.3446     122.161974       0.76774
   4     651.6      428.8604       52.8683      492.0836      544.9519     116.091516       0.83015
   3     718.7      428.7061       57.1440      480.9132      538.0572     109.351120       0.84708
   2     792.3      428.8280       61.5789      469.1656      530.7445     101.916502       0.85267
   1     891.5      429.5734       67.3404      454.0117      521.3522      91.778755       0.86267
   0    1013.0      431.5910       73.9489      437.1243      511.0732      79.482154       0.85382



 Wavenumbers:  2600. -  3250. cm-1, ATM      1
 LEVEL PRESSURE   UPWARD FLUX   DIFDOWN FLUX  DIRDOWN FLUX  DOWNWARD FLUX   NET FLUX    HEATING RATE
          mb          W/m2          W/m2          W/m2        W/m2          W/m2       degree/day
  51    .06700        0.0468        0.0000        5.4450        5.4450       5.398283       0.00000
  50    .07753        0.0468        0.0000        5.4450        5.4450       5.398275       0.00640
  49    .09103        0.0468        0.0000        5.4450        5.4450       5.398265       0.00627
  48    0.1069        0.0468        0.0000        5.4450        5.4450       5.398254       0.00613
  47    0.1255        0.0468        0.0000        5.4450        5.4450       5.398241       0.00599
  46    0.1487        0.0468        0.0000        5.4450        5.4450       5.398224       0.00608
  45    0.1794        0.0468        0.0000        5.4450        5.4450       5.398201       0.00625
  44    0.2165        0.0468        0.0000        5.4449        5.4449       5.398174       0.00612
  43    0.2613        0.0468        0.0000        5.4449        5.4449       5.398143       0.00600
  42    0.3336        0.0468        0.0000        5.4448        5.4448       5.398090       0.00617
  41    0.4307        0.0468        0.0000        5.4448        5.4448       5.398018       0.00620
  40    0.5894        0.0468        0.0000        5.4446        5.4446       5.397899       0.00637
  39     1.339        0.0468        0.0000        5.4439        5.4439       5.397191       0.00797
  38     1.782        0.0468        0.0000        5.4434        5.4434       5.396648       0.01034
  37     2.292        0.0467        0.0000        5.4427        5.4427       5.395932       0.01186
  36     2.964        0.0467        0.0000        5.4416        5.4416       5.394894       0.01304
  35     3.853        0.0467        0.0000        5.4402        5.4402       5.393416       0.01402
  34     5.035        0.0467        0.0000        5.4381        5.4381       5.391361       0.01468
  33     6.613        0.0467        0.0000        5.4353        5.4353       5.388580       0.01487
  32     8.786        0.0467        0.0000        5.4317        5.4317       5.384948       0.01411
  31     11.80        0.0467        0.0000        5.4269        5.4269       5.380168       0.01338
  30     15.07        0.0467        0.0000        5.4224        5.4224       5.375641       0.01169
  29     18.79        0.0467        0.0000        5.4180        5.4180       5.371230       0.01000
  28     23.16        0.0467        0.0000        5.4135        5.4135       5.366745       0.00867
  27     28.12        0.0467        0.0000        5.4088        5.4088       5.362098       0.00790
  26     33.73        0.0467        0.0000        5.4036        5.4036       5.356858       0.00788
  25     40.54        0.0467        0.0000        5.3966        5.3967       5.349918       0.00861
  24     48.69        0.0467        0.0000        5.3872        5.3872       5.340444       0.00980
  23     57.69        0.0467        0.0000        5.3754        5.3754       5.328664       0.01104
  22     68.43        0.0467        0.0000        5.3599        5.3599       5.313181       0.01217
  21     81.20        0.0467        0.0000        5.3401        5.3401       5.293354       0.01310
  20     96.49        0.0467        0.0000        5.3155        5.3155       5.268797       0.01355
  19     114.6        0.0467        0.0000        5.2825        5.2826       5.235852       0.01538
  18     136.5        0.0467        0.0000        5.2456        5.2456       5.198886       0.01421
  17     162.9        0.0467        0.0001        5.2052        5.2053       5.158551       0.01289
  16     196.4        0.0468        0.0001        5.1590        5.1591       5.112301       0.01164
  15     218.7        0.0468        0.0001        5.1308        5.1309       5.084151       0.01069
  14     243.0        0.0468        0.0001        5.1033        5.1034       5.056645       0.00954
  13     269.0        0.0468        0.0001        5.0747        5.0748       5.027982       0.00930
  12     297.5        0.0468        0.0001        5.0440        5.0441       4.997230       0.00912
  11     328.5        0.0469        0.0001        5.0094        5.0095       4.962630       0.00941
  10     361.9        0.0469        0.0001        4.9703        4.9704       4.923492       0.00990
   9     398.1        0.0470        0.0001        4.9242        4.9244       4.877373       0.01074
   8     437.6        0.0471        0.0001        4.8679        4.8681       4.820964       0.01206
   7     480.5        0.0473        0.0002        4.7975        4.7977       4.750401       0.01386
   6     533.0        0.0475        0.0002        4.6948        4.6950       4.647444       0.01656
   5     589.8        0.0479        0.0002        4.5646        4.5648       4.516910       0.01938
   4     651.6        0.0483        0.0002        4.4052        4.4054       4.357015       0.02187
   3     718.7        0.0490        0.0002        4.2221        4.2223       4.173289       0.02309
   2     792.3        0.0500        0.0002        4.0224        4.0226       3.972629       0.02301
   1     891.5        0.0517        0.0002        3.7655        3.7657       3.714033       0.02201
   0    1013.0        0.0548        0.0002        3.4873        3.4876       3.432822       0.01953



 Wavenumbers:  3250. -  4000. cm-1, ATM      1
 LEVEL PRESSURE   UPWARD FLUX   DIFDOWN FLUX  DIRDOWN FLUX  DOWNWARD FLUX   NET FLUX    HEATING RATE
          mb          W/m2          W/m2          W/m2        W/m2          W/m2       degree/day
  51    .06700        0.0131        0.0000        9.1795        9.1795       9.166387       0.00000
  50    .07753        0.0131        0.0000        9.1747        9.1747       9.161518       3.90273
  49    .09103        0.0131        0.0000        9.1713        9.1713       9.158199       2.07457
  48    0.1069        0.0131        0.0000        9.1689        9.1689       9.155792       1.28104
  47    0.1255        0.0131        0.0000        9.1668        9.1668       9.153672       0.96115
  46    0.1487        0.0131        0.0000        9.1645        9.1645       9.151400       0.82824
  45    0.1794        0.0131        0.0000        9.1619        9.1619       9.148731       0.73284
  44    0.2165        0.0131        0.0000        9.1592        9.1592       9.146042       0.61164
  43    0.2613        0.0131        0.0000        9.1565        9.1565       9.143345       0.50838
  42    0.3336        0.0131        0.0000        9.1528        9.1528       9.139648       0.43100
  41    0.4307        0.0131        0.0000        9.1487        9.1487       9.135550       0.35633
  40    0.5894        0.0131        0.0000        9.1428        9.1428       9.129658       0.31334
  39     1.339        0.0131        0.0000        9.1196        9.1196       9.106476       0.26098
  38     1.782        0.0131        0.0000        9.1090        9.1090       9.095893       0.20149
  37     2.292        0.0132        0.0000        7.4630        7.4630       7.449835      27.26302
  36     2.964        0.0132        0.0000        7.2141        7.2141       7.200966       3.12406
  35     3.853        0.0132        0.0000        7.0784        7.0784       7.065277       1.28772
  34     5.035        0.0132        0.0000        6.9879        6.9879       6.974737       0.64677
  33     6.613        0.0132        0.0000        6.9217        6.9217       6.908510       0.35405
  32     8.786        0.0132        0.0000        6.8699        6.8700       6.856792       0.20086
  31     11.80        0.0132        0.0000        6.8240        6.8240       6.810883       0.12853
  30     15.07        0.0132        0.0000        6.7881        6.7881       6.774948       0.09277
  29     18.79        0.0132        0.0000        6.7555        6.7555       6.742323       0.07397
  28     23.16        0.0132        0.0000        6.7241        6.7241       6.710962       0.06064
  27     28.12        0.0132        0.0000        6.6914        6.6915       6.678328       0.05548
  26     33.73        0.0131        0.0000        6.6583        6.6584       6.645240       0.04975
  25     40.54        0.0131        0.0000        6.6093        6.6094       6.596233       0.06080
  24     48.69        0.0131        0.0001        6.5552        6.5553       6.542129       0.05599
  23     57.69        0.0131        0.0001        6.4997        6.4998       6.486671       0.05198
  22     68.43        0.0131        0.0001        6.4397        6.4397       6.426622       0.04721
  21     81.20        0.0131        0.0001        6.3778        6.3778       6.364743       0.04089
  20     96.49        0.0131        0.0001        6.3126        6.3127       6.299611       0.03595
  19     114.6        0.0131        0.0001        6.2281        6.2282       6.215141       0.03944
  18     136.5        0.0131        0.0001        6.1352        6.1353       6.122248       0.03572
  17     162.9        0.0130        0.0002        6.0350        6.0352       6.022136       0.03200
  16     196.4        0.0130        0.0002        5.9133        5.9135       5.900497       0.03062
  15     218.7        0.0130        0.0002        5.8119        5.8121       5.799086       0.03850
  14     243.0        0.0130        0.0002        5.7130        5.7132       5.700212       0.03429
  13     269.0        0.0129        0.0002        5.5871        5.5874       5.574449       0.04080
  12     297.5        0.0129        0.0003        5.4280        5.4283       5.415374       0.04718
  11     328.5        0.0129        0.0003        5.2254        5.2257       5.212743       0.05509
  10     361.9        0.0129        0.0003        4.9644        4.9647       4.951814       0.06602
   9     398.1        0.0129        0.0003        4.6401        4.6404       4.627511       0.07556
   8     437.6        0.0129        0.0003        4.2585        4.2588       4.245921       0.08159
   7     480.5        0.0130        0.0003        3.8417        3.8420       3.829051       0.08187
   6     533.0        0.0131        0.0003        3.3582        3.3585       3.345398       0.07780
   5     589.8        0.0133        0.0003        2.8924        2.8927       2.879362       0.06917
   4     651.6        0.0137        0.0003        2.4501        2.4503       2.436651       0.06054
   3     718.7        0.0143        0.0002        2.0450        2.0453       2.030972       0.05098
   2     792.3        0.0153        0.0002        1.6747        1.6750       1.659648       0.04259
   1     891.5        0.0176        0.0002        1.2658        1.2660       1.248386       0.03500
   0    1013.0        0.0229        0.0002        0.8853        0.8854       0.862477       0.02680



 Wavenumbers:  4000. -  4650. cm-1, ATM      1
 LEVEL PRESSURE   UPWARD FLUX   DIFDOWN FLUX  DIRDOWN FLUX  DOWNWARD FLUX   NET FLUX    HEATING RATE
          mb          W/m2          W/m2          W/m2        W/m2          W/m2       degree/day
  51    .06700        1.5370        0.0000       10.7795       10.7795       9.242531       0.00000
  50    .07753        1.5370        0.0000       10.7795       10.7795       9.242530       0.00082
  49    .09103        1.5370        0.0000       10.7795       10.7795       9.242528       0.00080
  48    0.1069        1.5370        0.0000       10.7795       10.7795       9.242527       0.00078
  47    0.1255        1.5370        0.0000       10.7795       10.7795       9.242525       0.00077
  46    0.1487        1.5370        0.0000       10.7795       10.7795       9.242523       0.00078
  45    0.1794        1.5370        0.0000       10.7795       10.7795       9.242520       0.00080
  44    0.2165        1.5370        0.0000       10.7795       10.7795       9.242517       0.00078
  43    0.2613        1.5370        0.0000       10.7795       10.7795       9.242513       0.00077
  42    0.3336        1.5370        0.0000       10.7795       10.7795       9.242506       0.00079
  41    0.4307        1.5370        0.0000       10.7795       10.7795       9.242497       0.00080
  40    0.5894        1.5370        0.0000       10.7795       10.7795       9.242481       0.00082
  39     1.339        1.5370        0.0000       10.7794       10.7794       9.242389       0.00103
  38     1.782        1.5370        0.0000       10.7793       10.7793       9.242317       0.00137
  37     2.292        1.5370        0.0000       10.7792       10.7792       9.242221       0.00160
  36     2.964        1.5370        0.0000       10.7791       10.7791       9.242077       0.00181
  35     3.853        1.5370        0.0000       10.7788       10.7789       9.241863       0.00203
  34     5.035        1.5370        0.0000       10.7785       10.7785       9.241548       0.00225
  33     6.613        1.5370        0.0000       10.7781       10.7781       9.241084       0.00248
  32     8.786        1.5370        0.0000       10.7774       10.7774       9.240400       0.00266
  31     11.80        1.5370        0.0000       10.7763       10.7763       9.239324       0.00301
  30     15.07        1.5370        0.0001       10.7750       10.7750       9.238062       0.00326
  29     18.79        1.5370        0.0001       10.7734       10.7735       9.236536       0.00346
  28     23.16        1.5370        0.0001       10.7715       10.7716       9.234640       0.00367
  27     28.12        1.5370        0.0001       10.7692       10.7693       9.232345       0.00390
  26     33.73        1.5370        0.0001       10.7664       10.7665       9.229513       0.00426
  25     40.54        1.5370        0.0002       10.7625       10.7627       9.225670       0.00477
  24     48.69        1.5370        0.0002       10.7574       10.7576       9.220548       0.00530
  23     57.69        1.5370        0.0002       10.7513       10.7515       9.214471       0.00570
  22     68.43        1.5371        0.0003       10.7437       10.7439       9.206852       0.00599
  21     81.20        1.5372        0.0003       10.7343       10.7346       9.197466       0.00620
  20     96.49        1.5373        0.0004       10.7230       10.7233       9.186042       0.00631
  19     114.6        1.5375        0.0004       10.7071       10.7076       9.170033       0.00747
  18     136.5        1.5378        0.0005       10.6886       10.6891       9.151268       0.00722
  17     162.9        1.5383        0.0006       10.6667       10.6674       9.129086       0.00709
  16     196.4        1.5389        0.0007       10.6383       10.6390       9.100111       0.00729
  15     218.7        1.5394        0.0008       10.6184       10.6193       9.079864       0.00769
  14     243.0        1.5400        0.0009       10.5968       10.5978       9.057742       0.00767
  13     269.0        1.5408        0.0010       10.5718       10.5728       9.032009       0.00835
  12     297.5        1.5417        0.0011       10.5424       10.5435       9.001794       0.00896
  11     328.5        1.5430        0.0012       10.5078       10.5090       8.966086       0.00971
  10     361.9        1.5445        0.0014       10.4670       10.4683       8.923793       0.01070
   9     398.1        1.5465        0.0015       10.4182       10.4197       8.873173       0.01179
   8     437.6        1.5491        0.0016       10.3592       10.3608       8.811685       0.01315
   7     480.5        1.5525        0.0018       10.2861       10.2879       8.735407       0.01498
   6     533.0        1.5575        0.0020       10.1804       10.1823       8.624823       0.01779
   5     589.8        1.5643        0.0021       10.0471       10.0492       8.484912       0.02077
   4     651.6        1.5733        0.0023        9.8856        9.8879       8.314611       0.02329
   3     718.7        1.5852        0.0025        9.7039        9.7064       8.121230       0.02430
   2     792.3        1.6011        0.0027        9.5060        9.5087       7.907611       0.02450
   1     891.5        1.6291        0.0030        9.2401        9.2431       7.613984       0.02499
   0    1013.0        1.6758        0.0033        8.9160        8.9193       7.243467       0.02573



 Wavenumbers:  4650. -  5150. cm-1, ATM      1
 LEVEL PRESSURE   UPWARD FLUX   DIFDOWN FLUX  DIRDOWN FLUX  DOWNWARD FLUX   NET FLUX    HEATING RATE
          mb          W/m2          W/m2          W/m2        W/m2          W/m2       degree/day
  51    .06700        0.3864        0.0000       10.2033       10.2033       9.816907       0.00000
  50    .07753        0.3864        0.0000       10.2031       10.2031       9.816677       0.18436
  49    .09103        0.3864        0.0000       10.2028       10.2028       9.816390       0.17976
  48    0.1069        0.3864        0.0000       10.2025       10.2025       9.816061       0.17493
  47    0.1255        0.3864        0.0000       10.2021       10.2021       9.815686       0.17001
  46    0.1487        0.3864        0.0000       10.2017       10.2017       9.815217       0.17110
  45    0.1794        0.3864        0.0000       10.2010       10.2010       9.814582       0.17419
  44    0.2165        0.3864        0.0000       10.2003       10.2003       9.813841       0.16861
  43    0.2613        0.3864        0.0000       10.1994       10.1994       9.812977       0.16290
  42    0.3336        0.3864        0.0000       10.1980       10.1980       9.811578       0.16304
  41    0.4307        0.3864        0.0000       10.1962       10.1962       9.809782       0.15623
  40    0.5894        0.3864        0.0000       10.1934       10.1934       9.806975       0.14924
  39     1.339        0.3864        0.0000       10.1821       10.1821       9.795649       0.12751
  38     1.782        0.3864        0.0000       10.1767       10.1767       9.790243       0.10291
  37     2.292        0.3864        0.0000       10.1713       10.1713       9.784906       0.08840
  36     2.964        0.3864        0.0000       10.1655       10.1655       9.779108       0.07278
  35     3.853        0.3864        0.0000       10.1594       10.1594       9.773018       0.05780
  34     5.035        0.3864        0.0000       10.1532       10.1532       9.766798       0.04443
  33     6.613        0.3864        0.0000       10.1468       10.1468       9.760443       0.03398
  32     8.786        0.3864        0.0001       10.1399       10.1399       9.753521       0.02688
  31     11.80        0.3864        0.0001       10.1309       10.1310       9.744574       0.02505
  30     15.07        0.3864        0.0001       10.1211       10.1212       9.734784       0.02527
  29     18.79        0.3864        0.0001       10.1091       10.1092       9.722882       0.02699
  28     23.16        0.3863        0.0001       10.0939       10.0940       9.707712       0.02934
  27     28.12        0.3863        0.0002       10.0750       10.0751       9.688785       0.03217
  26     33.73        0.3863        0.0002       10.0520       10.0522       9.665894       0.03442
  25     40.54        0.3863        0.0002       10.0223       10.0226       9.636256       0.03677
  24     48.69        0.3863        0.0003        9.9844        9.9847       9.598426       0.03915
  23     57.69        0.3863        0.0003        9.9412        9.9416       9.555280       0.04044
  22     68.43        0.3863        0.0004        9.8889        9.8893       9.503031       0.04108
  21     81.20        0.3863        0.0004        9.8271        9.8275       9.441221       0.04084
  20     96.49        0.3863        0.0005        9.7559        9.7564       9.370090       0.03926
  19     114.6        0.3864        0.0006        9.6760        9.6766       9.290269       0.03727
  18     136.5        0.3864        0.0007        9.5900        9.5907       9.204286       0.03306
  17     162.9        0.3866        0.0009        9.4986        9.4995       9.112887       0.02921
  16     196.4        0.3868        0.0010        9.3935        9.3945       9.007692       0.02648
  15     218.7        0.3870        0.0011        9.3291        9.3302       8.943220       0.02448
  14     243.0        0.3872        0.0012        9.2613        9.2625       8.875267       0.02357
  13     269.0        0.3875        0.0014        9.1883        9.1896       8.802102       0.02373
  12     297.5        0.3879        0.0015        9.1082        9.1097       8.721727       0.02384
  11     328.5        0.3885        0.0016        9.0190        9.0207       8.632228       0.02433
  10     361.9        0.3891        0.0018        8.9187        8.9205       8.531382       0.02552
   9     398.1        0.3900        0.0020        8.8050        8.8069       8.416964       0.02666
   8     437.6        0.3911        0.0021        8.6750        8.6771       8.286062       0.02799
   7     480.5        0.3925        0.0023        8.5266        8.5289       8.136361       0.02940
   6     533.0        0.3948        0.0025        8.3320        8.3345       7.939736       0.03163
   5     589.8        0.3977        0.0027        8.1135        8.1161       7.718455       0.03285
   4     651.6        0.4016        0.0029        7.8689        7.8718       7.470228       0.03395
   3     718.7        0.4067        0.0031        7.6040        7.6071       7.200338       0.03392
   2     792.3        0.4136        0.0033        7.3220        7.3253       6.911640       0.03311
   1     891.5        0.4257        0.0035        6.9547        6.9581       6.532466       0.03227
   0    1013.0        0.4454        0.0037        6.5477        6.5515       6.106036       0.02961



 Wavenumbers:  5150. -  6150. cm-1, ATM      1
 LEVEL PRESSURE   UPWARD FLUX   DIFDOWN FLUX  DIRDOWN FLUX  DOWNWARD FLUX   NET FLUX    HEATING RATE
          mb          W/m2          W/m2          W/m2        W/m2          W/m2       degree/day
  51    .06700        3.2130        0.0000       25.5798       25.5798      22.366820       0.00000
  50    .07753        3.2130        0.0000       25.5798       25.5798      22.366819       0.00020
  49    .09103        3.2130        0.0000       25.5798       25.5798      22.366819       0.00020
  48    0.1069        3.2130        0.0000       25.5798       25.5798      22.366819       0.00019
  47    0.1255        3.2130        0.0000       25.5798       25.5798      22.366818       0.00019
  46    0.1487        3.2130        0.0000       25.5798       25.5798      22.366818       0.00019
  45    0.1794        3.2130        0.0000       25.5798       25.5798      22.366817       0.00020
  44    0.2165        3.2130        0.0000       25.5798       25.5798      22.366816       0.00019
  43    0.2613        3.2130        0.0000       25.5798       25.5798      22.366815       0.00019
  42    0.3336        3.2130        0.0000       25.5798       25.5798      22.366814       0.00019
  41    0.4307        3.2130        0.0000       25.5798       25.5798      22.366811       0.00020
  40    0.5894        3.2130        0.0000       25.5798       25.5798      22.366807       0.00020
  39     1.339        3.2130        0.0000       25.5797       25.5798      22.366785       0.00026
  38     1.782        3.2130        0.0000       25.5797       25.5797      22.366767       0.00034
  37     2.292        3.2136        0.0001       24.0261       24.0261      20.812557      25.74177
  36     2.964        3.2138        0.0001       23.8484       23.8485      20.634695       2.23271
  35     3.853        3.2140        0.0001       23.7619       23.7621      20.548091       0.82188
  34     5.035        3.2141        0.0001       23.7080       23.7081      20.494046       0.38608
  33     6.613        3.2141        0.0002       23.6710       23.6712      20.457051       0.19777
  32     8.786        3.2142        0.0002       23.6447       23.6449      20.430700       0.10234
  31     11.80        3.2142        0.0003       23.6243       23.6246      20.410411       0.05680
  30     15.07        3.2142        0.0004       23.6112       23.6116      20.397318       0.03380
  29     18.79        3.2142        0.0005       23.6014       23.6019      20.387659       0.02190
  28     23.16        3.2142        0.0006       23.5932       23.5938      20.379547       0.01568
  27     28.12        3.2142        0.0007       23.5857       23.5865      20.372209       0.01247
  26     33.73        3.2142        0.0009       23.5788       23.5796      20.365398       0.01024
  25     40.54        3.2143        0.0010       23.5678       23.5688      20.354532       0.01348
  24     48.69        3.2143        0.0012       23.5564       23.5576      20.343304       0.01162
  23     57.69        3.2144        0.0014       23.5456       23.5471      20.332698       0.00994
  22     68.43        3.2145        0.0017       23.5346       23.5363      20.321809       0.00856
  21     81.20        3.2146        0.0020       23.5232       23.5252      20.310600       0.00741
  20     96.49        3.2147        0.0024       23.5113       23.5137      20.298939       0.00644
  19     114.6        3.2149        0.0029       23.4980       23.5009      20.285991       0.00605
  18     136.5        3.2151        0.0034       23.4829       23.4863      20.271178       0.00570
  17     162.9        3.2154        0.0040       23.4658       23.4698      20.254406       0.00536
  16     196.4        3.2158        0.0049       23.4429       23.4477      20.231978       0.00565
  15     218.7        3.2160        0.0054       23.4208       23.4262      20.210168       0.00828
  14     243.0        3.2163        0.0060       23.3961       23.4021      20.185806       0.00845
  13     269.0        3.2167        0.0067       23.3560       23.3626      20.145948       0.01293
  12     297.5        3.2171        0.0073       23.2900       23.2973      20.080169       0.01951
  11     328.5        3.2177        0.0081       23.1831       23.1911      19.973426       0.02902
  10     361.9        3.2185        0.0088       23.0131       23.0220      19.803468       0.04300
   9     398.1        3.2195        0.0096       22.7513       22.7610      19.541432       0.06105
   8     437.6        3.2210        0.0104       22.3663       22.3767      19.155754       0.08246
   7     480.5        3.2231        0.0112       21.8357       21.8469      18.623810       0.10447
   6     533.0        3.2267        0.0120       21.0556       21.0676      17.840981       0.12593
   5     589.8        3.2323        0.0128       20.1394       20.1522      16.919910       0.13672
   4     651.6        3.2413        0.0135       19.1283       19.1418      15.900518       0.13940
   3     718.7        3.2553        0.0142       18.1110       18.1252      14.869875       0.12952
   2     792.3        3.2777        0.0149       17.1410       17.1559      13.878206       0.11373
   1     891.5        3.3255        0.0158       16.0927       16.1085      12.783032       0.09319
   0    1013.0        3.4314        0.0170       15.1899       15.2070      11.775570       0.06995



 Wavenumbers:  6150. -  7700. cm-1, ATM      1
 LEVEL PRESSURE   UPWARD FLUX   DIFDOWN FLUX  DIRDOWN FLUX  DOWNWARD FLUX   NET FLUX    HEATING RATE
          mb          W/m2          W/m2          W/m2        W/m2          W/m2       degree/day
  51    .06700        6.0255        0.0000       47.3109       47.3109      41.285302       0.00000
  50    .07753        6.0255        0.0000       47.3108       47.3108      41.285286       0.01303
  49    .09103        6.0255        0.0000       47.3108       47.3108      41.285265       0.01277
  48    0.1069        6.0255        0.0000       47.3108       47.3108      41.285242       0.01250
  47    0.1255        6.0255        0.0000       47.3108       47.3108      41.285215       0.01223
  46    0.1487        6.0255        0.0000       47.3107       47.3107      41.285181       0.01241
  45    0.1794        6.0255        0.0000       47.3107       47.3107      41.285134       0.01276
  44    0.2165        6.0255        0.0000       47.3106       47.3106      41.285079       0.01252
  43    0.2613        6.0255        0.0000       47.3105       47.3105      41.285014       0.01228
  42    0.3336        6.0255        0.0000       47.3104       47.3104      41.284906       0.01256
  41    0.4307        6.0255        0.0000       47.3102       47.3103      41.284764       0.01242
  40    0.5894        6.0255        0.0001       47.3100       47.3100      41.284530       0.01240
  39     1.339        6.0254        0.0001       47.3087       47.3089      41.283429       0.01240
  38     1.782        6.0254        0.0002       47.3080       47.3082      41.282783       0.01230
  37     2.292        6.0265        0.0003       44.2828       44.2830      38.256521      50.12279
  36     2.964        6.0269        0.0003       44.0596       44.0599      38.033017       2.80565
  35     3.853        6.0271        0.0004       43.9585       43.9589      37.931763       0.96092
  34     5.035        6.0273        0.0006       43.8971       43.8977      37.870405       0.43831
  33     6.613        6.0273        0.0007       43.8557       43.8564      37.829122       0.22070
  32     8.786        6.0272        0.0010       43.8263       43.8273      37.800051       0.11290
  31     11.80        6.0270        0.0013       43.8037       43.8050      37.777941       0.06190
  30     15.07        6.0268        0.0016       43.7891       43.7907      37.763871       0.03632
  29     18.79        6.0265        0.0020       43.7781       43.7802      37.753636       0.02321
  28     23.16        6.0262        0.0025       43.7689       43.7713      37.745150       0.01641
  27     28.12        6.0258        0.0030       43.7603       43.7634      37.737559       0.01290
  26     33.73        6.0253        0.0036       43.7524       43.7560      37.730666       0.01036
  25     40.54        6.0248        0.0043       43.7402       43.7445      37.719748       0.01355
  24     48.69        6.0241        0.0052       43.7277       43.7329      37.708760       0.01137
  23     57.69        6.0234        0.0061       43.7158       43.7220      37.698582       0.00954
  22     68.43        6.0225        0.0073       43.7035       43.7108      37.688252       0.00812
  21     81.20        6.0215        0.0086       43.6905       43.6991      37.677622       0.00702
  20     96.49        6.0202        0.0102       43.6764       43.6866      37.666429       0.00618
  19     114.6        6.0187        0.0122       43.6589       43.6711      37.652383       0.00656
  18     136.5        6.0170        0.0144       43.6379       43.6524      37.635407       0.00653
  17     162.9        6.0149        0.0172       43.6125       43.6297      37.614847       0.00657
  16     196.4        6.0122        0.0207       43.5768       43.5976      37.585362       0.00742
  15     218.7        6.0105        0.0230       43.5426       43.5657      37.555153       0.01147
  14     243.0        6.0087        0.0256       43.5037       43.5292      37.520544       0.01200
  13     269.0        6.0069        0.0283       43.4431       43.4714      37.464517       0.01818
  12     297.5        6.0051        0.0312       43.3470       43.3782      37.373142       0.02710
  11     328.5        6.0034        0.0344       43.1946       43.2289      37.225518       0.04014
  10     361.9        6.0022        0.0377       42.9540       42.9917      36.989545       0.05970
   9     398.1        6.0017        0.0412       42.5808       42.6220      36.620251       0.08604
   8     437.6        6.0025        0.0447       42.0206       42.0654      36.062846       0.11918
   7     480.5        6.0055        0.0482       41.2176       41.2658      35.260381       0.15760
   6     533.0        6.0131        0.0521       39.9644       40.0165      34.003362       0.20221
   5     589.8        6.0279        0.0556       38.3896       38.4453      32.417331       0.23542
   4     651.6        6.0547        0.0589       36.5620       36.6209      30.566261       0.25314
   3     718.7        6.0989        0.0619       34.6428       34.7047      28.605735       0.24638
   2     792.3        6.1713        0.0647       32.6927       32.7574      26.586097       0.23163
   1     891.5        6.3249        0.0681       30.3700       30.4381      24.113205       0.21043
   0    1013.0        6.6441        0.0721       28.0810       28.1532      21.509054       0.18082



 Wavenumbers:  7700. -  8050. cm-1, ATM      1
 LEVEL PRESSURE   UPWARD FLUX   DIFDOWN FLUX  DIRDOWN FLUX  DOWNWARD FLUX   NET FLUX    HEATING RATE
          mb          W/m2          W/m2          W/m2        W/m2          W/m2       degree/day
  51    .06700        5.8148        0.0000       11.1810       11.1810       5.366186       0.00000
  50    .07753        5.8148        0.0000       11.1809       11.1809       5.366164       0.01748
  49    .09103        5.8148        0.0000       11.1809       11.1809       5.366136       0.01713
  48    0.1069        5.8148        0.0000       11.1809       11.1809       5.366105       0.01677
  47    0.1255        5.8148        0.0000       11.1809       11.1809       5.366069       0.01641
  46    0.1487        5.8148        0.0000       11.1808       11.1808       5.366023       0.01665
  45    0.1794        5.8148        0.0000       11.1808       11.1808       5.365961       0.01713
  44    0.2165        5.8148        0.0000       11.1807       11.1807       5.365887       0.01681
  43    0.2613        5.8148        0.0000       11.1806       11.1806       5.365799       0.01649
  42    0.3336        5.8149        0.0000       11.1805       11.1805       5.365654       0.01688
  41    0.4307        5.8149        0.0000       11.1803       11.1804       5.365463       0.01669
  40    0.5894        5.8150        0.0000       11.1801       11.1801       5.365149       0.01667
  39     1.339        5.8152        0.0001       11.1788       11.1789       5.363666       0.01670
  38     1.782        5.8154        0.0001       11.1781       11.1782       5.362794       0.01659
  37     2.292        5.8155        0.0001       11.1772       11.1773       5.361786       0.01670
  36     2.964        5.8158        0.0002       11.1761       11.1762       5.360462       0.01662
  35     3.853        5.8161        0.0002       11.1746       11.1748       5.358712       0.01660
  34     5.035        5.8165        0.0003       11.1726       11.1729       5.356389       0.01660
  33     6.613        5.8170        0.0004       11.1699       11.1703       5.353285       0.01659
  32     8.786        5.8177        0.0005       11.1663       11.1668       5.349105       0.01624
  31     11.80        5.8188        0.0007       11.1612       11.1619       5.343127       0.01673
  30     15.07        5.8199        0.0008       11.1558       11.1566       5.336715       0.01655
  29     18.79        5.8212        0.0010       11.1496       11.1506       5.329479       0.01641
  28     23.16        5.8227        0.0013       11.1424       11.1437       5.321038       0.01632
  27     28.12        5.8244        0.0016       11.1342       11.1358       5.311401       0.01638
  26     33.73        5.8263        0.0019       11.1251       11.1269       5.300636       0.01619
  25     40.54        5.8286        0.0022       11.1141       11.1163       5.287660       0.01610
  24     48.69        5.8315        0.0027       11.1008       11.1035       5.272062       0.01614
  23     57.69        5.8346        0.0032       11.0864       11.0896       5.254987       0.01601
  22     68.43        5.8383        0.0037       11.0693       11.0731       5.234731       0.01592
  21     81.20        5.8428        0.0044       11.0491       11.0535       5.210715       0.01587
  20     96.49        5.8482        0.0053       11.0252       11.0305       5.182261       0.01570
  19     114.6        5.8547        0.0062       10.9972       11.0034       5.148693       0.01567
  18     136.5        5.8625        0.0074       10.9643       10.9717       5.109220       0.01518
  17     162.9        5.8719        0.0088       10.9258       10.9346       5.062636       0.01489
  16     196.4        5.8844        0.0106       10.8767       10.8872       5.002868       0.01504
  15     218.7        5.8927        0.0117       10.8449       10.8567       4.963967       0.01477
  14     243.0        5.9019        0.0130       10.8108       10.8238       4.921979       0.01456
  13     269.0        5.9119        0.0144       10.7744       10.7887       4.876785       0.01466
  12     297.5        5.9230        0.0158       10.7354       10.7513       4.828261       0.01439
  11     328.5        5.9353        0.0174       10.6939       10.7114       4.776137       0.01417
  10     361.9        5.9487        0.0192       10.6498       10.6690       4.720298       0.01413
   9     398.1        5.9635        0.0210       10.6029       10.6239       4.660445       0.01394
   8     437.6        5.9798        0.0230       10.5531       10.5761       4.596313       0.01371
   7     480.5        5.9978        0.0251       10.5003       10.5254       4.527583       0.01350
   6     533.0        6.0208        0.0278       10.4357       10.4635       4.442676       0.01366
   5     589.8        6.0467        0.0306       10.3667       10.3972       4.350535       0.01368
   4     651.6        6.0760        0.0336       10.2925       10.3262       4.250193       0.01372
   3     718.7        6.1091        0.0369       10.2130       10.2498       4.140713       0.01376
   2     792.3        6.1469        0.0403       10.1273       10.1676       4.020758       0.01376
   1     891.5        6.2016        0.0450       10.0108       10.0558       3.854223       0.01417
   0    1013.0        6.2729        0.0506        9.8696        9.9202       3.647291       0.01437



 Wavenumbers:  8050. - 12850. cm-1, ATM      1
 LEVEL PRESSURE   UPWARD FLUX   DIFDOWN FLUX  DIRDOWN FLUX  DOWNWARD FLUX   NET FLUX    HEATING RATE
          mb          W/m2          W/m2          W/m2        W/m2          W/m2       degree/day
  51    .06700      118.1015        0.0000      156.5418      156.5418      38.440265       0.00000
  50    .07753      118.1015        0.0000      156.5417      156.5417      38.440265      -0.00000
  49    .09103      118.1015        0.0001      156.5417      156.5417      38.440265      -0.00000
  48    0.1069      118.1014        0.0001      156.5416      156.5417      38.440265       0.00000
  47    0.1255      118.1014        0.0002      156.5415      156.5417      38.440265      -0.00000
  46    0.1487      118.1014        0.0002      156.5414      156.5417      38.440265       0.00000
  45    0.1794      118.1014        0.0003      156.5413      156.5416      38.440265       0.00000
  44    0.2165      118.1013        0.0005      156.5412      156.5416      38.440265      -0.00000
  43    0.2613      118.1013        0.0006      156.5410      156.5416      38.440265       0.00000
  42    0.3336      118.1012        0.0008      156.5407      156.5415      38.440265       0.00000
  41    0.4307      118.1011        0.0011      156.5403      156.5414      38.440265       0.00000
  40    0.5894      118.1010        0.0016      156.5397      156.5413      38.440265      -0.00000
  39     1.339      118.1003        0.0038      156.5367      156.5406      38.440265       0.00000
  38     1.782      118.0999        0.0052      156.5350      156.5402      38.440265       0.00000
  37     2.292      118.0993        0.0072      156.5323      156.5395      38.440265       0.00000
  36     2.964      118.0986        0.0094      156.5294      156.5389      38.440265       0.00000
  35     3.853      118.0978        0.0122      156.5258      156.5380      38.440265      -0.00000
  34     5.035      118.0966        0.0158      156.5211      156.5369      38.440265      -0.00000
  33     6.613      118.0952        0.0206      156.5149      156.5354      38.440265       0.00000
  32     8.786      118.0932        0.0270      156.5065      156.5335      38.440265       0.00000
  31     11.80      118.0904        0.0362      156.4945      156.5307      38.440265      -0.00000
  30     15.07      118.0874        0.0461      156.4816      156.5277      38.440265       0.00000
  29     18.79      118.0840        0.0572      156.4670      156.5242      38.440265      -0.00000
  28     23.16      118.0800        0.0702      156.4500      156.5202      38.440265       0.00000
  27     28.12      118.0754        0.0852      156.4305      156.5157      38.440265       0.00000
  26     33.73      118.0703        0.1019      156.4087      156.5106      38.440265      -0.00000
  25     40.54      118.0641        0.1221      156.3822      156.5044      38.440265      -0.00000
  24     48.69      118.0566        0.1466      156.3503      156.4969      38.440265      -0.00000
  23     57.69      118.0484        0.1734      156.3152      156.4887      38.440265       0.00000
  22     68.43      118.0386        0.2055      156.2733      156.4788      38.440265       0.00000
  21     81.20      118.0269        0.2437      156.2234      156.4671      38.440265      -0.00000
  20     96.49      118.0129        0.2894      156.1637      156.4531      38.440265       0.00000
  19     114.6      117.9978        0.3437      156.0646      156.4083      38.410522       0.01389
  18     136.5      117.9796        0.4082      155.9528      156.3610      38.381404       0.01120
  17     162.9      117.9574        0.4852      155.8251      156.3103      38.352900       0.00911
  16     196.4      117.9280        0.5853      155.6611      156.2464      38.318398       0.00868
  15     218.7      117.9092        0.6512      155.5405      156.1917      38.282541       0.01361
  14     243.0      117.8886        0.7230      155.4113      156.1343      38.245666       0.01279
  13     269.0      117.8673        0.8009      155.2515      156.0524      38.185182       0.01962
  12     297.5      117.8458        0.8853      155.0503      155.9355      38.089676       0.02833
  11     328.5      117.8254        0.9766      154.7935      155.7701      37.944613       0.03944
  10     361.9      117.8081        1.0750      154.4657      155.5406      37.732577       0.05365
   9     398.1      117.7968        1.1809      154.0493      155.2302      37.433464       0.06969
   8     437.6      117.7965        1.2947      153.5280      154.8227      37.026223       0.08707
   7     480.5      117.8147        1.4166      152.8809      154.2975      36.482783       0.10673
   6     533.0      117.8718        1.5662      151.9511      153.5173      35.645458       0.13470
   5     589.8      117.9887        1.7266      150.7710      152.4976      34.508888       0.16870
   4     651.6      118.2020        1.8977      149.2728      151.1705      32.968505       0.21065
   3     718.7      118.5514        2.0793      147.4635      149.5428      30.991365       0.24847
   2     792.3      119.1116        2.2709      145.3076      147.5785      28.466896       0.28953
   1     891.5      120.2476        2.5247      142.1749      144.6996      24.451984       0.34165
   0    1013.0      122.3451        2.8237      138.3470      141.1708      18.825690       0.39066



 Wavenumbers: 12850. - 16000. cm-1, ATM      1
 LEVEL PRESSURE   UPWARD FLUX   DIFDOWN FLUX  DIRDOWN FLUX  DOWNWARD FLUX   NET FLUX    HEATING RATE
          mb          W/m2          W/m2          W/m2        W/m2          W/m2       degree/day
  51    .06700       84.9992        0.0000       98.0872       98.0872      13.088085       0.00000
  50    .07753       84.9992        0.0001       98.0864       98.0864      13.087290       0.63690
  49    .09103       84.9992        0.0002       98.0853       98.0855      13.086292       0.62415
  48    0.1069       84.9992        0.0003       98.0841       98.0843      13.085144       0.61121
  47    0.1255       84.9992        0.0004       98.0826       98.0830      13.083823       0.59862
  46    0.1487       84.9992        0.0005       98.0809       98.0814      13.082155       0.60807
  45    0.1794       84.9993        0.0008       98.0784       98.0792      13.079883       0.62365
  44    0.2165       84.9994        0.0010       98.0756       98.0766      13.077207       0.60868
  43    0.2613       84.9996        0.0013       98.0723       98.0736      13.074056       0.59400
  42    0.3336       84.9999        0.0018       98.0670       98.0688      13.068904       0.60074
  41    0.4307       85.0004        0.0024       98.0602       98.0626      13.062226       0.58057
  40    0.5894       85.0014        0.0035       98.0496       98.0531      13.051672       0.56127
  39     1.339       85.0095        0.0084       98.0043       98.0128      13.003314       0.54442
  38     1.782       85.0167        0.0113       97.9793       97.9906      12.973936       0.55930
  37     2.292       85.0271        0.0159       97.9483       97.9642      12.937110       0.60993
  36     2.964       85.0446        0.0207       97.9069       97.9275      12.882979       0.67952
  35     3.853       85.0728        0.0267       97.8481       97.8749      12.802095       0.76760
  34     5.035       85.1152        0.0346       97.7657       97.8002      12.685049       0.83613
  33     6.613       85.1744        0.0450       97.6538       97.6988      12.524375       0.85896
  32     8.786       85.2516        0.0590       97.5082       97.5672      12.315637       0.81066
  31     11.80       85.3522        0.0790       97.3154       97.3943      12.042117       0.76577
  30     15.07       85.4489        0.1004       97.1258       97.2262      11.777288       0.68374
  29     18.79       85.5479        0.1245       96.9275       97.0520      11.504132       0.61933
  28     23.16       85.6517        0.1527       96.7140       96.8667      11.215029       0.55903
  27     28.12       85.7567        0.1849       96.4909       96.6759      10.919201       0.50289
  26     33.73       85.8544        0.2210       96.2705       96.4915      10.637116       0.42412
  25     40.54       85.9497        0.2645       96.0382       96.3028      10.353102       0.35235
  24     48.69       86.0424        0.3171       95.7920       96.1091      10.066728       0.29635
  23     57.69       86.1228        0.3748       95.5547       95.9295       9.806729       0.24371
  22     68.43       86.1955        0.4436       95.3080       95.7517       9.556215       0.19694
  21     81.20       86.2503        0.5257       95.0618       95.5875       9.337242       0.14469
  20     96.49       86.2862        0.6237       94.8127       95.4364       9.150138       0.10327
  19     114.6       86.3237        0.7409       94.5382       95.2791       8.955412       0.09092
  18     136.5       86.3563        0.8799       94.2289       95.1088       8.752539       0.07801
  17     162.9       86.3846        1.0454       93.8720       94.9175       8.532908       0.07020
  16     196.4       86.3985        1.2601       93.4314       94.6915       8.293068       0.06037
  15     218.7       86.3996        1.4012       93.1485       94.5497       8.150038       0.05430
  14     243.0       86.3975        1.5544       92.8432       94.3977       8.000177       0.05198
  13     269.0       86.3918        1.7205       92.5154       94.2359       7.844108       0.05063
  12     297.5       86.3827        1.9000       92.1638       94.0639       7.681143       0.04833
  11     328.5       86.3724        2.0940       91.7854       93.8794       7.507054       0.04733
  10     361.9       86.3612        2.3029       91.3792       93.6821       7.320820       0.04712
   9     398.1       86.3501        2.5277       90.9437       93.4714       7.121358       0.04647
   8     437.6       86.3404        2.7692       90.4762       93.2454       6.905002       0.04626
   7     480.5       86.3336        3.0281       89.9746       93.0027       6.669028       0.04634
   6     533.0       86.3325        3.3468       89.3533       92.7001       6.367590       0.04849
   5     589.8       86.3430        3.6905       88.6760       92.3665       6.023579       0.05106
   4     651.6       86.3722        4.0597       87.9354       91.9951       5.622874       0.05480
   3     718.7       86.4273        4.4559       87.1259       91.5818       5.154492       0.05886
   2     792.3       86.5213        4.8791       86.2411       91.1202       4.598912       0.06372
   1     891.5       86.7167        5.4480       85.0249       90.4728       3.756176       0.07171
   0    1013.0       87.0683        6.1283       83.5547       89.6830       2.614738       0.07926



 Wavenumbers: 16000. - 22650. cm-1, ATM      1
 LEVEL PRESSURE   UPWARD FLUX   DIFDOWN FLUX  DIRDOWN FLUX  DOWNWARD FLUX   NET FLUX    HEATING RATE
          mb          W/m2          W/m2          W/m2        W/m2          W/m2       degree/day
  51    .06700      141.8422        0.0000      156.3892      156.3892      14.547016       0.00000
  50    .07753      141.8422        0.0004      156.3887      156.3891      14.546867       0.11909
  49    .09103      141.8422        0.0009      156.3879      156.3888      14.546651       0.13507
  48    0.1069      141.8422        0.0015      156.3871      156.3885      14.546362       0.15403
  47    0.1255      141.8422        0.0021      156.3861      156.3882      14.545974       0.17557
  46    0.1487      141.8423        0.0030      156.3847      156.3877      14.545404       0.20805
  45    0.1794      141.8424        0.0041      156.3828      156.3869      14.544511       0.24496
  44    0.2165      141.8426        0.0054      156.3805      156.3859      14.543301       0.27531
  43    0.2613      141.8430        0.0070      156.3776      156.3847      14.541659       0.30951
  42    0.3336      141.8438        0.0097      156.3726      156.3823      14.538537       0.36398
  41    0.4307      141.8450        0.0132      156.3657      156.3789      14.533831       0.40916
  40    0.5894      141.8477        0.0189      156.3537      156.3726      14.524857       0.47726
  39     1.339      141.8708        0.0459      156.2834      156.3293      14.458551       0.74649
  38     1.782      141.8921        0.0618      156.2324      156.2941      14.402066       1.07538
  37     2.292      141.9225        0.0865      156.1563      156.2428      14.320303       1.35420
  36     2.964      141.9750        0.1126      156.0502      156.1628      14.187847       1.66272
  35     3.853      142.0603        0.1455      155.8925      156.0380      13.977670       1.99462
  34     5.035      142.1893        0.1883      155.6651      155.8534      13.664098       2.24003
  33     6.613      142.3696        0.2450      155.3529      155.5979      13.228315       2.32969
  32     8.786      142.6045        0.3210      154.9447      155.2657      12.661249       2.20228
  31     11.80      142.9103        0.4295      154.4022      154.8317      11.921347       2.07149
  30     15.07      143.2034        0.5457      153.8672      154.4129      11.209556       1.83770
  29     18.79      143.5026        0.6767      153.3059      153.9826      10.480007       1.65411
  28     23.16      143.8155        0.8295      152.6994      153.5289       9.713407       1.48236
  27     28.12      144.1304        1.0039      152.0624      153.0663       8.935911       1.32169
  26     33.73      144.4212        1.1989      151.4278      152.6268       8.205577       1.09808
  25     40.54      144.7013        1.4344      150.7506      152.1850       7.483712       0.89556
  24     48.69      144.9697        1.7179      150.0208      151.7387       6.769023       0.73959
  23     57.69      145.1976        2.0290      149.3022      151.3311       6.133563       0.59565
  22     68.43      145.3967        2.3991      148.5347      150.9337       5.537008       0.46897
  21     81.20      145.5350        2.8397      147.7388      150.5785       5.043498       0.32610
  20     96.49      145.6079        3.3643      146.8998      150.2641       4.656201       0.21376
  19     114.6      145.6467        3.9853      145.9635      149.9488       4.302089       0.16535
  18     136.5      145.6610        4.7187      144.8960      149.6147       3.953729       0.13395
  17     162.9      145.6490        5.5879      143.6659      149.2538       3.604784       0.11154
  16     196.4      145.5710        6.7094      142.1525      148.8619       3.290981       0.07899
  15     218.7      145.4968        7.4423      141.1910      148.6333       3.136486       0.05866
  14     243.0      145.4056        8.2356      140.1634      148.3990       2.993367       0.04964
  13     269.0      145.2957        9.0914      139.0686      148.1600       2.864344       0.04185
  12     297.5      145.1661       10.0116      137.9048      147.9165       2.750330       0.03382
  11     328.5      145.0210       11.0008      136.6610      147.6618       2.640766       0.02979
  10     361.9      144.8600       12.0597      135.3365      147.3962       2.536217       0.02645
   9     398.1      144.6823       13.1923      133.9264      147.1188       2.436520       0.02323
   8     437.6      144.4884       14.4007      132.4274      146.8281       2.339706       0.02070
   7     480.5      144.2776       15.6871      130.8371      146.5242       2.246557       0.01829
   6     533.0      144.0157       17.2581      128.9005      146.1586       2.142866       0.01668
   5     589.8      143.7328       18.9365      126.8356      145.7720       2.039194       0.01539
   4     651.6      143.4298       20.7236      124.6394      145.3630       1.933205       0.01449
   3     718.7      143.1069       22.6214      122.3093      144.9307       1.823733       0.01376
   2     792.3      142.7658       24.6282      119.8457      144.4738       1.708039       0.01327
   1     891.5      142.3153       27.2948      116.5702      143.8650       1.549696       0.01347
   0    1013.0      141.7888       30.4335      112.7127      143.1462       1.357411       0.01335



 Wavenumbers: 22650. - 29000. cm-1, ATM      1
 LEVEL PRESSURE   UPWARD FLUX   DIFDOWN FLUX  DIRDOWN FLUX  DOWNWARD FLUX   NET FLUX    HEATING RATE
          mb          W/m2          W/m2          W/m2        W/m2          W/m2       degree/day
  51    .06700       58.6820        0.0000       59.0156       59.0156       0.333635       0.00000
  50    .07753       58.6819        0.0005       59.0151       59.0155       0.333635       0.00000
  49    .09103       58.6818        0.0010       59.0144       59.0154       0.333635      -0.00000
  48    0.1069       58.6816        0.0017       59.0136       59.0153       0.333635      -0.00000
  47    0.1255       58.6815        0.0025       59.0127       59.0151       0.333635       0.00000
  46    0.1487       58.6813        0.0035       59.0115       59.0149       0.333635       0.00000
  45    0.1794       58.6811        0.0048       59.0099       59.0147       0.333635      -0.00000
  44    0.2165       58.6808        0.0063       59.0080       59.0144       0.333635       0.00000
  43    0.2613       58.6804        0.0082       59.0058       59.0140       0.333635       0.00000
  42    0.3336       58.6798        0.0113       59.0022       59.0134       0.333635       0.00000
  41    0.4307       58.6790        0.0154       58.9973       59.0127       0.333635       0.00000
  40    0.5894       58.6777        0.0220       58.9894       59.0114       0.333635       0.00000
  39     1.339       58.6717        0.0535       58.9518       59.0053       0.333635       0.00000
  38     1.782       58.6681        0.0720       58.9297       59.0017       0.333635       0.00000
  37     2.292       58.6626        0.1009       58.8953       58.9962       0.333635      -0.00000
  36     2.964       58.6567        0.1313       58.8590       58.9903       0.333635       0.00000
  35     3.853       58.6493        0.1697       58.8133       58.9829       0.333635       0.00000
  34     5.035       58.6397        0.2197       58.7536       58.9733       0.333635       0.00000
  33     6.613       58.6269        0.2859       58.6747       58.9606       0.333635      -0.00000
  32     8.786       58.6098        0.3747       58.5687       58.9435       0.333635       0.00000
  31     11.80       58.5854        0.5015       58.4176       58.9191       0.333635      -0.00000
  30     15.07       58.5593        0.6372       58.2558       58.8929       0.333635       0.00000
  29     18.79       58.5298        0.7901       58.0733       58.8635       0.333635      -0.00000
  28     23.16       58.4955        0.9684       57.8608       58.8292       0.333635       0.00000
  27     28.12       58.4564        1.1715       57.6185       58.7900       0.333635       0.00000
  26     33.73       58.4128        1.3981       57.3483       58.7464       0.333635       0.00000
  25     40.54       58.3603        1.6707       57.0232       58.6939       0.333635      -0.00000
  24     48.69       58.2973        1.9977       56.6332       58.6309       0.333635       0.00000
  23     57.69       58.2285        2.3546       56.2075       58.5621       0.333635       0.00000
  22     68.43       58.1472        2.7767       55.7041       58.4808       0.333635      -0.00000
  21     81.20       58.0511        3.2751       55.1096       58.3848       0.333635       0.00000
  20     96.49       57.9379        3.8628       54.4087       58.2715       0.333635      -0.00000
  19     114.6       57.8051        4.5516       53.5871       58.1387       0.333635       0.00000
  18     136.5       57.6500        5.3555       52.6282       57.9837       0.333635      -0.00000
  17     162.9       57.4687        6.2953       51.5070       57.8024       0.333635       0.00000
  16     196.4       57.2389        7.4860       50.0865       57.5726       0.333635       0.00000
  15     218.7       57.0912        8.2512       49.1736       57.4248       0.333635       0.00000
  14     243.0       56.9334        9.0681       48.1989       57.2671       0.333635      -0.00000
  13     269.0       56.7657        9.9363       47.1630       57.0993       0.333635       0.00000
  12     297.5       56.5881       10.8549       46.0669       56.9217       0.333635      -0.00000
  11     328.5       56.4004       11.8252       44.9088       56.7341       0.333635      -0.00000
  10     361.9       56.2031       12.8448       43.6920       56.5368       0.333635       0.00000
   9     398.1       55.9962       13.9136       42.4162       56.3298       0.333635       0.00000
   8     437.6       55.7800       15.0295       41.0841       56.1136       0.333635      -0.00000
   7     480.5       55.5549       16.1899       39.6987       55.8886       0.333635       0.00000
   6     533.0       55.2873       17.5690       38.0519       55.6209       0.333635      -0.00000
   5     589.8       55.0097       18.9973       36.3461       55.3434       0.333635       0.00000
   4     651.6       54.7235       20.4684       34.5888       55.0572       0.333635       0.00000
   3     718.7       54.4298       21.9765       32.7869       54.7634       0.333635       0.00000
   2     792.3       54.1302       23.5115       30.9524       54.4639       0.333635      -0.00000
   1     891.5       53.7501       25.4556       28.6281       54.0837       0.333635       0.00000
   0    1013.0       53.3266       27.6152       26.0450       53.6602       0.333635      -0.00000



 Wavenumbers: 29000. - 38000. cm-1, ATM      1
 LEVEL PRESSURE   UPWARD FLUX   DIFDOWN FLUX  DIRDOWN FLUX  DOWNWARD FLUX   NET FLUX    HEATING RATE
          mb          W/m2          W/m2          W/m2        W/m2          W/m2       degree/day
  51    .06700        8.7699        0.0000       20.8114       20.8114      12.041416       0.00000
  50    .07753        8.7698        0.0003       20.8070       20.8074      12.037608       3.05171
  49    .09103        8.7695        0.0007       20.8009       20.8016      12.032071       3.46103
  48    0.1069        8.7693        0.0012       20.7928       20.7939      12.024661       3.94449
  47    0.1255        8.7690        0.0017       20.7820       20.7837      12.014755       4.49057
  46    0.1487        8.7686        0.0024       20.7665       20.7688      12.000191       5.30872
  45    0.1794        8.7682        0.0033       20.7424       20.7457      11.977525       6.22237
  44    0.2165        8.7677        0.0044       20.7103       20.7147      11.947001       6.94377
  43    0.2613        8.7671        0.0056       20.6675       20.6731      11.906004       7.72775
  42    0.3336        8.7662        0.0077       20.5880       20.5957      11.829439       8.92675
  41    0.4307        8.7651        0.0104       20.4722       20.4826      11.717480       9.73460
  40    0.5894        8.7636        0.0147       20.2637       20.2784      11.514783      10.77915
  39     1.339        8.7603        0.0331       19.0984       19.1315      10.371199      12.87468
  38     1.782        8.7609        0.0427       18.4394       18.4821       9.721164      12.37562
  37     2.292        8.7613        0.0572       17.7649       17.8221       9.060871      10.93616
  36     2.964        8.7671        0.0710       17.0338       17.1048       8.337708       9.07789
  35     3.853        8.7796        0.0873       16.2587       16.3460       7.566425       7.31962
  34     5.035        8.8006        0.1076       15.4713       15.5789       6.778304       5.63001
  33     6.613        8.8312        0.1332       14.7072       14.8405       6.009223       4.11151
  32     8.786        8.8718        0.1668       13.9856       14.1525       5.280660       2.82947
  31     11.80        8.9248        0.2137       13.2761       13.4898       4.565013       2.00359
  30     15.07        8.9758        0.2625       12.7315       12.9940       4.018204       1.41175
  29     18.79        9.0286        0.3164       12.2592       12.5756       3.546985       1.06840
  28     23.16        9.0847        0.3778       11.8229       12.2007       3.116041       0.83331
  27     28.12        9.1422        0.4465       11.4211       11.8677       2.725515       0.66387
  26     33.73        9.1952        0.5224       11.0630       11.5853       2.390145       0.50424
  25     40.54        9.2455        0.6130       10.7147       11.3276       2.082097       0.38217
  24     48.69        9.2931        0.7205       10.3682       11.0887       1.795646       0.29643
  23     57.69        9.3321        0.8369       10.0491       10.8860       1.553971       0.22653
  22     68.43        9.3637        0.9735        9.7272       10.7007       1.337006       0.17056
  21     81.20        9.3789        1.1348        9.4081       10.5429       1.163994       0.11432
  20     96.49        9.3757        1.3244        9.0836       10.4080       1.032290       0.07269
  19     114.6        9.3624        1.5436        8.7339       10.2774       0.915054       0.05474
  18     136.5        9.3417        1.7941        8.3502       10.1443       0.802561       0.04326
  17     162.9        9.3140        2.0797        7.9267       10.0064       0.692416       0.03521
  16     196.4        9.2672        2.4335        7.4292        9.8626       0.595464       0.02440
  15     218.7        9.2334        2.6560        7.1256        9.7816       0.548177       0.01795
  14     243.0        9.1965        2.8887        6.8123        9.7010       0.504512       0.01514
  13     269.0        9.1560        3.1306        6.4908        9.6213       0.465303       0.01272
  12     297.5        9.1123        3.3806        6.1624        9.5430       0.430738       0.01025
  11     328.5        9.0666        3.6378        5.8264        9.4642       0.397643       0.00900
  10     361.9        9.0195        3.8998        5.4858        9.3856       0.366168       0.00796
   9     398.1        8.9710        4.1658        5.1415        9.3073       0.336338       0.00695
   8     437.6        8.9217        4.4346        4.7947        9.2293       0.307584       0.00615
   7     480.5        8.8720        4.7040        4.4483        9.1522       0.280284       0.00536
   6     533.0        8.8150        5.0107        4.0549        9.0655       0.250531       0.00479
   5     589.8        8.7590        5.3124        3.6683        8.9807       0.221719       0.00428
   4     651.6        8.7047        5.6072        3.2910        8.8982       0.193525       0.00386
   3     718.7        8.6527        5.8919        2.9268        8.8186       0.165908       0.00347
   2     792.3        8.6040        6.1630        2.5798        8.7429       0.138874       0.00310
   1     891.5        8.5482        6.4815        2.1722        8.6537       0.105490       0.00284
   0    1013.0        8.4953        6.8009        1.7630        8.5639       0.068612       0.00256



 Wavenumbers: 38000. - 50000. cm-1, ATM      1
 LEVEL PRESSURE   UPWARD FLUX   DIFDOWN FLUX  DIRDOWN FLUX  DOWNWARD FLUX   NET FLUX    HEATING RATE
          mb          W/m2          W/m2          W/m2        W/m2          W/m2       degree/day
  51    .06700        0.0063        0.0000        1.2836        1.2836       1.277365       0.00000
  50    .07753        0.0062        0.0001        1.2812        1.2812       1.275030       1.87161
  49    .09103        0.0061        0.0002        1.2777        1.2778       1.271698       2.08258
  48    0.1069        0.0061        0.0002        1.2731        1.2734       1.267319       2.33071
  47    0.1255        0.0060        0.0004        1.2672        1.2675       1.261564       2.60921
  46    0.1487        0.0058        0.0005        1.2586        1.2591       1.253237       3.03513
  45    0.1794        0.0057        0.0007        1.2455        1.2462       1.240469       3.50535
  44    0.2165        0.0055        0.0009        1.2282        1.2291       1.223542       3.85054
  43    0.2613        0.0053        0.0011        1.2054        1.2065       1.201192       4.21279
  42    0.3336        0.0050        0.0015        1.1639        1.1654       1.160366       4.75991
  41    0.4307        0.0046        0.0020        1.1051        1.1070       1.102404       5.03965
  40    0.5894        0.0041        0.0026        1.0039        1.0064       1.002358       5.32033
  39     1.339        0.0024        0.0035        0.5438        0.5473       0.544898       5.15017
  38     1.782        0.0019        0.0032        0.3635        0.3666       0.364751       3.42971
  37     2.292        0.0013        0.0029        0.2352        0.2381       0.236804       2.11914
  36     2.964        0.0009        0.0024        0.1451        0.1475       0.146596       1.13238
  35     3.853        0.0006        0.0018        0.0856        0.0874       0.086806       0.56742
  34     5.035        0.0004        0.0014        0.0487        0.0501       0.049648       0.26544
  33     6.613        0.0003        0.0010        0.0272        0.0282       0.027942       0.11604
  32     8.786        0.0002        0.0007        0.0144        0.0151       0.014911       0.05061
  31     11.80        0.0001        0.0005        0.0065        0.0070       0.006895       0.02244
  30     15.07        0.0000        0.0003        0.0031        0.0034       0.003326       0.00922
  29     18.79        0.0000        0.0002        0.0014        0.0016       0.001582       0.00395
  28     23.16        0.0000        0.0001        0.0006        0.0007       0.000720       0.00167
  27     28.12        0.0000        0.0001        0.0003        0.0003       0.000317       0.00068
  26     33.73        0.0000        0.0000        0.0001        0.0001       0.000139       0.00027
  25     40.54        0.0000        0.0000        0.0000        0.0001       0.000057       0.00010
  24     48.69        0.0000        0.0000        0.0000        0.0000       0.000021       0.00004
  23     57.69        0.0000        0.0000        0.0000        0.0000       0.000008       0.00001
  22     68.43        0.0000        0.0000        0.0000        0.0000       0.000003       0.00000
  21     81.20        0.0000        0.0000        0.0000        0.0000       0.000001       0.00000
  20     96.49        0.0000        0.0000        0.0000        0.0000       0.000000       0.00000
  19     114.6        0.0000        0.0000        0.0000        0.0000       0.000000       0.00000
  18     136.5        0.0000        0.0000        0.0000        0.0000       0.000000       0.00000
  17     162.9        0.0000        0.0000        0.0000        0.0000       0.000000       0.00000
  16     196.4        0.0000        0.0000        0.0000        0.0000       0.000000       0.00000
  15     218.7        0.0000        0.0000        0.0000        0.0000       0.000000       0.00000
  14     243.0        0.0000        0.0000        0.0000        0.0000       0.000000       0.00000
  13     269.0        0.0000        0.0000        0.0000        0.0000       0.000000       0.00000
  12     297.5        0.0000        0.0000        0.0000        0.0000       0.000000       0.00000
  11     328.5        0.0000        0.0000        0.0000        0.0000       0.000000       0.00000
  10     361.9        0.0000        0.0000        0.0000        0.0000       0.000000       0.00000
   9     398.1        0.0000        0.0000        0.0000        0.0000       0.000000       0.00000
   8     437.6        0.0000        0.0000        0.0000        0.0000       0.000000       0.00000
   7     480.5        0.0000        0.0000        0.0000        0.0000       0.000000       0.00000
   6     533.0        0.0000        0.0000        0.0000        0.0000       0.000000       0.00000
   5     589.8        0.0000        0.0000        0.0000        0.0000       0.000000       0.00000
   4     651.6        0.0000        0.0000        0.0000        0.0000       0.000000       0.00000
   3     718.7        0.0000        0.0000        0.0000        0.0000       0.000000       0.00000
   2     792.3        0.0000        0.0000        0.0000        0.0000       0.000000       0.00000
   1     891.5        0.0000        0.0000        0.0000        0.0000       0.000000       0.00000
   0    1013.0        0.0000        0.0000        0.0000        0.0000       0.000000       0.00000



 Wavenumbers:   820. -  2600. cm-1, ATM      1
 LEVEL PRESSURE   UPWARD FLUX   DIFDOWN FLUX  DIRDOWN FLUX  DOWNWARD FLUX   NET FLUX    HEATING RATE
          mb          W/m2          W/m2          W/m2        W/m2          W/m2       degree/day
  51    .06700        0.0167        0.0000        6.0047        6.0047       5.987903       0.00000
  50    .07753        0.0167        0.0000        6.0009        6.0009       5.984124       3.02937
  49    .09103        0.0167        0.0000        6.0001        6.0001       5.983334       0.49378
  48    0.1069        0.0167        0.0000        5.9992        5.9992       5.982459       0.46572
  47    0.1255        0.0167        0.0000        5.9982        5.9982       5.981478       0.44470
  46    0.1487        0.0167        0.0000        5.9970        5.9970       5.980300       0.42941
  45    0.1794        0.0167        0.0000        5.9956        5.9956       5.978833       0.40259
  44    0.2165        0.0167        0.0000        5.9940        5.9940       5.977301       0.34860
  43    0.2613        0.0167        0.0000        5.9925        5.9925       5.975722       0.29770
  42    0.3336        0.0167        0.0000        5.9902        5.9902       5.973492       0.25991
  41    0.4307        0.0167        0.0000        5.9877        5.9877       5.970904       0.22503
  40    0.5894        0.0167        0.0000        5.9836        5.9836       5.966872       0.21442
  39     1.339        0.0167        0.0000        5.9651        5.9651       5.948362       0.20839
  38     1.782        0.0167        0.0000        5.9549        5.9549       5.938145       0.19451
  37     2.292        0.0179        0.0000        2.0507        2.0507       2.032723      64.68398
  36     2.964        0.0184        0.0000        1.9050        1.9050       1.886557       1.83483
  35     3.853        0.0187        0.0000        1.8486        1.8486       1.829854       0.53812
  34     5.035        0.0189        0.0000        1.8200        1.8200       1.801078       0.20556
  33     6.613        0.0190        0.0000        1.8040        1.8040       1.784959       0.08618
  32     8.786        0.0191        0.0000        1.7947        1.7947       1.775636       0.03620
  31     11.80        0.0191        0.0000        1.7890        1.7890       1.769875       0.01613
  30     15.07        0.0191        0.0000        1.7860        1.7860       1.766872       0.00775
  29     18.79        0.0192        0.0000        1.7842        1.7842       1.765053       0.00412
  28     23.16        0.0192        0.0000        1.7830        1.7830       1.763787       0.00245
  27     28.12        0.0192        0.0000        1.7820        1.7820       1.762831       0.00162
  26     33.73        0.0192        0.0000        1.7813        1.7813       1.762093       0.00111
  25     40.54        0.0192        0.0000        1.7803        1.7803       1.761081       0.00126
  24     48.69        0.0192        0.0000        1.7794        1.7794       1.760213       0.00090
  23     57.69        0.0192        0.0000        1.7787        1.7787       1.759526       0.00064
  22     68.43        0.0192        0.0000        1.7781        1.7781       1.758930       0.00047
  21     81.20        0.0192        0.0000        1.7776        1.7776       1.758407       0.00035
  20     96.49        0.0192        0.0000        1.7771        1.7772       1.757939       0.00026
  19     114.6        0.0192        0.0000        1.7767        1.7767       1.757496       0.00021
  18     136.5        0.0192        0.0000        1.7762        1.7762       1.757025       0.00018
  17     162.9        0.0192        0.0000        1.7758        1.7758       1.756569       0.00015
  16     196.4        0.0192        0.0000        1.7753        1.7753       1.756110       0.00012
  15     218.7        0.0192        0.0000        1.7750        1.7751       1.755830       0.00011
  14     243.0        0.0192        0.0000        1.7748        1.7748       1.755601       0.00008
  13     269.0        0.0192        0.0000        1.7746        1.7746       1.755344       0.00008
  12     297.5        0.0192        0.0000        1.7742        1.7743       1.755022       0.00010
  11     328.5        0.0192        0.0000        1.7738        1.7738       1.754615       0.00011
  10     361.9        0.0192        0.0000        1.7733        1.7733       1.754081       0.00014
   9     398.1        0.0192        0.0000        1.7726        1.7726       1.753391       0.00016
   8     437.6        0.0192        0.0000        1.7717        1.7718       1.752510       0.00019
   7     480.5        0.0193        0.0000        1.7707        1.7707       1.751426       0.00021
   6     533.0        0.0193        0.0000        1.7690        1.7691       1.749789       0.00026
   5     589.8        0.0193        0.0000        1.7668        1.7668       1.747543       0.00033
   4     651.6        0.0193        0.0000        1.7636        1.7636       1.744295       0.00044
   3     718.7        0.0193        0.0000        1.7592        1.7592       1.739835       0.00056
   2     792.3        0.0194        0.0000        1.7529        1.7530       1.733556       0.00072
   1     891.5        0.0195        0.0000        1.7419        1.7419       1.722445       0.00095
   0    1013.0        0.0197        0.0000        1.7250        1.7250       1.705350       0.00119

  Modules and versions used in this calculation:

       rrtmg_sw.1col.f90:  $Revision$                    rrtmg_sw_init.f90:  $Revision$        
     rrtmgsw_cldprop.f90:  $Revision$                  rrtmgsw_cldprmc.f90:  NOT USED          
     rrtmg_sw_reftra.f90:  $Revision$                  rrtmg_sw_spcvrt.f90:  NOT USED          
     rrtmg_sw_spcvmc.f90:  NOT USED                    rrtmgsw_setcoef.f90:  NOT USED          
     rrtmg_sw_taumol.f90:  $Revision$                  rrtmg_sw_vrtqdr.f90:  NOT USED          
                rrtatm.f:  NOT USED                             util_xxx.f:  NOT USED          
                 extra.f:  NOT USED                       rrtmg_sw_k_g.f90:  $Revision$        

