

 Wavenumbers:   820. - 50000. cm-1, ATM      1
 LEVEL PRESSURE   UPWARD FLUX   DIFDOWN FLUX  DIRDOWN FLUX  DOWNWARD FLUX   NET FLUX    HEATING RATE
          mb          W/m2          W/m2          W/m2        W/m2          W/m2       degree/day
  51    .06700      431.9875        0.0000      617.8126      617.8126     185.825051       0.00000
  50    .07753      431.9872        0.0013      617.7948      617.7962     185.809040      12.83242
  49    .09103      431.9867        0.0030      617.7782      617.7812     185.794503       9.08659
  48    0.1069      431.9862        0.0050      617.7588      617.7638     185.777601       8.99669
  47    0.1255      431.9857        0.0072      617.7352      617.7424     185.756683       9.48327
  46    0.1487      431.9851        0.0100      617.7026      617.7127     185.727542      10.62218
  45    0.1794      431.9844        0.0139      617.6546      617.6685     185.684049      11.93993
  44    0.2165      431.9837        0.0184      617.5929      617.6113     185.627605      12.83993
  43    0.2613      431.9830        0.0238      617.5134      617.5372     185.554157      13.84460
  42    0.3336      431.9822        0.0326      617.3705      617.4031     185.420896      15.53697
  41    0.4307      431.9816        0.0443      617.1680      617.2123     185.230756      16.53224
  40    0.5894      431.9815        0.0630      616.8137      616.8767     184.895193      17.84481
  39     1.339      431.9998        0.1479      614.9759      615.1238     183.124009      19.94032
  38     1.782      432.0235        0.1957      614.0082      614.2039     182.180427      17.96428
  37     2.292      432.1364        0.2698      602.9252      603.1950     171.058556     184.20719
  36     2.964      432.2364        0.3465      601.1138      601.4603     169.223834      23.03131
  35     3.853      432.3699        0.4420      599.6244      600.0664     167.696514      14.49454
  34     5.035      432.5584        0.5656      598.1808      598.7465     166.188100      10.77548
  33     6.613      432.8150        0.7286      596.7131      597.4416     164.626669       8.34742
  32     8.786      433.1443        0.9465      595.1790      596.1255     162.981198       6.39041
  31     11.80      433.5678        1.2564      593.4486      594.7050     161.137196       5.16262
  30     15.07      433.9698        1.5872      591.9136      593.5008     159.530985       4.14692
  29     18.79      434.3773        1.9591      590.4038      592.3629     157.985643       3.50376
  28     23.16      434.8000        2.3912      588.8383      591.2295     156.429477       3.00912
  27     28.12      435.2215        2.8831      587.2304      590.1136     154.892048       2.61353
  26     33.73      435.6027        3.4315      585.6362      589.0678     153.465003       2.14560
  25     40.54      435.9584        4.0918      583.9021      587.9939     152.035464       1.77350
  24     48.69      436.2852        4.8841      582.0132      586.8973     150.612088       1.47297
  23     57.69      436.5453        5.7503      580.1230      585.8733     149.327991       1.20365
  22     68.43      436.7479        6.7764      578.0651      584.8415     148.093578       0.97041
  21     81.20      436.8405        7.9930      575.8612      583.8543     147.013777       0.71352
  20     96.49      436.8128        9.4336      573.4655      582.8991     146.086282       0.51191
  19     114.6      436.7216       11.1281      570.7119      581.8400     145.118353       0.45195
  18     136.5      436.5691       13.1122      567.5768      580.6891     144.119950       0.38391
  17     162.9      436.3496       15.4408      563.9822      579.4230     143.073467       0.33450
  16     196.4      435.9774       18.4105      559.5365      577.9470     141.969564       0.27787
  15     218.7      435.7049       20.3306      556.6528      576.9835     141.278563       0.26235
  14     243.0      435.3983       22.3905      553.5890      575.9795     140.581149       0.24189
  13     269.0      435.0574       24.5915      550.2592      574.8507     139.793345       0.25556
  12     297.5      434.6832       26.9346      546.6174      573.5520     138.868820       0.27420
  11     328.5      434.2850       29.4262      542.5821      572.0083     137.723362       0.31145
  10     361.9      433.8671       32.0624      538.0698      570.1322     136.265121       0.36895
   9     398.1      433.4347       34.8481      532.9723      567.8204     134.385734       0.43785
   8     437.6      432.9987       37.7825      527.1828      564.9654     131.966610       0.51722
   7     480.5      432.5724       40.8639      520.6158      561.4797     128.907250       0.60085
   6     533.0      432.1220       44.5693      512.1018      556.6711     124.549117       0.70109
   5     589.8      431.7522       48.4596      502.5770      551.0367     119.284479       0.78144
   4     651.6      431.5297       52.5280      492.0836      544.6117     113.081964       0.84821
   3     718.7      431.5291       56.7688      480.9132      537.6820     106.152865       0.87080
   2     792.3      431.8899       61.1661      469.1656      530.3317      98.441746       0.88438
   1     891.5      433.1293       66.8763      454.0117      520.8880      87.758772       0.90907
   0    1013.0      436.1839       73.4225      437.1243      510.5468      74.362882       0.93015



 Wavenumbers:  2600. -  3250. cm-1, ATM      1
 LEVEL PRESSURE   UPWARD FLUX   DIFDOWN FLUX  DIRDOWN FLUX  DOWNWARD FLUX   NET FLUX    HEATING RATE
          mb          W/m2          W/m2          W/m2        W/m2          W/m2       degree/day
  51    .06700        2.1251        0.0000        5.4450        5.4450       3.319950       0.00000
  50    .07753        2.1251        0.0000        5.4450        5.4450       3.319942       0.00640
  49    .09103        2.1251        0.0000        5.4450        5.4450       3.319932       0.00627
  48    0.1069        2.1251        0.0000        5.4450        5.4450       3.319920       0.00613
  47    0.1255        2.1251        0.0000        5.4450        5.4450       3.319907       0.00599
  46    0.1487        2.1251        0.0000        5.4450        5.4450       3.319890       0.00608
  45    0.1794        2.1251        0.0000        5.4450        5.4450       3.319868       0.00625
  44    0.2165        2.1251        0.0000        5.4449        5.4449       3.319841       0.00612
  43    0.2613        2.1251        0.0000        5.4449        5.4449       3.319809       0.00600
  42    0.3336        2.1251        0.0000        5.4448        5.4448       3.319756       0.00617
  41    0.4307        2.1251        0.0000        5.4448        5.4448       3.319685       0.00620
  40    0.5894        2.1251        0.0000        5.4446        5.4446       3.319565       0.00637
  39     1.339        2.1251        0.0000        5.4439        5.4439       3.318857       0.00797
  38     1.782        2.1251        0.0000        5.4434        5.4434       3.318314       0.01034
  37     2.292        2.1251        0.0000        5.4427        5.4427       3.317598       0.01186
  36     2.964        2.1251        0.0000        5.4416        5.4416       3.316559       0.01304
  35     3.853        2.1251        0.0000        5.4402        5.4402       3.315082       0.01402
  34     5.035        2.1251        0.0000        5.4381        5.4381       3.313026       0.01469
  33     6.613        2.1251        0.0000        5.4353        5.4353       3.310244       0.01487
  32     8.786        2.1251        0.0000        5.4317        5.4317       3.306609       0.01411
  31     11.80        2.1251        0.0000        5.4269        5.4269       3.301825       0.01339
  30     15.07        2.1251        0.0000        5.4224        5.4224       3.297293       0.01170
  29     18.79        2.1251        0.0000        5.4180        5.4180       3.292873       0.01002
  28     23.16        2.1251        0.0000        5.4135        5.4135       3.288376       0.00870
  27     28.12        2.1251        0.0000        5.4088        5.4088       3.283711       0.00793
  26     33.73        2.1252        0.0000        5.4036        5.4036       3.278447       0.00791
  25     40.54        2.1252        0.0000        5.3966        5.3967       3.271469       0.00866
  24     48.69        2.1252        0.0000        5.3872        5.3872       3.261936       0.00986
  23     57.69        2.1253        0.0000        5.3754        5.3754       3.250076       0.01112
  22     68.43        2.1254        0.0000        5.3599        5.3599       3.234480       0.01226
  21     81.20        2.1256        0.0000        5.3401        5.3401       3.214494       0.01321
  20     96.49        2.1258        0.0000        5.3155        5.3155       3.189715       0.01368
  19     114.6        2.1262        0.0001        5.2825        5.2826       3.156395       0.01556
  18     136.5        2.1267        0.0001        5.2456        5.2456       3.118932       0.01441
  17     162.9        2.1274        0.0001        5.2052        5.2053       3.077932       0.01311
  16     196.4        2.1284        0.0001        5.1590        5.1591       3.030692       0.01189
  15     218.7        2.1292        0.0001        5.1308        5.1309       3.001737       0.01099
  14     243.0        2.1302        0.0001        5.1033        5.1034       2.973280       0.00987
  13     269.0        2.1314        0.0001        5.0747        5.0748       2.943361       0.00971
  12     297.5        2.1332        0.0001        5.0440        5.0441       2.910902       0.00963
  11     328.5        2.1356        0.0001        5.0094        5.0095       2.873937       0.01005
  10     361.9        2.1388        0.0002        4.9703        4.9705       2.831691       0.01069
   9     398.1        2.1430        0.0002        4.9242        4.9244       2.781464       0.01170
   8     437.6        2.1486        0.0002        4.8679        4.8681       2.719575       0.01323
   7     480.5        2.1560        0.0002        4.7975        4.7977       2.641676       0.01530
   6     533.0        2.1678        0.0002        4.6948        4.6950       2.527221       0.01841
   5     589.8        2.1842        0.0002        4.5646        4.5648       2.380628       0.02176
   4     651.6        2.2072        0.0003        4.4052        4.4054       2.198236       0.02494
   3     718.7        2.2390        0.0003        4.2221        4.2224       1.983349       0.02701
   2     792.3        2.2834        0.0003        4.0224        4.0227       1.739317       0.02799
   1     891.5        2.3643        0.0003        3.7655        3.7658       1.401543       0.02874
   0    1013.0        2.5045        0.0003        3.4873        3.4877       0.983148       0.02905



 Wavenumbers:  3250. -  4000. cm-1, ATM      1
 LEVEL PRESSURE   UPWARD FLUX   DIFDOWN FLUX  DIRDOWN FLUX  DOWNWARD FLUX   NET FLUX    HEATING RATE
          mb          W/m2          W/m2          W/m2        W/m2          W/m2       degree/day
  51    .06700        0.3506        0.0000        9.1795        9.1795       8.828886       0.00000
  50    .07753        0.3506        0.0000        9.1747        9.1747       8.824017       3.90273
  49    .09103        0.3506        0.0000        9.1713        9.1713       8.820698       2.07457
  48    0.1069        0.3506        0.0000        9.1689        9.1689       8.818291       1.28104
  47    0.1255        0.3506        0.0000        9.1668        9.1668       8.816171       0.96115
  46    0.1487        0.3506        0.0000        9.1645        9.1645       8.813899       0.82824
  45    0.1794        0.3506        0.0000        9.1619        9.1619       8.811229       0.73284
  44    0.2165        0.3506        0.0000        9.1592        9.1592       8.808541       0.61164
  43    0.2613        0.3506        0.0000        9.1565        9.1565       8.805844       0.50838
  42    0.3336        0.3506        0.0000        9.1528        9.1528       8.802147       0.43100
  41    0.4307        0.3506        0.0000        9.1487        9.1487       8.798049       0.35633
  40    0.5894        0.3506        0.0000        9.1428        9.1428       8.792157       0.31334
  39     1.339        0.3506        0.0000        9.1196        9.1196       8.768975       0.26098
  38     1.782        0.3506        0.0000        9.1090        9.1090       8.758392       0.20149
  37     2.292        0.3509        0.0000        7.4630        7.4630       7.112130      27.26639
  36     2.964        0.3510        0.0000        7.2141        7.2141       6.863175       3.12514
  35     3.853        0.3510        0.0000        7.0784        7.0784       6.727428       1.28826
  34     5.035        0.3511        0.0000        6.9879        6.9879       6.636847       0.64708
  33     6.613        0.3511        0.0000        6.9217        6.9217       6.570587       0.35423
  32     8.786        0.3511        0.0000        6.8699        6.8700       6.518843       0.20095
  31     11.80        0.3511        0.0000        6.8240        6.8240       6.472913       0.12859
  30     15.07        0.3511        0.0000        6.7881        6.7881       6.436966       0.09281
  29     18.79        0.3512        0.0000        6.7555        6.7555       6.404331       0.07399
  28     23.16        0.3512        0.0000        6.7241        6.7241       6.372961       0.06066
  27     28.12        0.3512        0.0000        6.6914        6.6915       6.340319       0.05549
  26     33.73        0.3512        0.0000        6.6583        6.6584       6.307224       0.04976
  25     40.54        0.3512        0.0000        6.6093        6.6094       6.258205       0.06081
  24     48.69        0.3512        0.0001        6.5552        6.5553       6.204089       0.05600
  23     57.69        0.3512        0.0001        6.4997        6.4998       6.148619       0.05199
  22     68.43        0.3512        0.0001        6.4397        6.4397       6.088558       0.04722
  21     81.20        0.3512        0.0001        6.3778        6.3778       6.026666       0.04090
  20     96.49        0.3512        0.0001        6.3126        6.3127       5.961523       0.03595
  19     114.6        0.3512        0.0001        6.2281        6.2282       5.877036       0.03945
  18     136.5        0.3512        0.0001        6.1352        6.1353       5.784125       0.03573
  17     162.9        0.3512        0.0002        6.0350        6.0352       5.683990       0.03201
  16     196.4        0.3512        0.0002        5.9133        5.9135       5.562318       0.03063
  15     218.7        0.3512        0.0002        5.8119        5.8121       5.460867       0.03852
  14     243.0        0.3512        0.0002        5.7130        5.7132       5.361944       0.03431
  13     269.0        0.3513        0.0003        5.5871        5.5874       5.236096       0.04082
  12     297.5        0.3514        0.0003        5.4280        5.4283       5.076872       0.04722
  11     328.5        0.3517        0.0003        5.2254        5.2257       4.873988       0.05516
  10     361.9        0.3521        0.0003        4.9644        4.9647       4.612631       0.06613
   9     398.1        0.3528        0.0003        4.6401        4.6404       4.287614       0.07572
   8     437.6        0.3540        0.0003        4.2585        4.2589       3.904839       0.08184
   7     480.5        0.3560        0.0003        3.8417        3.8420       3.486032       0.08225
   6     533.0        0.3598        0.0003        3.3582        3.3585       2.998683       0.07840
   5     589.8        0.3662        0.0003        2.8924        2.8927       2.526444       0.07010
   4     651.6        0.3771        0.0003        2.4501        2.4503       2.073287       0.06197
   3     718.7        0.3947        0.0003        2.0450        2.0453       1.650632       0.05312
   2     792.3        0.4237        0.0002        1.6747        1.6750       1.251293       0.04580
   1     891.5        0.4881        0.0002        1.2658        1.2660       0.777962       0.04028
   0    1013.0        0.6359        0.0002        0.8853        0.8854       0.249593       0.03669



 Wavenumbers:  4000. -  4650. cm-1, ATM      1
 LEVEL PRESSURE   UPWARD FLUX   DIFDOWN FLUX  DIRDOWN FLUX  DOWNWARD FLUX   NET FLUX    HEATING RATE
          mb          W/m2          W/m2          W/m2        W/m2          W/m2       degree/day
  51    .06700        5.8664        0.0000       10.7795       10.7795       4.913190       0.00000
  50    .07753        5.8664        0.0000       10.7795       10.7795       4.913189       0.00082
  49    .09103        5.8664        0.0000       10.7795       10.7795       4.913188       0.00081
  48    0.1069        5.8664        0.0000       10.7795       10.7795       4.913186       0.00079
  47    0.1255        5.8664        0.0000       10.7795       10.7795       4.913185       0.00077
  46    0.1487        5.8664        0.0000       10.7795       10.7795       4.913182       0.00078
  45    0.1794        5.8664        0.0000       10.7795       10.7795       4.913180       0.00080
  44    0.2165        5.8664        0.0000       10.7795       10.7795       4.913176       0.00079
  43    0.2613        5.8664        0.0000       10.7795       10.7795       4.913172       0.00077
  42    0.3336        5.8664        0.0000       10.7795       10.7795       4.913165       0.00080
  41    0.4307        5.8664        0.0000       10.7795       10.7795       4.913156       0.00080
  40    0.5894        5.8664        0.0000       10.7795       10.7795       4.913140       0.00082
  39     1.339        5.8663        0.0000       10.7794       10.7794       4.913048       0.00104
  38     1.782        5.8663        0.0000       10.7793       10.7793       4.912975       0.00138
  37     2.292        5.8663        0.0000       10.7792       10.7792       4.912878       0.00161
  36     2.964        5.8663        0.0000       10.7791       10.7791       4.912733       0.00182
  35     3.853        5.8663        0.0000       10.7788       10.7789       4.912517       0.00204
  34     5.035        5.8664        0.0000       10.7785       10.7785       4.912199       0.00227
  33     6.613        5.8664        0.0000       10.7781       10.7781       4.911732       0.00250
  32     8.786        5.8664        0.0000       10.7774       10.7774       4.911040       0.00268
  31     11.80        5.8664        0.0001       10.7763       10.7763       4.909953       0.00304
  30     15.07        5.8664        0.0001       10.7750       10.7751       4.908675       0.00330
  29     18.79        5.8664        0.0001       10.7734       10.7735       4.907127       0.00351
  28     23.16        5.8664        0.0001       10.7715       10.7716       4.905201       0.00372
  27     28.12        5.8665        0.0001       10.7692       10.7693       4.902864       0.00397
  26     33.73        5.8665        0.0002       10.7664       10.7665       4.899974       0.00434
  25     40.54        5.8667        0.0002       10.7625       10.7627       4.896043       0.00488
  24     48.69        5.8668        0.0002       10.7574       10.7576       4.890787       0.00544
  23     57.69        5.8670        0.0003       10.7513       10.7516       4.884532       0.00586
  22     68.43        5.8674        0.0003       10.7437       10.7440       4.876661       0.00619
  21     81.20        5.8678        0.0004       10.7343       10.7347       4.866922       0.00644
  20     96.49        5.8684        0.0005       10.7230       10.7234       4.855010       0.00657
  19     114.6        5.8695        0.0006       10.7071       10.7077       4.838200       0.00785
  18     136.5        5.8709        0.0007       10.6886       10.6892       4.818371       0.00762
  17     162.9        5.8727        0.0008       10.6667       10.6675       4.794771       0.00754
  16     196.4        5.8755        0.0009       10.6383       10.6392       4.763708       0.00782
  15     218.7        5.8776        0.0010       10.6184       10.6195       4.741848       0.00830
  14     243.0        5.8802        0.0012       10.5968       10.5980       4.717833       0.00833
  13     269.0        5.8833        0.0013       10.5718       10.5730       4.689737       0.00911
  12     297.5        5.8873        0.0014       10.5424       10.5438       4.656555       0.00984
  11     328.5        5.8922        0.0016       10.5078       10.5094       4.617115       0.01072
  10     361.9        5.8986        0.0017       10.4670       10.4687       4.570120       0.01189
   9     398.1        5.9066        0.0019       10.4182       10.4201       4.513526       0.01318
   8     437.6        5.9168        0.0021       10.3592       10.3612       4.444421       0.01478
   7     480.5        5.9300        0.0022       10.2861       10.2883       4.358374       0.01690
   6     533.0        5.9497        0.0025       10.1804       10.1828       4.233159       0.02014
   5     589.8        5.9763        0.0027       10.0471       10.0498       4.073534       0.02369
   4     651.6        6.0112        0.0029        9.8856        9.8886       3.877338       0.02683
   3     718.7        6.0570        0.0032        9.7039        9.7071       3.650057       0.02856
   2     792.3        6.1185        0.0035        9.5060        9.5094       3.390975       0.02971
   1     891.5        6.2264        0.0038        9.2401        9.2439       3.017518       0.03178
   0    1013.0        6.4059        0.0042        8.9160        8.9202       2.514287       0.03494



 Wavenumbers:  4650. -  5150. cm-1, ATM      1
 LEVEL PRESSURE   UPWARD FLUX   DIFDOWN FLUX  DIRDOWN FLUX  DOWNWARD FLUX   NET FLUX    HEATING RATE
          mb          W/m2          W/m2          W/m2        W/m2          W/m2       degree/day
  51    .06700        4.0423        0.0000       10.2033       10.2033       6.161090       0.00000
  50    .07753        4.0423        0.0000       10.2031       10.2031       6.160860       0.18436
  49    .09103        4.0423        0.0000       10.2028       10.2028       6.160573       0.17977
  48    0.1069        4.0423        0.0000       10.2025       10.2025       6.160244       0.17493
  47    0.1255        4.0423        0.0000       10.2021       10.2021       6.159869       0.17001
  46    0.1487        4.0423        0.0000       10.2017       10.2017       6.159400       0.17110
  45    0.1794        4.0423        0.0000       10.2010       10.2010       6.158765       0.17419
  44    0.2165        4.0423        0.0000       10.2003       10.2003       6.158024       0.16861
  43    0.2613        4.0423        0.0000       10.1994       10.1994       6.157160       0.16290
  42    0.3336        4.0423        0.0000       10.1980       10.1980       6.155761       0.16304
  41    0.4307        4.0423        0.0000       10.1962       10.1962       6.153964       0.15624
  40    0.5894        4.0423        0.0000       10.1934       10.1934       6.151158       0.14925
  39     1.339        4.0422        0.0000       10.1821       10.1821       6.139831       0.12752
  38     1.782        4.0422        0.0000       10.1767       10.1767       6.134424       0.10293
  37     2.292        4.0422        0.0000       10.1713       10.1713       6.129086       0.08842
  36     2.964        4.0422        0.0000       10.1655       10.1655       6.123286       0.07281
  35     3.853        4.0422        0.0000       10.1594       10.1594       6.117192       0.05783
  34     5.035        4.0422        0.0000       10.1532       10.1532       6.110967       0.04447
  33     6.613        4.0423        0.0000       10.1468       10.1469       6.104603       0.03402
  32     8.786        4.0423        0.0001       10.1399       10.1399       6.097666       0.02694
  31     11.80        4.0423        0.0001       10.1309       10.1310       6.088689       0.02513
  30     15.07        4.0423        0.0001       10.1211       10.1212       6.078861       0.02537
  29     18.79        4.0424        0.0001       10.1091       10.1093       6.066904       0.02711
  28     23.16        4.0424        0.0002       10.0939       10.0941       6.051657       0.02948
  27     28.12        4.0425        0.0002       10.0750       10.0751       6.032626       0.03235
  26     33.73        4.0427        0.0002       10.0520       10.0522       6.009598       0.03462
  25     40.54        4.0428        0.0003       10.0223       10.0226       5.979764       0.03701
  24     48.69        4.0431        0.0003        9.9844        9.9848       5.941658       0.03943
  23     57.69        4.0435        0.0004        9.9412        9.9416       5.898160       0.04077
  22     68.43        4.0440        0.0005        9.8889        9.8894       5.845426       0.04146
  21     81.20        4.0447        0.0006        9.8271        9.8276       5.782948       0.04128
  20     96.49        4.0456        0.0007        9.7559        9.7565       5.710897       0.03977
  19     114.6        4.0470        0.0008        9.6760        9.6768       5.629788       0.03787
  18     136.5        4.0489        0.0009        9.5900        9.5909       5.542047       0.03374
  17     162.9        4.0514        0.0011        9.4986        9.4997       5.448230       0.02999
  16     196.4        4.0554        0.0013        9.3935        9.3947       5.339378       0.02740
  15     218.7        4.0584        0.0014        9.3291        9.3305       5.272105       0.02554
  14     243.0        4.0621        0.0016        9.2613        9.2628       5.200762       0.02474
  13     269.0        4.0665        0.0017        9.1883        9.1900       5.123462       0.02508
  12     297.5        4.0720        0.0019        9.1082        9.1101       5.038027       0.02534
  11     328.5        4.0788        0.0021        9.0190        9.0211       4.942316       0.02602
  10     361.9        4.0872        0.0023        8.9187        8.9210       4.833782       0.02746
   9     398.1        4.0977        0.0025        8.8050        8.8075       4.709763       0.02889
   8     437.6        4.1110        0.0027        8.6750        8.6777       4.566708       0.03059
   7     480.5        4.1281        0.0029        8.5266        8.5295       4.401429       0.03246
   6     533.0        4.1536        0.0032        8.3320        8.3352       4.181614       0.03536
   5     589.8        4.1866        0.0035        8.1135        8.1169       3.930329       0.03730
   4     651.6        4.2301        0.0037        7.8689        7.8727       3.642581       0.03935
   3     718.7        4.2870        0.0040        7.6040        7.6080       3.320976       0.04042
   2     792.3        4.3625        0.0043        7.3220        7.3263       2.963852       0.04096
   1     891.5        4.4930        0.0046        6.9547        6.9593       2.466256       0.04234
   0    1013.0        4.7059        0.0050        6.5477        6.5528       1.846847       0.04301



 Wavenumbers:  5150. -  6150. cm-1, ATM      1
 LEVEL PRESSURE   UPWARD FLUX   DIFDOWN FLUX  DIRDOWN FLUX  DOWNWARD FLUX   NET FLUX    HEATING RATE
          mb          W/m2          W/m2          W/m2        W/m2          W/m2       degree/day
  51    .06700       10.1884        0.0000       25.5798       25.5798      15.391462       0.00000
  50    .07753       10.1884        0.0000       25.5798       25.5798      15.391461       0.00026
  49    .09103       10.1884        0.0000       25.5798       25.5798      15.391461       0.00025
  48    0.1069       10.1884        0.0000       25.5798       25.5798      15.391460       0.00025
  47    0.1255       10.1884        0.0000       25.5798       25.5798      15.391460       0.00024
  46    0.1487       10.1884        0.0000       25.5798       25.5798      15.391459       0.00025
  45    0.1794       10.1884        0.0000       25.5798       25.5798      15.391458       0.00025
  44    0.2165       10.1884        0.0000       25.5798       25.5798      15.391457       0.00025
  43    0.2613       10.1884        0.0000       25.5798       25.5798      15.391456       0.00024
  42    0.3336       10.1884        0.0000       25.5798       25.5798      15.391454       0.00025
  41    0.4307       10.1884        0.0000       25.5798       25.5798      15.391451       0.00025
  40    0.5894       10.1884        0.0000       25.5798       25.5798      15.391446       0.00026
  39     1.339       10.1884        0.0000       25.5797       25.5798      15.391417       0.00033
  38     1.782       10.1883        0.0001       25.5797       25.5797      15.391394       0.00044
  37     2.292       10.1901        0.0001       24.0261       24.0261      13.836049      25.76056
  36     2.964       10.1908        0.0001       23.8484       23.8485      13.657701       2.23881
  35     3.853       10.1913        0.0001       23.7619       23.7621      13.570766       0.82503
  34     5.035       10.1917        0.0002       23.7080       23.7081      13.516464       0.38791
  33     6.613       10.1920        0.0002       23.6710       23.6712      13.479255       0.19892
  32     8.786       10.1922        0.0003       23.6447       23.6449      13.452713       0.10308
  31     11.80       10.1925        0.0004       23.6243       23.6247      13.432230       0.05735
  30     15.07       10.1927        0.0005       23.6112       23.6116      13.418965       0.03425
  29     18.79       10.1929        0.0006       23.6014       23.6020      13.409134       0.02229
  28     23.16       10.1931        0.0007       23.5932       23.5939      13.400833       0.01605
  27     28.12       10.1933        0.0008       23.5857       23.5866      13.393278       0.01284
  26     33.73       10.1936        0.0010       23.5788       23.5798      13.386214       0.01062
  25     40.54       10.1940        0.0012       23.5678       23.5690      13.374982       0.01393
  24     48.69       10.1946        0.0014       23.5564       23.5579      13.363286       0.01210
  23     57.69       10.1952        0.0017       23.5456       23.5474      13.352140       0.01045
  22     68.43       10.1960        0.0020       23.5346       23.5366      13.340585       0.00908
  21     81.20       10.1970        0.0024       23.5232       23.5256      13.328564       0.00794
  20     96.49       10.1982        0.0029       23.5113       23.5141      13.315923       0.00698
  19     114.6       10.1996        0.0034       23.4980       23.5014      13.301782       0.00660
  18     136.5       10.2014        0.0040       23.4829       23.4869      13.285525       0.00625
  17     162.9       10.2035        0.0048       23.4658       23.4706      13.267007       0.00592
  16     196.4       10.2064        0.0058       23.4429       23.4486      13.242279       0.00622
  15     218.7       10.2083        0.0064       23.4208       23.4272      13.218902       0.00888
  14     243.0       10.2104        0.0071       23.3961       23.4033      13.192827       0.00904
  13     269.0       10.2128        0.0079       23.3560       23.3639      13.151031       0.01356
  12     297.5       10.2157        0.0087       23.2900       23.2987      13.083024       0.02017
  11     328.5       10.2190        0.0096       23.1831       23.1927      12.973676       0.02973
  10     361.9       10.2230        0.0105       23.0131       23.0236      12.800622       0.04378
   9     398.1       10.2280        0.0115       22.7513       22.7628      12.534806       0.06193
   8     437.6       10.2344        0.0124       22.3663       22.3787      12.144359       0.08348
   7     480.5       10.2429        0.0134       21.8357       21.8491      11.606214       0.10569
   6     533.0       10.2565        0.0145       21.0556       21.0701      10.813568       0.12751
   5     589.8       10.2767        0.0155       20.1394       20.1549       9.878194       0.13884
   4     651.6       10.3077        0.0165       19.1283       19.1448       8.837104       0.14237
   3     718.7       10.3548        0.0175       18.1110       18.1284       7.773690       0.13364
   2     792.3       10.4284        0.0185       17.1410       17.1595       6.731008       0.11958
   1     891.5       10.5839        0.0198       16.0927       16.1125       5.528616       0.10232
   0    1013.0       10.9250        0.0216       15.1899       15.2115       4.286486       0.08625



 Wavenumbers:  6150. -  7700. cm-1, ATM      1
 LEVEL PRESSURE   UPWARD FLUX   DIFDOWN FLUX  DIRDOWN FLUX  DOWNWARD FLUX   NET FLUX    HEATING RATE
          mb          W/m2          W/m2          W/m2        W/m2          W/m2       degree/day
  51    .06700       18.1863        0.0000       47.3109       47.3109      29.124502       0.00000
  50    .07753       18.1863        0.0000       47.3108       47.3108      29.124486       0.01303
  49    .09103       18.1863        0.0000       47.3108       47.3108      29.124465       0.01277
  48    0.1069       18.1863        0.0000       47.3108       47.3108      29.124442       0.01250
  47    0.1255       18.1863        0.0000       47.3108       47.3108      29.124415       0.01223
  46    0.1487       18.1863        0.0000       47.3107       47.3107      29.124381       0.01241
  45    0.1794       18.1863        0.0000       47.3107       47.3107      29.124335       0.01276
  44    0.2165       18.1863        0.0000       47.3106       47.3106      29.124279       0.01252
  43    0.2613       18.1863        0.0000       47.3105       47.3105      29.124214       0.01228
  42    0.3336       18.1863        0.0000       47.3104       47.3104      29.124107       0.01256
  41    0.4307       18.1863        0.0000       47.3102       47.3103      29.123964       0.01242
  40    0.5894       18.1863        0.0001       47.3100       47.3100      29.123731       0.01240
  39     1.339       18.1862        0.0002       47.3087       47.3089      29.122629       0.01240
  38     1.782       18.1862        0.0002       47.3080       47.3082      29.121983       0.01230
  37     2.292       18.1891        0.0003       44.2828       44.2831      26.093929      50.15247
  36     2.964       18.1903        0.0004       44.0596       44.0600      25.869670       2.81513
  35     3.853       18.1911        0.0005       43.9585       43.9590      25.767926       0.96556
  34     5.035       18.1915        0.0007       43.8971       43.8978      25.706217       0.44083
  33     6.613       18.1919        0.0009       43.8557       43.8565      25.664670       0.22211
  32     8.786       18.1920        0.0011       43.8263       43.8274      25.635399       0.11368
  31     11.80       18.1921        0.0015       43.8037       43.8052      25.613128       0.06235
  30     15.07       18.1920        0.0019       43.7891       43.7910      25.598953       0.03660
  29     18.79       18.1919        0.0024       43.7781       43.7805      25.588638       0.02339
  28     23.16       18.1917        0.0029       43.7689       43.7718      25.580084       0.01654
  27     28.12       18.1914        0.0035       43.7603       43.7639      25.572431       0.01301
  26     33.73       18.1911        0.0042       43.7524       43.7566      25.565480       0.01045
  25     40.54       18.1908        0.0051       43.7402       43.7453      25.554468       0.01366
  24     48.69       18.1904        0.0061       43.7277       43.7338      25.543382       0.01147
  23     57.69       18.1899        0.0072       43.7158       43.7230      25.533110       0.00963
  22     68.43       18.1894        0.0085       43.7035       43.7120      25.522679       0.00820
  21     81.20       18.1886        0.0101       43.6905       43.7006      25.511940       0.00710
  20     96.49       18.1878        0.0120       43.6764       43.6884      25.500624       0.00625
  19     114.6       18.1868        0.0143       43.6589       43.6732      25.486375       0.00665
  18     136.5       18.1857        0.0170       43.6379       43.6549      25.469136       0.00663
  17     162.9       18.1845        0.0201       43.6125       43.6327      25.448236       0.00668
  16     196.4       18.1829        0.0243       43.5768       43.6012      25.418246       0.00755
  15     218.7       18.1821        0.0270       43.5426       43.5697      25.387554       0.01165
  14     243.0       18.1813        0.0300       43.5037       43.5337      25.352374       0.01220
  13     269.0       18.1808        0.0332       43.4431       43.4763      25.295495       0.01845
  12     297.5       18.1808        0.0367       43.3470       43.3837      25.202817       0.02749
  11     328.5       18.1818        0.0404       43.1946       43.2350      25.053171       0.04069
  10     361.9       18.1844        0.0443       42.9540       42.9984      24.814010       0.06051
   9     398.1       18.1896        0.0485       42.5808       42.6292      24.439661       0.08722
   8     437.6       18.1991        0.0527       42.0206       42.0734      23.874213       0.12090
   7     480.5       18.2156        0.0570       41.2176       41.2746      23.059019       0.16010
   6     533.0       18.2478        0.0618       39.9644       40.0262      21.778388       0.20601
   5     589.8       18.3022        0.0664       38.3896       38.4560      20.153774       0.24115
   4     651.6       18.3931        0.0707       36.5620       36.6327      18.239613       0.26177
   3     718.7       18.5377        0.0748       34.6428       34.7176      16.179882       0.25885
   2     792.3       18.7681        0.0789       32.6927       32.7716      14.003434       0.24961
   1     891.5       19.2491        0.0839       30.3700       30.4539      11.204855       0.23815
   0    1013.0       20.2364        0.0899       28.0810       28.1709       7.934560       0.22707



 Wavenumbers:  7700. -  8050. cm-1, ATM      1
 LEVEL PRESSURE   UPWARD FLUX   DIFDOWN FLUX  DIRDOWN FLUX  DOWNWARD FLUX   NET FLUX    HEATING RATE
          mb          W/m2          W/m2          W/m2        W/m2          W/m2       degree/day
  51    .06700        6.6035        0.0000       11.1810       11.1810       4.577505       0.00000
  50    .07753        6.6035        0.0000       11.1809       11.1809       4.577482       0.01792
  49    .09103        6.6035        0.0000       11.1809       11.1809       4.577454       0.01756
  48    0.1069        6.6035        0.0000       11.1809       11.1809       4.577422       0.01719
  47    0.1255        6.6035        0.0000       11.1809       11.1809       4.577385       0.01682
  46    0.1487        6.6035        0.0000       11.1808       11.1808       4.577338       0.01707
  45    0.1794        6.6035        0.0000       11.1808       11.1808       4.577274       0.01756
  44    0.2165        6.6035        0.0000       11.1807       11.1807       4.577198       0.01723
  43    0.2613        6.6035        0.0000       11.1806       11.1806       4.577108       0.01691
  42    0.3336        6.6036        0.0000       11.1805       11.1805       4.576960       0.01730
  41    0.4307        6.6036        0.0000       11.1803       11.1804       4.576763       0.01711
  40    0.5894        6.6037        0.0000       11.1801       11.1801       4.576442       0.01709
  39     1.339        6.6040        0.0001       11.1788       11.1789       4.574921       0.01712
  38     1.782        6.6041        0.0001       11.1781       11.1782       4.574028       0.01701
  37     2.292        6.6043        0.0001       11.1772       11.1773       4.572994       0.01712
  36     2.964        6.6046        0.0002       11.1761       11.1762       4.571637       0.01704
  35     3.853        6.6049        0.0002       11.1746       11.1748       4.569843       0.01702
  34     5.035        6.6054        0.0003       11.1726       11.1729       4.567461       0.01702
  33     6.613        6.6060        0.0004       11.1699       11.1703       4.564279       0.01701
  32     8.786        6.6069        0.0005       11.1663       11.1669       4.559992       0.01665
  31     11.80        6.6081        0.0007       11.1612       11.1619       4.553863       0.01716
  30     15.07        6.6094        0.0009       11.1558       11.1566       4.547288       0.01698
  29     18.79        6.6108        0.0011       11.1496       11.1507       4.539866       0.01683
  28     23.16        6.6125        0.0013       11.1424       11.1437       4.531208       0.01674
  27     28.12        6.6145        0.0016       11.1342       11.1358       4.521321       0.01681
  26     33.73        6.6167        0.0019       11.1251       11.1270       4.510277       0.01661
  25     40.54        6.6194        0.0023       11.1141       11.1164       4.496962       0.01652
  24     48.69        6.6227        0.0028       11.1008       11.1036       4.480952       0.01657
  23     57.69        6.6263        0.0033       11.0864       11.0897       4.463423       0.01643
  22     68.43        6.6306        0.0039       11.0693       11.0732       4.442622       0.01635
  21     81.20        6.6357        0.0046       11.0491       11.0537       4.417952       0.01630
  20     96.49        6.6420        0.0054       11.0252       11.0307       4.388712       0.01614
  19     114.6        6.6494        0.0065       10.9972       11.0036       4.354201       0.01611
  18     136.5        6.6584        0.0077       10.9643       10.9720       4.313597       0.01561
  17     162.9        6.6692        0.0091       10.9258       10.9349       4.265647       0.01533
  16     196.4        6.6836        0.0109       10.8767       10.8876       4.204078       0.01550
  15     218.7        6.6931        0.0121       10.8449       10.8571       4.163975       0.01523
  14     243.0        6.7036        0.0135       10.8108       10.8243       4.120661       0.01502
  13     269.0        6.7152        0.0149       10.7744       10.7893       4.074010       0.01513
  12     297.5        6.7280        0.0164       10.7354       10.7519       4.023885       0.01487
  11     328.5        6.7420        0.0181       10.6939       10.7120       3.970000       0.01465
  10     361.9        6.7575        0.0199       10.6498       10.6697       3.912226       0.01462
   9     398.1        6.7745        0.0218       10.6029       10.6247       3.850243       0.01444
   8     437.6        6.7932        0.0239       10.5531       10.5770       3.783766       0.01421
   7     480.5        6.8139        0.0261       10.5003       10.5263       3.712451       0.01401
   6     533.0        6.8403        0.0288       10.4357       10.4645       3.624247       0.01419
   5     589.8        6.8700        0.0317       10.3667       10.3984       3.528404       0.01423
   4     651.6        6.9035        0.0349       10.2925       10.3274       3.423885       0.01429
   3     718.7        6.9415        0.0383       10.2130       10.2512       3.309681       0.01435
   2     792.3        6.9848        0.0419       10.1273       10.1692       3.184361       0.01437
   1     891.5        7.0474        0.0467       10.0108       10.0575       3.010072       0.01483
   0    1013.0        7.1291        0.0525        9.8696        9.9221       2.793055       0.01507



 Wavenumbers:  8050. - 12850. cm-1, ATM      1
 LEVEL PRESSURE   UPWARD FLUX   DIFDOWN FLUX  DIRDOWN FLUX  DOWNWARD FLUX   NET FLUX    HEATING RATE
          mb          W/m2          W/m2          W/m2        W/m2          W/m2       degree/day
  51    .06700       98.2550        0.0000      156.5418      156.5418      58.286783       0.00000
  50    .07753       98.2550        0.0000      156.5417      156.5417      58.286783      -0.00000
  49    .09103       98.2549        0.0001      156.5417      156.5417      58.286783      -0.00000
  48    0.1069       98.2549        0.0001      156.5416      156.5417      58.286783       0.00000
  47    0.1255       98.2549        0.0002      156.5415      156.5417      58.286783       0.00000
  46    0.1487       98.2549        0.0002      156.5414      156.5417      58.286783      -0.00000
  45    0.1794       98.2548        0.0003      156.5413      156.5416      58.286783       0.00000
  44    0.2165       98.2548        0.0004      156.5412      156.5416      58.286783      -0.00000
  43    0.2613       98.2548        0.0006      156.5410      156.5415      58.286783       0.00000
  42    0.3336       98.2547        0.0008      156.5407      156.5415      58.286783      -0.00000
  41    0.4307       98.2546        0.0010      156.5403      156.5413      58.286783       0.00000
  40    0.5894       98.2544        0.0015      156.5397      156.5412      58.286783       0.00000
  39     1.339       98.2536        0.0036      156.5367      156.5403      58.286783       0.00000
  38     1.782       98.2531        0.0049      156.5350      156.5399      58.286783      -0.00000
  37     2.292       98.2523        0.0068      156.5323      156.5391      58.286783       0.00000
  36     2.964       98.2515        0.0089      156.5294      156.5383      58.286783      -0.00000
  35     3.853       98.2505        0.0115      156.5258      156.5373      58.286783       0.00000
  34     5.035       98.2492        0.0149      156.5211      156.5360      58.286783       0.00000
  33     6.613       98.2475        0.0194      156.5149      156.5342      58.286783       0.00000
  32     8.786       98.2451        0.0254      156.5065      156.5319      58.286783      -0.00000
  31     11.80       98.2418        0.0341      156.4945      156.5286      58.286783       0.00000
  30     15.07       98.2382        0.0434      156.4816      156.5250      58.286783      -0.00000
  29     18.79       98.2341        0.0539      156.4670      156.5209      58.286783       0.00000
  28     23.16       98.2294        0.0662      156.4500      156.5162      58.286783      -0.00000
  27     28.12       98.2239        0.0802      156.4305      156.5107      58.286783       0.00000
  26     33.73       98.2178        0.0960      156.4087      156.5046      58.286783      -0.00000
  25     40.54       98.2105        0.1150      156.3822      156.4972      58.286783       0.00000
  24     48.69       98.2015        0.1380      156.3503      156.4883      58.286783      -0.00000
  23     57.69       98.1918        0.1633      156.3152      156.4785      58.286783       0.00000
  22     68.43       98.1801        0.1935      156.2733      156.4668      58.286783       0.00000
  21     81.20       98.1661        0.2295      156.2234      156.4529      58.286783      -0.00000
  20     96.49       98.1495        0.2725      156.1637      156.4362      58.286783      -0.00000
  19     114.6       98.1310        0.3236      156.0646      156.3883      58.257302       0.01377
  18     136.5       98.1087        0.3843      155.9528      156.3371      58.228435       0.01110
  17     162.9       98.0817        0.4568      155.8251      156.2819      58.200153       0.00904
  16     196.4       98.0463        0.5511      155.6611      156.2122      58.165872       0.00863
  15     218.7       98.0234        0.6131      155.5405      156.1536      58.130234       0.01353
  14     243.0       97.9983        0.6806      155.4113      156.0919      58.093598       0.01271
  13     269.0       97.9720        0.7540      155.2515      156.0055      58.033537       0.01948
  12     297.5       97.9449        0.8334      155.0503      155.8836      57.938775       0.02811
  11     328.5       97.9178        0.9193      154.7935      155.7128      57.794985       0.03910
  10     361.9       97.8924        1.0119      154.4657      155.4775      57.585098       0.05310
   9     398.1       97.8712        1.1115      154.0493      155.1608      57.289561       0.06885
   8     437.6       97.8583        1.2185      153.5280      154.7465      56.888176       0.08582
   7     480.5       97.8598        1.3330      152.8809      154.2140      56.354159       0.10488
   6     533.0       97.8904        1.4736      151.9511      153.4247      55.534327       0.13188
   5     589.8       97.9692        1.6242      150.7710      152.3952      54.426032       0.16451
   4     651.6       98.1265        1.7847      149.2728      151.0575      52.930969       0.20445
   3     718.7       98.3953        1.9549      147.4635      149.4184      51.023043       0.23977
   2     792.3       98.8374        2.1342      145.3076      147.4418      48.604436       0.27739
   1     891.5       99.7490        2.3715      142.1749      144.5464      44.797360       0.32396
   0    1013.0      101.4516        2.6506      138.3470      140.9977      39.546054       0.36463



 Wavenumbers: 12850. - 16000. cm-1, ATM      1
 LEVEL PRESSURE   UPWARD FLUX   DIFDOWN FLUX  DIRDOWN FLUX  DOWNWARD FLUX   NET FLUX    HEATING RATE
          mb          W/m2          W/m2          W/m2        W/m2          W/m2       degree/day
  51    .06700       76.5943        0.0000       98.0872       98.0872      21.492921       0.00000
  50    .07753       76.5943        0.0001       98.0864       98.0864      21.492129       0.63525
  49    .09103       76.5943        0.0002       98.0853       98.0854      21.491133       0.62228
  48    0.1069       76.5943        0.0003       98.0841       98.0843      21.489989       0.60908
  47    0.1255       76.5943        0.0004       98.0826       98.0830      21.488674       0.59618
  46    0.1487       76.5944        0.0005       98.0809       98.0814      21.487014       0.60518
  45    0.1794       76.5944        0.0007       98.0784       98.0792      21.484754       0.62026
  44    0.2165       76.5945        0.0010       98.0756       98.0766      21.482095       0.60486
  43    0.2613       76.5946        0.0012       98.0723       98.0736      21.478967       0.58970
  42    0.3336       76.5949        0.0017       98.0670       98.0687      21.473858       0.59569
  41    0.4307       76.5953        0.0023       98.0602       98.0625      21.467246       0.57489
  40    0.5894       76.5961        0.0033       98.0496       98.0529      21.456816       0.55465
  39     1.339       76.6031        0.0081       98.0043       98.0125      21.409379       0.53405
  38     1.782       76.6094        0.0109       97.9793       97.9902      21.380786       0.54436
  37     2.292       76.6185        0.0153       97.9483       97.9636      21.345097       0.59111
  36     2.964       76.6340        0.0199       97.9069       97.9268      21.292806       0.65640
  35     3.853       76.6590        0.0257       97.8481       97.8739      21.214846       0.73985
  34     5.035       76.6968        0.0333       97.7657       97.7990      21.102168       0.80492
  33     6.613       76.7496        0.0434       97.6538       97.6971      20.947578       0.82644
  32     8.786       76.8183        0.0569       97.5082       97.5651      20.746777       0.77984
  31     11.80       76.9078        0.0761       97.3154       97.3914      20.483653       0.73667
  30     15.07       76.9936        0.0967       97.1258       97.2225      20.228868       0.65780
  29     18.79       77.0814        0.1200       96.9275       97.0474      19.966053       0.59588
  28     23.16       77.1733        0.1471       96.7140       96.8611      19.687870       0.53792
  27     28.12       77.2659        0.1781       96.4909       96.6691      19.403173       0.48397
  26     33.73       77.3518        0.2128       96.2705       96.4834      19.131604       0.40831
  25     40.54       77.4350        0.2548       96.0382       96.2930      18.858049       0.33938
  24     48.69       77.5153        0.3054       95.7920       96.0974      18.582101       0.28556
  23     57.69       77.5842        0.3609       95.5547       95.9157      18.331443       0.23495
  22     68.43       77.6454        0.4272       95.3080       95.7352      18.089768       0.18999
  21     81.20       77.6898        0.5062       95.0618       95.5679      17.878187       0.13981
  20     96.49       77.7161        0.6004       94.8127       95.4131      17.696990       0.10001
  19     114.6       77.7426        0.7132       94.5382       95.2513      17.508725       0.08791
  18     136.5       77.7634        0.8469       94.2289       95.0758      17.312337       0.07552
  17     162.9       77.7787        1.0060       93.8720       94.8780      17.099363       0.06808
  16     196.4       77.7779        1.2124       93.4314       94.6438      16.865870       0.05877
  15     218.7       77.7702        1.3479       93.1485       94.4964      16.726205       0.05303
  14     243.0       77.7588        1.4952       92.8432       94.3385      16.579656       0.05083
  13     269.0       77.7434        1.6548       92.5154       94.1702      16.426833       0.04957
  12     297.5       77.7240        1.8273       92.1638       93.9911      16.267077       0.04738
  11     328.5       77.7026        2.0136       91.7854       93.7990      16.096395       0.04641
  10     361.9       77.6795        2.2142       91.3792       93.5934      15.913832       0.04619
   9     398.1       77.6554        2.4301       90.9437       93.3738      15.718398       0.04553
   8     437.6       77.6315        2.6619       90.4762       93.1381      15.506603       0.04528
   7     480.5       77.6090        2.9103       89.9746       92.8849      15.275881       0.04531
   6     533.0       77.5878        3.2162       89.3533       92.5694      14.981645       0.04733
   5     589.8       77.5753        3.5458       88.6760       92.2219      14.646599       0.04973
   4     651.6       77.5778        3.8998       87.9354       91.8352      14.257389       0.05323
   3     718.7       77.6016        4.2795       87.1259       91.4054      13.803786       0.05701
   2     792.3       77.6583        4.6849       86.2411       90.9260      13.267648       0.06149
   1     891.5       77.7962        5.2295       85.0249       90.2544      12.458253       0.06888
   0    1013.0       78.0662        5.8804       83.5547       89.4351      11.368979       0.07563



 Wavenumbers: 16000. - 22650. cm-1, ATM      1
 LEVEL PRESSURE   UPWARD FLUX   DIFDOWN FLUX  DIRDOWN FLUX  DOWNWARD FLUX   NET FLUX    HEATING RATE
          mb          W/m2          W/m2          W/m2        W/m2          W/m2       degree/day
  51    .06700      141.5957        0.0000      156.3892      156.3892      14.793570       0.00000
  50    .07753      141.5957        0.0004      156.3887      156.3891      14.793422       0.11900
  49    .09103      141.5956        0.0009      156.3879      156.3888      14.793206       0.13497
  48    0.1069      141.5956        0.0015      156.3871      156.3885      14.792917       0.15391
  47    0.1255      141.5957        0.0021      156.3861      156.3882      14.792530       0.17543
  46    0.1487      141.5957        0.0030      156.3847      156.3877      14.791959       0.20789
  45    0.1794      141.5958        0.0041      156.3828      156.3869      14.791068       0.24477
  44    0.2165      141.5961        0.0054      156.3805      156.3859      14.789858       0.27510
  43    0.2613      141.5964        0.0070      156.3776      156.3846      14.788218       0.30927
  42    0.3336      141.5972        0.0097      156.3726      156.3823      14.785098       0.36370
  41    0.4307      141.5985        0.0132      156.3657      156.3789      14.780396       0.40884
  40    0.5894      141.6011        0.0189      156.3537      156.3725      14.771428       0.47689
  39     1.339      141.6241        0.0459      156.2834      156.3293      14.705173       0.74591
  38     1.782      141.6454        0.0617      156.2324      156.2941      14.648732       1.07455
  37     2.292      141.6757        0.0864      156.1563      156.2427      14.567033       1.35315
  36     2.964      141.7281        0.1126      156.0502      156.1628      14.434679       1.66144
  35     3.853      141.8132        0.1454      155.8925      156.0379      14.224664       1.99308
  34     5.035      141.9419        0.1882      155.6651      155.8533      13.911336       2.23829
  33     6.613      142.1218        0.2448      155.3529      155.5977      13.475892       2.32788
  32     8.786      142.3563        0.3208      154.9447      155.2655      12.909267       2.20057
  31     11.80      142.6614        0.4292      154.4022      154.8314      12.169944       2.06987
  30     15.07      142.9538        0.5453      153.8672      154.4126      11.458714       1.83626
  29     18.79      143.2524        0.6762      153.3059      153.9822      10.729742       1.65280
  28     23.16      143.5646        0.8289      152.6994      153.5283       9.963751       1.48118
  27     28.12      143.8787        1.0032      152.0624      153.0656       9.186876       1.32063
  26     33.73      144.1688        1.1981      151.4278      152.6260       8.457128       1.09720
  25     40.54      144.4482        1.4334      150.7506      152.1840       7.735846       0.89483
  24     48.69      144.7158        1.7167      150.0208      151.7375       7.021736       0.73899
  23     57.69      144.9429        2.0276      149.3022      151.3297       6.386795       0.59516
  22     68.43      145.1414        2.3974      148.5347      150.9321       5.790730       0.46859
  21     81.20      145.2789        2.8378      147.7388      150.5766       5.297626       0.32584
  20     96.49      145.3511        3.3620      146.8998      150.2618       4.910651       0.21358
  19     114.6      145.3892        3.9826      145.9635      149.9461       4.556834       0.16521
  18     136.5      145.4026        4.7154      144.8960      149.6114       4.208766       0.13384
  17     162.9      145.3897        5.5839      143.6659      149.2498       3.860116       0.11144
  16     196.4      145.3106        6.7047      142.1525      148.8572       3.546580       0.07892
  15     218.7      145.2358        7.4370      141.1910      148.6280       3.392217       0.05861
  14     243.0      145.1439        8.2297      140.1634      148.3931       3.249222       0.04960
  13     269.0      145.0332        9.0848      139.0686      148.1535       3.120310       0.04182
  12     297.5      144.9028       10.0044      137.9048      147.9092       3.006395       0.03379
  11     328.5      144.7569       10.9928      136.6610      147.6538       2.896927       0.02976
  10     361.9      144.5949       12.0508      135.3365      147.3874       2.792469       0.02643
   9     398.1      144.4162       13.1826      133.9264      147.1091       2.692862       0.02321
   8     437.6      144.2213       14.3901      132.4274      146.8174       2.596134       0.02068
   7     480.5      144.0094       15.6754      130.8371      146.5125       2.503068       0.01828
   6     533.0      143.7461       17.2451      128.9005      146.1456       2.399472       0.01667
   5     589.8      143.4617       18.9221      126.8356      145.7576       2.295895       0.01537
   4     651.6      143.1571       20.7077      124.6394      145.3471       2.190004       0.01448
   3     718.7      142.8325       22.6038      122.3093      144.9131       2.080634       0.01374
   2     792.3      142.4895       24.6088      119.8457      144.4545       1.965050       0.01326
   1     891.5      142.0364       27.2731      116.5702      143.8432       1.806858       0.01346
   0    1013.0      141.5068       30.4088      112.7127      143.1215       1.614761       0.01334



 Wavenumbers: 22650. - 29000. cm-1, ATM      1
 LEVEL PRESSURE   UPWARD FLUX   DIFDOWN FLUX  DIRDOWN FLUX  DOWNWARD FLUX   NET FLUX    HEATING RATE
          mb          W/m2          W/m2          W/m2        W/m2          W/m2       degree/day
  51    .06700       58.3821        0.0000       59.0156       59.0156       0.633507       0.00000
  50    .07753       58.3820        0.0005       59.0151       59.0155       0.633507      -0.00000
  49    .09103       58.3819        0.0010       59.0144       59.0154       0.633507      -0.00000
  48    0.1069       58.3818        0.0017       59.0136       59.0153       0.633507       0.00000
  47    0.1255       58.3816        0.0025       59.0127       59.0151       0.633507      -0.00000
  46    0.1487       58.3814        0.0034       59.0115       59.0149       0.633507       0.00000
  45    0.1794       58.3812        0.0048       59.0099       59.0147       0.633507       0.00000
  44    0.2165       58.3809        0.0063       59.0080       59.0144       0.633507      -0.00000
  43    0.2613       58.3805        0.0082       59.0058       59.0140       0.633507      -0.00000
  42    0.3336       58.3799        0.0113       59.0022       59.0134       0.633507       0.00000
  41    0.4307       58.3791        0.0153       58.9973       59.0126       0.633507      -0.00000
  40    0.5894       58.3778        0.0220       58.9894       59.0113       0.633507       0.00000
  39     1.339       58.3717        0.0534       58.9518       59.0052       0.633507       0.00000
  38     1.782       58.3681        0.0719       58.9297       59.0016       0.633507       0.00000
  37     2.292       58.3625        0.1006       58.8953       58.9960       0.633507      -0.00000
  36     2.964       58.3565        0.1311       58.8590       58.9901       0.633507       0.00000
  35     3.853       58.3491        0.1693       58.8133       58.9826       0.633507       0.00000
  34     5.035       58.3394        0.2192       58.7536       58.9729       0.633507       0.00000
  33     6.613       58.3265        0.2853       58.6747       58.9600       0.633507      -0.00000
  32     8.786       58.3092        0.3740       58.5687       58.9427       0.633507       0.00000
  31     11.80       58.2845        0.5004       58.4176       58.9180       0.633507       0.00000
  30     15.07       58.2581        0.6359       58.2558       58.8916       0.633507       0.00000
  29     18.79       58.2283        0.7885       58.0733       58.8618       0.633507       0.00000
  28     23.16       58.1936        0.9663       57.8608       58.8271       0.633507      -0.00000
  27     28.12       58.1541        1.1691       57.6185       58.7876       0.633507      -0.00000
  26     33.73       58.1100        1.3952       57.3483       58.7435       0.633507       0.00000
  25     40.54       58.0569        1.6672       57.0232       58.6904       0.633507       0.00000
  24     48.69       57.9932        1.9935       56.6332       58.6267       0.633507      -0.00000
  23     57.69       57.9237        2.3496       56.2075       58.5572       0.633507      -0.00000
  22     68.43       57.8414        2.7708       55.7041       58.4749       0.633507       0.00000
  21     81.20       57.7443        3.2681       55.1096       58.3778       0.633507       0.00000
  20     96.49       57.6297        3.8545       54.4087       58.2632       0.633507       0.00000
  19     114.6       57.4953        4.5417       53.5871       58.1288       0.633507       0.00000
  18     136.5       57.3384        5.3438       52.6282       57.9720       0.633507      -0.00000
  17     162.9       57.1549        6.2814       51.5070       57.7884       0.633507       0.00000
  16     196.4       56.9222        7.4692       50.0865       57.5557       0.633507       0.00000
  15     218.7       56.7726        8.2325       49.1736       57.4061       0.633507       0.00000
  14     243.0       56.6127        9.0473       48.1989       57.2463       0.633507       0.00000
  13     269.0       56.4427        9.9132       47.1630       57.0762       0.633507       0.00000
  12     297.5       56.2627       10.8294       46.0669       56.8962       0.633507      -0.00000
  11     328.5       56.0724       11.7971       44.9088       56.7059       0.633507       0.00000
  10     361.9       55.8722       12.8138       43.6920       56.5057       0.633507       0.00000
   9     398.1       55.6622       13.8795       42.4162       56.2957       0.633507      -0.00000
   8     437.6       55.4426       14.9920       41.0841       56.0761       0.633507       0.00000
   7     480.5       55.2140       16.1488       39.6987       55.8475       0.633507      -0.00000
   6     533.0       54.9418       17.5234       38.0519       55.5753       0.633507       0.00000
   5     589.8       54.6594       18.9468       36.3461       55.2929       0.633507       0.00000
   4     651.6       54.3680       20.4127       34.5888       55.0015       0.633507      -0.00000
   3     718.7       54.0684       21.9151       32.7869       54.7020       0.633507       0.00000
   2     792.3       53.7628       23.4438       30.9524       54.3963       0.633507       0.00000
   1     891.5       53.3742       25.3795       28.6281       54.0077       0.633507      -0.00000
   0    1013.0       52.9404       27.5289       26.0450       53.5739       0.633507       0.00000



 Wavenumbers: 29000. - 38000. cm-1, ATM      1
 LEVEL PRESSURE   UPWARD FLUX   DIFDOWN FLUX  DIRDOWN FLUX  DOWNWARD FLUX   NET FLUX    HEATING RATE
          mb          W/m2          W/m2          W/m2        W/m2          W/m2       degree/day
  51    .06700        8.7388        0.0000       20.8114       20.8114      12.072509       0.00000
  50    .07753        8.7387        0.0003       20.8070       20.8074      12.068702       3.05167
  49    .09103        8.7384        0.0007       20.8009       20.8016      12.063164       3.46099
  48    0.1069        8.7382        0.0012       20.7928       20.7939      12.055754       3.94445
  47    0.1255        8.7379        0.0017       20.7820       20.7837      12.045849       4.49052
  46    0.1487        8.7375        0.0024       20.7665       20.7688      12.031285       5.30866
  45    0.1794        8.7371        0.0033       20.7424       20.7457      12.008619       6.22230
  44    0.2165        8.7366        0.0044       20.7103       20.7147      11.978095       6.94369
  43    0.2613        8.7360        0.0056       20.6675       20.6731      11.937099       7.72765
  42    0.3336        8.7351        0.0077       20.5880       20.5956      11.860535       8.92664
  41    0.4307        8.7340        0.0104       20.4722       20.4826      11.748577       9.73447
  40    0.5894        8.7325        0.0147       20.2637       20.2784      11.545883      10.77899
  39     1.339        8.7292        0.0331       19.0984       19.1315      10.402322      12.87443
  38     1.782        8.7297        0.0427       18.4394       18.4820       9.752305      12.37527
  37     2.292        8.7300        0.0571       17.7649       17.8221       9.092040      10.93572
  36     2.964        8.7359        0.0710       17.0338       17.1048       8.368919       9.07735
  35     3.853        8.7483        0.0873       16.2587       16.3460       7.597702       7.31898
  34     5.035        8.7691        0.1075       15.4713       15.5788       6.809679       5.62931
  33     6.613        8.7996        0.1331       14.7072       14.8403       6.040735       4.11078
  32     8.786        8.8399        0.1667       13.9856       14.1523       5.312350       2.82878
  31     11.80        8.8926        0.2135       13.2761       13.4896       4.596936       2.00293
  30     15.07        8.9434        0.2622       12.7315       12.9938       4.050355       1.41116
  29     18.79        8.9959        0.3161       12.2592       12.5753       3.579374       1.06786
  28     23.16        9.0516        0.3774       11.8229       12.2003       3.148687       0.83281
  27     28.12        9.1087        0.4460       11.4211       11.8671       2.758430       0.66341
  26     33.73        9.1614        0.5217       11.0630       11.5847       2.423320       0.50385
  25     40.54        9.2113        0.6122       10.7147       11.3269       2.115538       0.38184
  24     48.69        9.2584        0.7196       10.3682       11.0878       1.829360       0.29615
  23     57.69        9.2970        0.8358       10.0491       10.8850       1.587936       0.22630
  22     68.43        9.3282        0.9722        9.7272       10.6994       1.371216       0.17037
  21     81.20        9.3429        1.1333        9.4081       10.5413       1.198415       0.11418
  20     96.49        9.3393        1.3226        9.0836       10.4062       1.066881       0.07260
  19     114.6        9.3254        1.5414        8.7339       10.2752       0.949808       0.05467
  18     136.5        9.3042        1.7915        8.3502       10.1417       0.837481       0.04319
  17     162.9        9.2757        2.0765        7.9267       10.0032       0.727509       0.03515
  16     196.4        9.2281        2.4296        7.4292        9.8588       0.630723       0.02436
  15     218.7        9.1938        2.6517        7.1256        9.7773       0.583522       0.01792
  14     243.0        9.1562        2.8839        6.8123        9.6962       0.539939       0.01512
  13     269.0        9.1152        3.1252        6.4908        9.6160       0.500808       0.01269
  12     297.5        9.0708        3.3747        6.1624        9.5371       0.466316       0.01023
  11     328.5        9.0244        3.6313        5.8264        9.4577       0.433294       0.00898
  10     361.9        8.9765        3.8925        5.4858        9.3784       0.401892       0.00795
   9     398.1        8.9272        4.1578        5.1415        9.2993       0.372135       0.00693
   8     437.6        8.8770        4.4258        4.7947        9.2205       0.343455       0.00613
   7     480.5        8.8263        4.6942        4.4483        9.1425       0.316230       0.00535
   6     533.0        8.7681        4.9998        4.0549        9.0547       0.286562       0.00477
   5     589.8        8.7109        5.3004        3.6683        8.9687       0.257839       0.00426
   4     651.6        8.6551        5.5939        3.2910        8.8849       0.229738       0.00384
   3     718.7        8.6017        5.8771        2.9268        8.8039       0.202218       0.00346
   2     792.3        8.5513        6.1467        2.5798        8.7266       0.175285       0.00309
   1     891.5        8.4933        6.4631        2.1722        8.6354       0.142036       0.00283
   0    1013.0        8.4376        6.7799        1.7630        8.5430       0.105322       0.00255



 Wavenumbers: 38000. - 50000. cm-1, ATM      1
 LEVEL PRESSURE   UPWARD FLUX   DIFDOWN FLUX  DIRDOWN FLUX  DOWNWARD FLUX   NET FLUX    HEATING RATE
          mb          W/m2          W/m2          W/m2        W/m2          W/m2       degree/day
  51    .06700        0.0063        0.0000        1.2836        1.2836       1.277365       0.00000
  50    .07753        0.0062        0.0001        1.2812        1.2812       1.275030       1.87161
  49    .09103        0.0061        0.0002        1.2777        1.2778       1.271698       2.08258
  48    0.1069        0.0061        0.0002        1.2731        1.2734       1.267319       2.33071
  47    0.1255        0.0060        0.0004        1.2672        1.2675       1.261564       2.60921
  46    0.1487        0.0058        0.0005        1.2586        1.2591       1.253237       3.03513
  45    0.1794        0.0057        0.0007        1.2455        1.2462       1.240469       3.50535
  44    0.2165        0.0055        0.0009        1.2282        1.2291       1.223542       3.85054
  43    0.2613        0.0053        0.0011        1.2054        1.2065       1.201192       4.21279
  42    0.3336        0.0050        0.0015        1.1639        1.1654       1.160366       4.75991
  41    0.4307        0.0046        0.0020        1.1051        1.1070       1.102404       5.03965
  40    0.5894        0.0041        0.0026        1.0039        1.0064       1.002358       5.32033
  39     1.339        0.0024        0.0035        0.5438        0.5473       0.544898       5.15017
  38     1.782        0.0019        0.0032        0.3635        0.3666       0.364751       3.42971
  37     2.292        0.0013        0.0029        0.2352        0.2381       0.236804       2.11914
  36     2.964        0.0009        0.0024        0.1451        0.1475       0.146596       1.13238
  35     3.853        0.0006        0.0018        0.0856        0.0874       0.086806       0.56742
  34     5.035        0.0004        0.0014        0.0487        0.0501       0.049648       0.26544
  33     6.613        0.0003        0.0010        0.0272        0.0282       0.027942       0.11604
  32     8.786        0.0002        0.0007        0.0144        0.0151       0.014911       0.05061
  31     11.80        0.0001        0.0005        0.0065        0.0070       0.006895       0.02244
  30     15.07        0.0000        0.0003        0.0031        0.0034       0.003326       0.00922
  29     18.79        0.0000        0.0002        0.0014        0.0016       0.001582       0.00395
  28     23.16        0.0000        0.0001        0.0006        0.0007       0.000720       0.00167
  27     28.12        0.0000        0.0001        0.0003        0.0003       0.000317       0.00068
  26     33.73        0.0000        0.0000        0.0001        0.0001       0.000139       0.00027
  25     40.54        0.0000        0.0000        0.0000        0.0001       0.000057       0.00010
  24     48.69        0.0000        0.0000        0.0000        0.0000       0.000021       0.00004
  23     57.69        0.0000        0.0000        0.0000        0.0000       0.000008       0.00001
  22     68.43        0.0000        0.0000        0.0000        0.0000       0.000003       0.00000
  21     81.20        0.0000        0.0000        0.0000        0.0000       0.000001       0.00000
  20     96.49        0.0000        0.0000        0.0000        0.0000       0.000000       0.00000
  19     114.6        0.0000        0.0000        0.0000        0.0000       0.000000       0.00000
  18     136.5        0.0000        0.0000        0.0000        0.0000       0.000000       0.00000
  17     162.9        0.0000        0.0000        0.0000        0.0000       0.000000       0.00000
  16     196.4        0.0000        0.0000        0.0000        0.0000       0.000000       0.00000
  15     218.7        0.0000        0.0000        0.0000        0.0000       0.000000       0.00000
  14     243.0        0.0000        0.0000        0.0000        0.0000       0.000000       0.00000
  13     269.0        0.0000        0.0000        0.0000        0.0000       0.000000       0.00000
  12     297.5        0.0000        0.0000        0.0000        0.0000       0.000000       0.00000
  11     328.5        0.0000        0.0000        0.0000        0.0000       0.000000       0.00000
  10     361.9        0.0000        0.0000        0.0000        0.0000       0.000000       0.00000
   9     398.1        0.0000        0.0000        0.0000        0.0000       0.000000       0.00000
   8     437.6        0.0000        0.0000        0.0000        0.0000       0.000000       0.00000
   7     480.5        0.0000        0.0000        0.0000        0.0000       0.000000       0.00000
   6     533.0        0.0000        0.0000        0.0000        0.0000       0.000000       0.00000
   5     589.8        0.0000        0.0000        0.0000        0.0000       0.000000       0.00000
   4     651.6        0.0000        0.0000        0.0000        0.0000       0.000000       0.00000
   3     718.7        0.0000        0.0000        0.0000        0.0000       0.000000       0.00000
   2     792.3        0.0000        0.0000        0.0000        0.0000       0.000000       0.00000
   1     891.5        0.0000        0.0000        0.0000        0.0000       0.000000       0.00000
   0    1013.0        0.0000        0.0000        0.0000        0.0000       0.000000       0.00000



 Wavenumbers:   820. -  2600. cm-1, ATM      1
 LEVEL PRESSURE   UPWARD FLUX   DIFDOWN FLUX  DIRDOWN FLUX  DOWNWARD FLUX   NET FLUX    HEATING RATE
          mb          W/m2          W/m2          W/m2        W/m2          W/m2       degree/day
  51    .06700        1.0528        0.0000        6.0047        6.0047       4.951810       0.00000
  50    .07753        1.0528        0.0000        6.0009        6.0009       4.948030       3.02937
  49    .09103        1.0528        0.0000        6.0001        6.0001       4.947240       0.49378
  48    0.1069        1.0528        0.0000        5.9992        5.9992       4.946365       0.46572
  47    0.1255        1.0528        0.0000        5.9982        5.9982       4.945384       0.44470
  46    0.1487        1.0528        0.0000        5.9970        5.9970       4.944206       0.42941
  45    0.1794        1.0528        0.0000        5.9956        5.9956       4.942740       0.40259
  44    0.2165        1.0528        0.0000        5.9940        5.9940       4.941207       0.34860
  43    0.2613        1.0528        0.0000        5.9925        5.9925       4.939628       0.29770
  42    0.3336        1.0528        0.0000        5.9902        5.9902       4.937399       0.25991
  41    0.4307        1.0528        0.0000        5.9877        5.9877       4.934811       0.22503
  40    0.5894        1.0528        0.0000        5.9836        5.9836       4.930779       0.21442
  39     1.339        1.0528        0.0000        5.9651        5.9651       4.912268       0.20839
  38     1.782        1.0528        0.0000        5.9549        5.9549       4.902052       0.19451
  37     2.292        1.1280        0.0000        2.0507        2.0507       0.922628      65.90963
  36     2.964        1.1592        0.0000        1.9050        1.9050       0.745783       2.21994
  35     3.853        1.1771        0.0000        1.8486        1.8486       0.671449       0.70545
  34     5.035        1.1882        0.0000        1.8200        1.8200       0.631798       0.28325
  33     6.613        1.1951        0.0000        1.8040        1.8040       0.608863       0.12261
  32     8.786        1.1994        0.0000        1.7947        1.7947       0.595339       0.05252
  31     11.80        1.2021        0.0000        1.7890        1.7890       0.586876       0.02370
  30     15.07        1.2036        0.0000        1.7860        1.7860       0.582431       0.01148
  29     18.79        1.2045        0.0000        1.7842        1.7842       0.579727       0.00613
  28     23.16        1.2051        0.0000        1.7830        1.7830       0.577839       0.00365
  27     28.12        1.2056        0.0000        1.7820        1.7820       0.576412       0.00243
  26     33.73        1.2060        0.0000        1.7813        1.7813       0.575309       0.00166
  25     40.54        1.2065        0.0000        1.7803        1.7803       0.573792       0.00188
  24     48.69        1.2069        0.0000        1.7794        1.7794       0.572489       0.00135
  23     57.69        1.2073        0.0000        1.7787        1.7787       0.571457       0.00097
  22     68.43        1.2076        0.0000        1.7781        1.7781       0.570559       0.00071
  21     81.20        1.2078        0.0000        1.7776        1.7776       0.569772       0.00052
  20     96.49        1.2081        0.0000        1.7771        1.7772       0.569065       0.00039
  19     114.6        1.2083        0.0000        1.7767        1.7767       0.568400       0.00031
  18     136.5        1.2086        0.0000        1.7762        1.7762       0.567691       0.00027
  17     162.9        1.2088        0.0000        1.7758        1.7758       0.567005       0.00022
  16     196.4        1.2090        0.0000        1.7753        1.7753       0.566314       0.00017
  15     218.7        1.2092        0.0000        1.7750        1.7751       0.565891       0.00016
  14     243.0        1.2093        0.0000        1.7748        1.7748       0.565545       0.00012
  13     269.0        1.2094        0.0000        1.7746        1.7746       0.565157       0.00013
  12     297.5        1.2096        0.0000        1.7742        1.7743       0.564669       0.00014
  11     328.5        1.2098        0.0000        1.7738        1.7739       0.564051       0.00017
  10     361.9        1.2101        0.0000        1.7733        1.7733       0.563241       0.00021
   9     398.1        1.2104        0.0000        1.7726        1.7726       0.562194       0.00024
   8     437.6        1.2109        0.0000        1.7717        1.7718       0.560855       0.00029
   7     480.5        1.2115        0.0000        1.7707        1.7707       0.559210       0.00032
   6     533.0        1.2123        0.0000        1.7690        1.7691       0.556724       0.00040
   5     589.8        1.2135        0.0000        1.7668        1.7668       0.553300       0.00051
   4     651.6        1.2153        0.0000        1.7636        1.7636       0.548315       0.00068
   3     718.7        1.2178        0.0000        1.7592        1.7592       0.541410       0.00087
   2     792.3        1.2214        0.0000        1.7529        1.7530       0.531580       0.00113
   1     891.5        1.2280        0.0000        1.7419        1.7420       0.513936       0.00150
   0    1013.0        1.2388        0.0001        1.7250        1.7250       0.486283       0.00192

  Modules and versions used in this calculation:

       rrtmg_sw.1col.f90:  $Revision$                    rrtmg_sw_init.f90:  $Revision$        
     rrtmgsw_cldprop.f90:  $Revision$                  rrtmgsw_cldprmc.f90:  NOT USED          
     rrtmg_sw_reftra.f90:  $Revision$                  rrtmg_sw_spcvrt.f90:  NOT USED          
     rrtmg_sw_spcvmc.f90:  NOT USED                    rrtmgsw_setcoef.f90:  NOT USED          
     rrtmg_sw_taumol.f90:  $Revision$                  rrtmg_sw_vrtqdr.f90:  NOT USED          
                rrtatm.f:  NOT USED                             util_xxx.f:  NOT USED          
                 extra.f:  NOT USED                       rrtmg_sw_k_g.f90:  $Revision$        

