

 Wavenumbers:   820. - 50000. cm-1, ATM      1
 LEVEL PRESSURE   UPWARD FLUX   DIFDOWN FLUX  DIRDOWN FLUX  DOWNWARD FLUX   NET FLUX    HEATING RATE
          mb          W/m2          W/m2          W/m2        W/m2          W/m2       degree/day
  51    .06700      397.0708        0.0000      617.8126      617.8126     220.741746       0.00000
  50    .07753      397.0705        0.0013      617.7948      617.7962     220.725731      12.83581
  49    .09103      397.0700        0.0030      617.7782      617.7812     220.711189       9.08962
  48    0.1069      397.0695        0.0050      617.7588      617.7638     220.694282       8.99934
  47    0.1255      397.0690        0.0072      617.7352      617.7424     220.673359       9.48553
  46    0.1487      397.0684        0.0100      617.7026      617.7126     220.644213      10.62406
  45    0.1794      397.0677        0.0139      617.6545      617.6684     220.600714      11.94144
  44    0.2165      397.0669        0.0184      617.5928      617.6112     220.544266      12.84094
  43    0.2613      397.0662        0.0237      617.5133      617.5370     220.470816      13.84507
  42    0.3336      397.0653        0.0325      617.3703      617.4029     220.337556      15.53683
  41    0.4307      397.0646        0.0441      617.1679      617.2120     220.147425      16.53145
  40    0.5894      397.0644        0.0629      616.8134      616.8763     219.811893      17.84318
  39     1.339      397.0818        0.1475      614.9754      615.1228     218.041056      19.93640
  38     1.782      397.1050        0.1951      614.0076      614.2026     217.097665      17.96064
  37     2.292      397.1751        0.3870      596.7855      597.1725     199.997406     283.22491
  36     2.964      397.2555        0.4993      594.2897      594.7889     197.533386      30.93089
  35     3.853      397.3747        0.6114      592.4101      593.0214     195.646717      17.90484
  34     5.035      397.5502        0.7434      590.7114      591.4548     193.904583      12.44509
  33     6.613      397.7929        0.9102      589.0668      589.9770     192.184058       9.19793
  32     8.786      398.1066        1.1291      587.4083      588.5374     190.430816       6.80896
  31     11.80      398.5110        1.4380      585.5863      587.0242     188.513240       5.36861
  30     15.07      398.8948        1.7671      583.9976      585.7647     186.869868       4.24287
  29     18.79      399.2838        2.1366      582.4541      584.5908     185.306956       3.54360
  28     23.16      399.6870        2.5661      580.8640      583.4301     183.743176       3.02385
  27     28.12      400.0882        3.0551      579.2378      582.2928     182.204610       2.61546
  26     33.73      400.4500        3.6002      577.6294      581.2296     180.779584       2.14257
  25     40.54      400.7857        4.2568      575.8678      580.1246     179.338956       1.78726
  24     48.69      401.0918        5.0447      573.9552      578.9999     177.908075       1.48074
  23     57.69      401.3325        5.9060      572.0482      577.9542     176.621731       1.20575
  22     68.43      401.5154        6.9265      569.9784      576.9049     175.389478       0.96872
  21     81.20      401.5892        8.1364      567.7645      575.9009     174.311702       0.71218
  20     96.49      401.5435        9.5691      565.3611      574.9302     173.386660       0.51056
  19     114.6      401.4421       11.2544      562.4210      573.6753     172.233186       0.53859
  18     136.5      401.2765       13.2277      559.1263      572.3540     171.077509       0.44439
  17     162.9      401.0395       15.5433      555.3906      570.9339     169.894432       0.37816
  16     196.4      400.6431       18.4971      550.7756      569.2727     168.629587       0.31838
  15     218.7      400.3543       20.4062      547.6970      568.1032     167.748899       0.33436
  14     243.0      400.0289       22.4541      544.4293      566.8835     166.854536       0.31019
  13     269.0      399.6680       24.6423      540.7368      565.3791     165.711050       0.37094
  12     297.5      399.2732       26.9712      536.5007      563.4720     164.198772       0.44853
  11     328.5      398.8543       29.4473      531.5611      561.0084     162.154121       0.55593
  10     361.9      398.4171       32.0663      525.7405      557.8067     159.389657       0.69944
   9     398.1      397.9688       34.8327      518.8517      553.6845     155.715642       0.85596
   8     437.6      397.5241       37.7451      510.7829      548.5280     151.003919       1.00740
   7     480.5      397.1011       40.8013      501.5380      542.3393     145.238207       1.13236
   6     533.0      396.6810       44.4742      489.7109      534.1850     137.504065       1.24418
   5     589.8      396.3884       48.3277      476.8761      525.2038     128.815348       1.28969
   4     651.6      396.3207       52.3514      463.2026      515.5540     119.233323       1.31037
   3     718.7      396.5815       56.5377      449.0987      505.6364     109.054873       1.27915
   2     792.3      397.3870       60.8697      434.4558      495.3255      97.938485       1.27493
   1     891.5      399.6034       66.4774      415.5935      482.0708      82.467469       1.31651
   0    1013.0      404.6394       72.8816      394.8125      467.6941      63.054658       1.34793



 Wavenumbers:  2600. -  3250. cm-1, ATM      1
 LEVEL PRESSURE   UPWARD FLUX   DIFDOWN FLUX  DIRDOWN FLUX  DOWNWARD FLUX   NET FLUX    HEATING RATE
          mb          W/m2          W/m2          W/m2        W/m2          W/m2       degree/day
  51    .06700        1.2365        0.0000        5.4450        5.4450       4.208525       0.00000
  50    .07753        1.2365        0.0000        5.4450        5.4450       4.208517       0.00640
  49    .09103        1.2365        0.0000        5.4450        5.4450       4.208507       0.00627
  48    0.1069        1.2365        0.0000        5.4450        5.4450       4.208496       0.00613
  47    0.1255        1.2365        0.0000        5.4450        5.4450       4.208483       0.00599
  46    0.1487        1.2365        0.0000        5.4450        5.4450       4.208466       0.00608
  45    0.1794        1.2365        0.0000        5.4450        5.4450       4.208443       0.00625
  44    0.2165        1.2365        0.0000        5.4449        5.4449       4.208416       0.00612
  43    0.2613        1.2365        0.0000        5.4449        5.4449       4.208384       0.00600
  42    0.3336        1.2365        0.0000        5.4448        5.4448       4.208332       0.00617
  41    0.4307        1.2365        0.0000        5.4448        5.4448       4.208260       0.00620
  40    0.5894        1.2365        0.0000        5.4446        5.4446       4.208141       0.00637
  39     1.339        1.2365        0.0000        5.4439        5.4439       4.207433       0.00797
  38     1.782        1.2365        0.0000        5.4434        5.4434       4.206890       0.01034
  37     2.292        1.2365        0.0000        5.4427        5.4427       4.206174       0.01186
  36     2.964        1.2365        0.0000        5.4416        5.4416       4.205135       0.01304
  35     3.853        1.2365        0.0000        5.4402        5.4402       4.203658       0.01402
  34     5.035        1.2365        0.0000        5.4381        5.4381       4.201602       0.01468
  33     6.613        1.2365        0.0000        5.4353        5.4353       4.198821       0.01487
  32     8.786        1.2365        0.0000        5.4317        5.4317       4.195189       0.01411
  31     11.80        1.2365        0.0000        5.4269        5.4269       4.190408       0.01338
  30     15.07        1.2365        0.0000        5.4224        5.4224       4.185881       0.01169
  29     18.79        1.2365        0.0000        5.4180        5.4180       4.181468       0.01001
  28     23.16        1.2365        0.0000        5.4135        5.4135       4.176980       0.00868
  27     28.12        1.2365        0.0000        5.4088        5.4088       4.172330       0.00791
  26     33.73        1.2365        0.0000        5.4036        5.4036       4.167085       0.00789
  25     40.54        1.2365        0.0000        5.3966        5.3967       4.160138       0.00862
  24     48.69        1.2365        0.0000        5.3872        5.3872       4.150651       0.00982
  23     57.69        1.2365        0.0000        5.3754        5.3754       4.138854       0.01106
  22     68.43        1.2366        0.0000        5.3599        5.3599       4.123347       0.01219
  21     81.20        1.2366        0.0000        5.3401        5.3401       4.103486       0.01312
  20     96.49        1.2367        0.0000        5.3155        5.3155       4.078879       0.01358
  19     114.6        1.2369        0.0000        5.2649        5.2650       4.028102       0.02371
  18     136.5        1.2371        0.0001        5.2143        5.2143       3.977217       0.01957
  17     162.9        1.2375        0.0001        5.1642        5.1642       3.926766       0.01613
  16     196.4        1.2380        0.0001        5.1096        5.1096       3.871628       0.01388
  15     218.7        1.2385        0.0001        5.0731        5.0732       3.834715       0.01401
  14     243.0        1.2390        0.0001        5.0382        5.0383       3.799315       0.01228
  13     269.0        1.2398        0.0001        4.9976        4.9978       3.757955       0.01342
  12     297.5        1.2409        0.0001        4.9488        4.9489       3.707996       0.01482
  11     328.5        1.2424        0.0001        4.8876        4.8878       3.645371       0.01703
  10     361.9        1.2445        0.0001        4.8081        4.8082       3.563755       0.02065
   9     398.1        1.2474        0.0002        4.7027        4.7028       3.455370       0.02525
   8     437.6        1.2516        0.0002        4.5636        4.5638       3.312164       0.03062
   7     480.5        1.2574        0.0002        4.3882        4.3884       3.130953       0.03559
   6     533.0        1.2671        0.0002        4.1480        4.1482       2.881145       0.04019
   5     589.8        1.2816        0.0002        3.8814        3.8816       2.600015       0.04173
   4     651.6        1.3028        0.0002        3.6068        3.6070       2.304236       0.04045
   3     718.7        1.3333        0.0002        3.3276        3.3278       1.994487       0.03893
   2     792.3        1.3785        0.0002        3.0341        3.0343       1.655848       0.03884
   1     891.5        1.4666        0.0002        2.6614        2.6616       1.195014       0.03921
   0    1013.0        1.6372        0.0002        2.2796        2.2798       0.642664       0.03835



 Wavenumbers:  3250. -  4000. cm-1, ATM      1
 LEVEL PRESSURE   UPWARD FLUX   DIFDOWN FLUX  DIRDOWN FLUX  DOWNWARD FLUX   NET FLUX    HEATING RATE
          mb          W/m2          W/m2          W/m2        W/m2          W/m2       degree/day
  51    .06700        0.0011        0.0000        9.1795        9.1795       9.178440       0.00000
  50    .07753        0.0011        0.0000        9.1747        9.1747       9.173571       3.90287
  49    .09103        0.0011        0.0000        9.1713        9.1713       9.170251       2.07467
  48    0.1069        0.0011        0.0000        9.1689        9.1689       9.167844       1.28112
  47    0.1255        0.0011        0.0000        9.1668        9.1668       9.165724       0.96121
  46    0.1487        0.0011        0.0000        9.1645        9.1645       9.163452       0.82829
  45    0.1794        0.0011        0.0000        9.1619        9.1619       9.160782       0.73288
  44    0.2165        0.0011        0.0000        9.1592        9.1592       9.158093       0.61167
  43    0.2613        0.0011        0.0000        9.1565        9.1565       9.155396       0.50841
  42    0.3336        0.0011        0.0000        9.1528        9.1528       9.151699       0.43101
  41    0.4307        0.0011        0.0000        9.1487        9.1487       9.147601       0.35634
  40    0.5894        0.0011        0.0000        9.1428        9.1428       9.141709       0.31334
  39     1.339        0.0011        0.0000        9.1196        9.1196       9.118527       0.26099
  38     1.782        0.0011        0.0000        9.1090        9.1090       9.107943       0.20149
  37     2.292        0.0011        0.0000        5.6408        5.6408       5.639700      57.44316
  36     2.964        0.0011        0.0000        5.2690        5.2690       5.267943       4.66667
  35     3.853        0.0011        0.0000        5.0778        5.0779       5.076746       1.81450
  34     5.035        0.0011        0.0000        4.9535        4.9535       4.952347       0.88865
  33     6.613        0.0011        0.0000        4.8651        4.8651       4.864035       0.47212
  32     8.786        0.0011        0.0000        4.7998        4.7998       4.798647       0.25394
  31     11.80        0.0011        0.0000        4.7474        4.7474       4.746335       0.14646
  30     15.07        0.0011        0.0000        4.7125        4.7125       4.711357       0.09031
  29     18.79        0.0011        0.0000        4.6857        4.6857       4.684602       0.06066
  28     23.16        0.0011        0.0000        4.6623        4.6623       4.661208       0.04524
  27     28.12        0.0011        0.0000        4.6402        4.6402       4.639122       0.03754
  26     33.73        0.0011        0.0000        4.6190        4.6190       4.617880       0.03194
  25     40.54        0.0011        0.0000        4.5860        4.5860       4.584905       0.04091
  24     48.69        0.0011        0.0000        4.5513        4.5514       4.550266       0.03585
  23     57.69        0.0011        0.0000        4.5181        4.5182       4.517099       0.03109
  22     68.43        0.0011        0.0001        4.4846        4.4847       4.483613       0.02632
  21     81.20        0.0011        0.0001        4.4504        4.4504       4.449345       0.02264
  20     96.49        0.0011        0.0001        4.4145        4.4146       4.413502       0.01978
  19     114.6        0.0010        0.0001        4.3743        4.3744       4.373344       0.01875
  18     136.5        0.0010        0.0001        4.3281        4.3282       4.327177       0.01775
  17     162.9        0.0010        0.0001        4.2750        4.2751       4.274120       0.01696
  16     196.4        0.0010        0.0001        4.2022        4.2024       4.201388       0.01831
  15     218.7        0.0010        0.0001        4.1275        4.1276       4.126617       0.02839
  14     243.0        0.0010        0.0002        4.0469        4.0471       4.046138       0.02791
  13     269.0        0.0010        0.0002        3.9227        3.9229       3.921928       0.04029
  12     297.5        0.0009        0.0002        3.7430        3.7432       3.742246       0.05329
  11     328.5        0.0009        0.0002        3.5029        3.5031       3.502135       0.06529
  10     361.9        0.0009        0.0002        3.2076        3.2078       3.206910       0.07469
   9     398.1        0.0009        0.0002        2.8689        2.8691       2.868163       0.07892
   8     437.6        0.0009        0.0002        2.5078        2.5080       2.507089       0.07720
   7     480.5        0.0009        0.0002        2.1370        2.1372       2.136225       0.07284
   6     533.0        0.0010        0.0002        1.7164        1.7166       1.715608       0.06766
   5     589.8        0.0011        0.0001        1.3137        1.3138       1.312711       0.05980
   4     651.6        0.0013        0.0001        0.9321        0.9322       0.930888       0.05222
   3     718.7        0.0017        0.0001        0.6129        0.6130       0.611315       0.04016
   2     792.3        0.0026        0.0001        0.3625        0.3625       0.359960       0.02883
   1     891.5        0.0058        0.0000        0.1454        0.1454       0.139614       0.01875
   0    1013.0        0.0229        0.0000        0.0318        0.0318       0.008971       0.00907



 Wavenumbers:  4000. -  4650. cm-1, ATM      1
 LEVEL PRESSURE   UPWARD FLUX   DIFDOWN FLUX  DIRDOWN FLUX  DOWNWARD FLUX   NET FLUX    HEATING RATE
          mb          W/m2          W/m2          W/m2        W/m2          W/m2       degree/day
  51    .06700        4.7190        0.0000       10.7795       10.7795       6.060495       0.00000
  50    .07753        4.7190        0.0000       10.7795       10.7795       6.060494       0.00080
  49    .09103        4.7190        0.0000       10.7795       10.7795       6.060493       0.00078
  48    0.1069        4.7190        0.0000       10.7795       10.7795       6.060491       0.00076
  47    0.1255        4.7190        0.0000       10.7795       10.7795       6.060490       0.00075
  46    0.1487        4.7190        0.0000       10.7795       10.7795       6.060487       0.00076
  45    0.1794        4.7190        0.0000       10.7795       10.7795       6.060485       0.00078
  44    0.2165        4.7190        0.0000       10.7795       10.7795       6.060481       0.00076
  43    0.2613        4.7190        0.0000       10.7795       10.7795       6.060477       0.00075
  42    0.3336        4.7190        0.0000       10.7795       10.7795       6.060471       0.00077
  41    0.4307        4.7190        0.0000       10.7795       10.7795       6.060462       0.00077
  40    0.5894        4.7190        0.0000       10.7795       10.7795       6.060447       0.00079
  39     1.339        4.7190        0.0000       10.7794       10.7794       6.060358       0.00100
  38     1.782        4.7190        0.0000       10.7793       10.7793       6.060288       0.00133
  37     2.292        4.7190        0.0000       10.7792       10.7792       6.060194       0.00155
  36     2.964        4.7190        0.0000       10.7791       10.7791       6.060054       0.00176
  35     3.853        4.7190        0.0000       10.7789       10.7789       6.059846       0.00197
  34     5.035        4.7190        0.0000       10.7785       10.7786       6.059540       0.00219
  33     6.613        4.7190        0.0000       10.7781       10.7781       6.059089       0.00241
  32     8.786        4.7190        0.0000       10.7774       10.7774       6.058423       0.00259
  31     11.80        4.7190        0.0001       10.7763       10.7764       6.057377       0.00293
  30     15.07        4.7190        0.0001       10.7751       10.7752       6.056150       0.00317
  29     18.79        4.7190        0.0001       10.7736       10.7737       6.054666       0.00337
  28     23.16        4.7190        0.0001       10.7717       10.7718       6.052823       0.00356
  27     28.12        4.7190        0.0001       10.7695       10.7696       6.050592       0.00379
  26     33.73        4.7190        0.0002       10.7667       10.7668       6.047842       0.00414
  25     40.54        4.7190        0.0002       10.7629       10.7631       6.044111       0.00463
  24     48.69        4.7190        0.0002       10.7579       10.7582       6.039140       0.00514
  23     57.69        4.7191        0.0003       10.7520       10.7523       6.033247       0.00552
  22     68.43        4.7191        0.0003       10.7446       10.7450       6.025861       0.00581
  21     81.20        4.7192        0.0004       10.7356       10.7360       6.016765       0.00601
  20     96.49        4.7193        0.0004       10.7246       10.7250       6.005697       0.00611
  19     114.6        4.7198        0.0005       10.6996       10.7001       5.980321       0.01185
  18     136.5        4.7204        0.0006       10.6740       10.6746       5.954218       0.01004
  17     162.9        4.7212        0.0007       10.6464       10.6471       5.925880       0.00906
  16     196.4        4.7225        0.0009       10.6116       10.6125       5.889960       0.00904
  15     218.7        4.7237        0.0010       10.5854       10.5864       5.862739       0.01033
  14     243.0        4.7250        0.0011       10.5573       10.5584       5.833441       0.01016
  13     269.0        4.7269        0.0012       10.5219       10.5232       5.796307       0.01205
  12     297.5        4.7294        0.0013       10.4763       10.4776       5.748174       0.01428
  11     328.5        4.7330        0.0015       10.4156       10.4171       5.684107       0.01742
  10     361.9        4.7377        0.0016       10.3341       10.3357       5.597961       0.02180
   9     398.1        4.7437        0.0018       10.2260       10.2277       5.484040       0.02654
   8     437.6        4.7514        0.0019       10.0885       10.0904       5.338997       0.03101
   7     480.5        4.7613        0.0021        9.9248        9.9269       5.165564       0.03406
   6     533.0        4.7767        0.0023        9.7151        9.7173       4.940621       0.03619
   5     589.8        4.7986        0.0025        9.4801        9.4825       4.683905       0.03811
   4     651.6        4.8306        0.0026        9.1929        9.1955       4.364916       0.04362
   3     718.7        4.8766        0.0028        8.8440        8.8469       3.970214       0.04960
   2     792.3        4.9441        0.0030        8.4433        8.4463       3.502153       0.05368
   1     891.5        5.0743        0.0032        7.9295        7.9328       2.858440       0.05478
   0    1013.0        5.3187        0.0035        7.4027        7.4062       2.087550       0.05353



 Wavenumbers:  4650. -  5150. cm-1, ATM      1
 LEVEL PRESSURE   UPWARD FLUX   DIFDOWN FLUX  DIRDOWN FLUX  DOWNWARD FLUX   NET FLUX    HEATING RATE
          mb          W/m2          W/m2          W/m2        W/m2          W/m2       degree/day
  51    .06700        3.2666        0.0000       10.2033       10.2033       6.936709       0.00000
  50    .07753        3.2666        0.0000       10.2031       10.2031       6.936473       0.18901
  49    .09103        3.2666        0.0000       10.2028       10.2028       6.936178       0.18429
  48    0.1069        3.2666        0.0000       10.2025       10.2025       6.935842       0.17931
  47    0.1255        3.2666        0.0000       10.2021       10.2021       6.935457       0.17426
  46    0.1487        3.2666        0.0000       10.2016       10.2016       6.934976       0.17536
  45    0.1794        3.2666        0.0000       10.2010       10.2010       6.934326       0.17851
  44    0.2165        3.2666        0.0000       10.2002       10.2002       6.933566       0.17278
  43    0.2613        3.2666        0.0000       10.1993       10.1993       6.932681       0.16690
  42    0.3336        3.2666        0.0000       10.1979       10.1979       6.931248       0.16702
  41    0.4307        3.2666        0.0000       10.1960       10.1960       6.929408       0.16003
  40    0.5894        3.2666        0.0000       10.1932       10.1932       6.926534       0.15283
  39     1.339        3.2666        0.0000       10.1816       10.1816       6.914942       0.13050
  38     1.782        3.2666        0.0000       10.1760       10.1760       6.909413       0.10526
  37     2.292        3.2666        0.0000       10.1706       10.1706       6.903957       0.09038
  36     2.964        3.2666        0.0000       10.1646       10.1646       6.898033       0.07436
  35     3.853        3.2666        0.0000       10.1584       10.1584       6.891819       0.05898
  34     5.035        3.2666        0.0000       10.1520       10.1521       6.885483       0.04526
  33     6.613        3.2666        0.0001       10.1456       10.1456       6.879025       0.03452
  32     8.786        3.2666        0.0001       10.1385       10.1386       6.872013       0.02723
  31     11.80        3.2666        0.0001       10.1295       10.1296       6.862970       0.02532
  30     15.07        3.2666        0.0001       10.1196       10.1197       6.853088       0.02551
  29     18.79        3.2666        0.0001       10.1076       10.1077       6.841076       0.02724
  28     23.16        3.2666        0.0002       10.0922       10.0924       6.825763       0.02961
  27     28.12        3.2667        0.0002       10.0731       10.0733       6.806658       0.03248
  26     33.73        3.2667        0.0002       10.0500       10.0502       6.783548       0.03475
  25     40.54        3.2668        0.0003       10.0201       10.0204       6.753621       0.03713
  24     48.69        3.2669        0.0003        9.9819        9.9823       6.715415       0.03954
  23     57.69        3.2670        0.0004        9.9384        9.9388       6.671830       0.04085
  22     68.43        3.2672        0.0005        9.8857        9.8862       6.619032       0.04151
  21     81.20        3.2674        0.0005        9.8234        9.8240       6.556547       0.04129
  20     96.49        3.2678        0.0006        9.7517        9.7524       6.484596       0.03971
  19     114.6        3.2684        0.0007        9.6673        9.6680       6.399621       0.03968
  18     136.5        3.2693        0.0009        9.5775        9.5783       6.309049       0.03483
  17     162.9        3.2705        0.0010        9.4827        9.4838       6.213309       0.03060
  16     196.4        3.2723        0.0012        9.3738        9.3750       6.102765       0.02783
  15     218.7        3.2737        0.0014        9.3049        9.3063       6.032528       0.02667
  14     243.0        3.2756        0.0015        9.2323        9.2338       5.958210       0.02578
  13     269.0        3.2780        0.0017        9.1505        9.1522       5.874231       0.02724
  12     297.5        3.2813        0.0018        9.0553        9.0572       5.775903       0.02916
  11     328.5        3.2856        0.0020        8.9442        8.9462       5.660663       0.03133
  10     361.9        3.2913        0.0022        8.8125        8.8147       5.523465       0.03471
   9     398.1        3.2987        0.0024        8.6556        8.6580       5.359239       0.03826
   8     437.6        3.3086        0.0025        8.4684        8.4709       5.162270       0.04211
   7     480.5        3.3217        0.0027        8.2481        8.2508       4.929128       0.04579
   6     533.0        3.3419        0.0029        7.9535        7.9564       4.614491       0.05062
   5     589.8        3.3700        0.0031        7.6183        7.6214       4.251425       0.05389
   4     651.6        3.4094        0.0033        7.2512        7.2545       3.845124       0.05556
   3     718.7        3.4645        0.0035        6.8682        6.8717       3.407234       0.05503
   2     792.3        3.5422        0.0037        6.4794        6.4832       2.940968       0.05348
   1     891.5        3.6859        0.0039        5.9989        6.0028       2.316975       0.05310
   0    1013.0        3.9410        0.0042        5.4835        5.4877       1.546655       0.05349



 Wavenumbers:  5150. -  6150. cm-1, ATM      1
 LEVEL PRESSURE   UPWARD FLUX   DIFDOWN FLUX  DIRDOWN FLUX  DOWNWARD FLUX   NET FLUX    HEATING RATE
          mb          W/m2          W/m2          W/m2        W/m2          W/m2       degree/day
  51    .06700        8.2657        0.0000       25.5798       25.5798      17.314136       0.00000
  50    .07753        8.2657        0.0000       25.5798       25.5798      17.314136       0.00021
  49    .09103        8.2657        0.0000       25.5798       25.5798      17.314136       0.00021
  48    0.1069        8.2657        0.0000       25.5798       25.5798      17.314135       0.00021
  47    0.1255        8.2657        0.0000       25.5798       25.5798      17.314135       0.00020
  46    0.1487        8.2657        0.0000       25.5798       25.5798      17.314134       0.00020
  45    0.1794        8.2657        0.0000       25.5798       25.5798      17.314133       0.00021
  44    0.2165        8.2657        0.0000       25.5798       25.5798      17.314132       0.00021
  43    0.2613        8.2657        0.0000       25.5798       25.5798      17.314131       0.00020
  42    0.3336        8.2657        0.0000       25.5798       25.5798      17.314130       0.00021
  41    0.4307        8.2657        0.0000       25.5798       25.5798      17.314127       0.00021
  40    0.5894        8.2657        0.0000       25.5798       25.5798      17.314123       0.00022
  39     1.339        8.2657        0.0000       25.5797       25.5798      17.314099       0.00028
  38     1.782        8.2657        0.0001       25.5797       25.5797      17.314080       0.00036
  37     2.292        8.2680        0.0001       22.5984       22.5984      14.330480      49.41619
  36     2.964        8.2690        0.0001       22.2081       22.2082      13.939224       4.91144
  35     3.853        8.2697        0.0002       21.9996       21.9998      13.730058       1.98502
  34     5.035        8.2703        0.0002       21.8646       21.8648      13.594496       0.96840
  33     6.613        8.2707        0.0002       21.7700       21.7702      13.499521       0.50773
  32     8.786        8.2710        0.0003       21.7012       21.7015      13.430434       0.26831
  31     11.80        8.2714        0.0004       21.6472       21.6476      13.376258       0.15168
  30     15.07        8.2716        0.0005       21.6120       21.6125      13.340866       0.09137
  29     18.79        8.2718        0.0006       21.5858       21.5863      13.314578       0.05960
  28     23.16        8.2719        0.0007       21.5637       21.5644      13.292438       0.04281
  27     28.12        8.2721        0.0008       21.5437       21.5445      13.272388       0.03408
  26     33.73        8.2723        0.0009       21.5253       21.5262      13.253885       0.02782
  25     40.54        8.2727        0.0011       21.4953       21.4964      13.223760       0.03737
  24     48.69        8.2731        0.0013       21.4646       21.4660      13.192900       0.03193
  23     57.69        8.2735        0.0016       21.4360       21.4376      13.164076       0.02702
  22     68.43        8.2740        0.0019       21.4071       21.4089      13.134894       0.02294
  21     81.20        8.2746        0.0022       21.3779       21.3800      13.105393       0.01949
  20     96.49        8.2753        0.0026       21.3482       21.3508      13.075409       0.01655
  19     114.6        8.2762        0.0031       21.3157       21.3187      13.042550       0.01534
  18     136.5        8.2772        0.0036       21.2792       21.2828      13.005641       0.01419
  17     162.9        8.2783        0.0043       21.2394       21.2437      12.965362       0.01287
  16     196.4        8.2797        0.0052       21.1880       21.1931      12.913389       0.01308
  15     218.7        8.2807        0.0057       21.1365       21.1422      12.861527       0.01969
  14     243.0        8.2818        0.0063       21.0802       21.0865      12.804771       0.01968
  13     269.0        8.2830        0.0070       20.9850       20.9920      12.709002       0.03107
  12     297.5        8.2846        0.0077       20.8259       20.8336      12.549022       0.04745
  11     328.5        8.2865        0.0084       20.5718       20.5802      12.293661       0.06943
  10     361.9        8.2892        0.0091       20.1849       20.1940      11.904843       0.09837
   9     398.1        8.2927        0.0098       19.6353       19.6451      11.352424       0.12870
   8     437.6        8.2975        0.0105       18.9160       18.9265      10.629035       0.15467
   7     480.5        8.3042        0.0111       18.0654       18.0766       9.772402       0.16824
   6     533.0        8.3155        0.0118       17.0362       17.0479       8.732433       0.16730
   5     589.8        8.3331        0.0125       16.0700       16.0825       7.749368       0.14592
   4     651.6        8.3611        0.0132       15.2312       15.2445       6.883347       0.11843
   3     718.7        8.4050        0.0141       14.5526       14.5667       6.161703       0.09069
   2     792.3        8.4755        0.0151       13.9633       13.9783       5.502869       0.07556
   1     891.5        8.6275        0.0163       13.2449       13.2612       4.633661       0.07397
   0    1013.0        8.9617        0.0177       12.4601       12.4779       3.516164       0.07759



 Wavenumbers:  6150. -  7700. cm-1, ATM      1
 LEVEL PRESSURE   UPWARD FLUX   DIFDOWN FLUX  DIRDOWN FLUX  DOWNWARD FLUX   NET FLUX    HEATING RATE
          mb          W/m2          W/m2          W/m2        W/m2          W/m2       degree/day
  51    .06700       12.5213        0.0000       47.3109       47.3109      34.789571       0.00000
  50    .07753       12.5213        0.0000       47.3108       47.3108      34.789555       0.01303
  49    .09103       12.5213        0.0000       47.3108       47.3108      34.789534       0.01277
  48    0.1069       12.5213        0.0000       47.3108       47.3108      34.789511       0.01250
  47    0.1255       12.5213        0.0000       47.3108       47.3108      34.789484       0.01223
  46    0.1487       12.5213        0.0000       47.3107       47.3107      34.789450       0.01241
  45    0.1794       12.5213        0.0000       47.3107       47.3107      34.789403       0.01276
  44    0.2165       12.5213        0.0000       47.3106       47.3106      34.789348       0.01252
  43    0.2613       12.5213        0.0000       47.3105       47.3106      34.789283       0.01228
  42    0.3336       12.5213        0.0000       47.3104       47.3104      34.789175       0.01256
  41    0.4307       12.5213        0.0000       47.3102       47.3103      34.789032       0.01242
  40    0.5894       12.5212        0.0001       47.3100       47.3100      34.788799       0.01240
  39     1.339       12.5212        0.0002       47.3087       47.3089      34.787698       0.01240
  38     1.782       12.5211        0.0002       47.3080       47.3082      34.787052       0.01230
  37     2.292       12.5231        0.0004       42.3282       42.3286      29.805535      82.50691
  36     2.964       12.5240        0.0005       41.7509       41.7514      29.227346       7.25801
  35     3.853       12.5247        0.0006       41.4420       41.4426      28.917915       2.93656
  34     5.035       12.5251        0.0008       41.2439       41.2447      28.719530       1.41718
  33     6.613       12.5254        0.0009       41.1070       41.1079      28.582504       0.73254
  32     8.786       12.5256        0.0012       41.0086       41.0098      28.484219       0.38170
  31     11.80       12.5256        0.0015       40.9327       40.9342      28.408593       0.21173
  30     15.07       12.5256        0.0019       40.8838       40.8857      28.360164       0.12503
  29     18.79       12.5254        0.0023       40.8480       40.8503      28.324873       0.08002
  28     23.16       12.5252        0.0028       40.8181       40.8209      28.295680       0.05645
  27     28.12       12.5249        0.0033       40.7913       40.7946      28.269711       0.04415
  26     33.73       12.5246        0.0039       40.7671       40.7710      28.246358       0.03511
  25     40.54       12.5243        0.0047       40.7287       40.7333      28.209046       0.04629
  24     48.69       12.5238        0.0055       40.6903       40.6959      28.172032       0.03830
  23     57.69       12.5233        0.0065       40.6552       40.6617      28.138429       0.03150
  22     68.43       12.5227        0.0077       40.6202       40.6279      28.105219       0.02611
  21     81.20       12.5219        0.0091       40.5851       40.5941      28.072234       0.02180
  20     96.49       12.5209        0.0107       40.5492       40.5599      28.039000       0.01834
  19     114.6       12.5198        0.0127       40.5086       40.5213      28.001478       0.01752
  18     136.5       12.5185        0.0150       40.4613       40.4763      27.957819       0.01679
  17     162.9       12.5170        0.0178       40.4059       40.4237      27.906780       0.01631
  16     196.4       12.5150        0.0214       40.3271       40.3485      27.833499       0.01845
  15     218.7       12.5139        0.0238       40.2399       40.2637      27.749796       0.03178
  14     243.0       12.5126        0.0263       40.1413       40.1677      27.655050       0.03286
  13     269.0       12.5116        0.0291       39.9721       40.0012      27.489602       0.05367
  12     297.5       12.5109        0.0320       39.6887       39.7207      27.209735       0.08301
  11     328.5       12.5110        0.0350       39.2337       39.2687      26.757707       0.12291
  10     361.9       12.5122        0.0380       38.5358       38.5738      26.061602       0.17612
   9     398.1       12.5155        0.0409       37.5305       37.5714      25.055955       0.23429
   8     437.6       12.5220        0.0437       36.1837       36.2274      23.705340       0.28877
   7     480.5       12.5338        0.0461       34.5199       34.5660      22.032199       0.32860
   6     533.0       12.5575        0.0486       32.3568       32.4054      19.847937       0.35138
   5     589.8       12.5987        0.0509       30.1106       30.1614      17.562778       0.33919
   4     651.6       12.6689        0.0529       27.8883       27.9412      15.272339       0.31322
   3     718.7       12.7824        0.0550       25.8167       25.8716      13.089258       0.27435
   2     792.3       12.9668        0.0570       23.8870       23.9440      10.977244       0.24222
   1     891.5       13.3620        0.0597       21.7372       21.7969       8.434974       0.21633
   0    1013.0       14.2055        0.0630       19.7124       19.7754       5.569916       0.19894



 Wavenumbers:  7700. -  8050. cm-1, ATM      1
 LEVEL PRESSURE   UPWARD FLUX   DIFDOWN FLUX  DIRDOWN FLUX  DOWNWARD FLUX   NET FLUX    HEATING RATE
          mb          W/m2          W/m2          W/m2        W/m2          W/m2       degree/day
  51    .06700        6.3840        0.0000       11.1810       11.1810       4.796928       0.00000
  50    .07753        6.3840        0.0000       11.1809       11.1809       4.796906       0.01763
  49    .09103        6.3840        0.0000       11.1809       11.1809       4.796878       0.01728
  48    0.1069        6.3841        0.0000       11.1809       11.1809       4.796846       0.01691
  47    0.1255        6.3841        0.0000       11.1809       11.1809       4.796810       0.01655
  46    0.1487        6.3841        0.0000       11.1808       11.1808       4.796764       0.01679
  45    0.1794        6.3841        0.0000       11.1808       11.1808       4.796701       0.01728
  44    0.2165        6.3841        0.0000       11.1807       11.1807       4.796626       0.01695
  43    0.2613        6.3841        0.0000       11.1806       11.1806       4.796538       0.01664
  42    0.3336        6.3841        0.0000       11.1805       11.1805       4.796392       0.01702
  41    0.4307        6.3842        0.0000       11.1803       11.1804       4.796199       0.01684
  40    0.5894        6.3842        0.0000       11.1801       11.1801       4.795882       0.01682
  39     1.339        6.3845        0.0001       11.1788       11.1789       4.794386       0.01684
  38     1.782        6.3847        0.0001       11.1781       11.1782       4.793507       0.01673
  37     2.292        6.3848        0.0002       11.1771       11.1773       4.792490       0.01685
  36     2.964        6.3850        0.0003       11.1759       11.1762       4.791154       0.01677
  35     3.853        6.3854        0.0003       11.1744       11.1748       4.789390       0.01674
  34     5.035        6.3858        0.0004       11.1724       11.1728       4.787046       0.01674
  33     6.613        6.3864        0.0005       11.1698       11.1703       4.783915       0.01674
  32     8.786        6.3871        0.0006       11.1662       11.1668       4.779698       0.01638
  31     11.80        6.3882        0.0008       11.1611       11.1619       4.773669       0.01688
  30     15.07        6.3894        0.0010       11.1557       11.1566       4.767201       0.01670
  29     18.79        6.3908        0.0012       11.1495       11.1507       4.759901       0.01655
  28     23.16        6.3924        0.0014       11.1423       11.1438       4.751385       0.01647
  27     28.12        6.3942        0.0017       11.1341       11.1358       4.741662       0.01653
  26     33.73        6.3962        0.0020       11.1250       11.1270       4.730802       0.01633
  25     40.54        6.3987        0.0024       11.1140       11.1164       4.717710       0.01624
  24     48.69        6.4017        0.0028       11.1008       11.1037       4.701972       0.01629
  23     57.69        6.4050        0.0033       11.0864       11.0898       4.684742       0.01615
  22     68.43        6.4090        0.0039       11.0694       11.0733       4.664302       0.01607
  21     81.20        6.4138        0.0047       11.0492       11.0538       4.640064       0.01602
  20     96.49        6.4195        0.0055       11.0254       11.0308       4.611346       0.01585
  19     114.6        6.4264        0.0065       10.9973       11.0038       4.577377       0.01586
  18     136.5        6.4347        0.0077       10.9644       10.9721       4.537443       0.01536
  17     162.9        6.4447        0.0091       10.9259       10.9350       4.490323       0.01506
  16     196.4        6.4578        0.0109       10.8768       10.8877       4.429860       0.01522
  15     218.7        6.4667        0.0121       10.8450       10.8571       4.390445       0.01496
  14     243.0        6.4764        0.0134       10.8108       10.8243       4.347891       0.01476
  13     269.0        6.4871        0.0148       10.7742       10.7891       4.301980       0.01489
  12     297.5        6.4989        0.0164       10.7350       10.7514       4.252501       0.01467
  11     328.5        6.5120        0.0180       10.6930       10.7110       4.199054       0.01453
  10     361.9        6.5265        0.0198       10.6481       10.6678       4.141305       0.01461
   9     398.1        6.5428        0.0217       10.5997       10.6214       4.078614       0.01461
   8     437.6        6.5611        0.0237       10.5476       10.5713       4.010218       0.01462
   7     480.5        6.5818        0.0259       10.4912       10.5171       3.935314       0.01471
   6     533.0        6.6090        0.0286       10.4204       10.4490       3.839920       0.01535
   5     589.8        6.6410        0.0315       10.3418       10.3732       3.732273       0.01598
   4     651.6        6.6790        0.0346       10.2535       10.2880       3.609051       0.01685
   3     718.7        6.7245        0.0378       10.1540       10.1918       3.467366       0.01781
   2     792.3        6.7795        0.0413       10.0411       10.0825       3.302938       0.01886
   1     891.5        6.8653        0.0460        9.8790        9.9250       3.059697       0.02070
   0    1013.0        6.9864        0.0514        9.6722        9.7236       2.737187       0.02239



 Wavenumbers:  8050. - 12850. cm-1, ATM      1
 LEVEL PRESSURE   UPWARD FLUX   DIFDOWN FLUX  DIRDOWN FLUX  DOWNWARD FLUX   NET FLUX    HEATING RATE
          mb          W/m2          W/m2          W/m2        W/m2          W/m2       degree/day
  51    .06700       80.0538        0.0000      156.5418      156.5418      76.487941       0.00000
  50    .07753       80.0538        0.0000      156.5417      156.5417      76.487941      -0.00000
  49    .09103       80.0538        0.0001      156.5417      156.5417      76.487941      -0.00000
  48    0.1069       80.0538        0.0001      156.5416      156.5417      76.487941      -0.00000
  47    0.1255       80.0537        0.0002      156.5415      156.5417      76.487941       0.00000
  46    0.1487       80.0537        0.0002      156.5414      156.5416      76.487941       0.00000
  45    0.1794       80.0537        0.0003      156.5413      156.5416      76.487941       0.00000
  44    0.2165       80.0536        0.0004      156.5412      156.5416      76.487941      -0.00000
  43    0.2613       80.0536        0.0005      156.5410      156.5415      76.487941      -0.00000
  42    0.3336       80.0535        0.0007      156.5407      156.5414      76.487941       0.00000
  41    0.4307       80.0534        0.0010      156.5403      156.5413      76.487941       0.00000
  40    0.5894       80.0532        0.0014      156.5397      156.5411      76.487941      -0.00000
  39     1.339       80.0522        0.0034      156.5367      156.5402      76.487941      -0.00000
  38     1.782       80.0517        0.0046      156.5350      156.5396      76.487941       0.00000
  37     2.292       80.0495        0.0094      156.5281      156.5375      76.487941       0.00000
  36     2.964       80.0482        0.0123      156.5239      156.5362      76.487941      -0.00000
  35     3.853       80.0469        0.0152      156.5196      156.5348      76.487941       0.00000
  34     5.035       80.0453        0.0187      156.5145      156.5332      76.487941      -0.00000
  33     6.613       80.0432        0.0232      156.5080      156.5312      76.487941      -0.00000
  32     8.786       80.0406        0.0290      156.4995      156.5285      76.487941       0.00000
  31     11.80       80.0368        0.0373      156.4874      156.5247      76.487941       0.00000
  30     15.07       80.0327        0.0462      156.4745      156.5207      76.487941      -0.00000
  29     18.79       80.0282        0.0562      156.4599      156.5161      76.487941       0.00000
  28     23.16       80.0228        0.0679      156.4428      156.5108      76.487941      -0.00000
  27     28.12       80.0167        0.0813      156.4233      156.5047      76.487941       0.00000
  26     33.73       80.0099        0.0963      156.4015      156.4978      76.487941       0.00000
  25     40.54       80.0016        0.1145      156.3750      156.4895      76.487941       0.00000
  24     48.69       79.9916        0.1364      156.3431      156.4795      76.487941       0.00000
  23     57.69       79.9806        0.1605      156.3080      156.4685      76.487941      -0.00000
  22     68.43       79.9675        0.1893      156.2661      156.4554      76.487941      -0.00000
  21     81.20       79.9518        0.2236      156.2161      156.4397      76.487941       0.00000
  20     96.49       79.9331        0.2646      156.1565      156.4210      76.487941      -0.00000
  19     114.6       79.9163        0.3131      155.9003      156.2134      76.297106       0.08911
  18     136.5       79.8949        0.3708      155.6539      156.0247      76.129752       0.06435
  17     162.9       79.8676        0.4396      155.4084      155.8480      75.980335       0.04776
  16     196.4       79.8301        0.5290      155.1160      155.6450      75.814869       0.04165
  15     218.7       79.8052        0.5877      154.8761      155.4639      75.658690       0.05930
  14     243.0       79.7777        0.6517      154.6355      155.2872      75.509485       0.05175
  13     269.0       79.7489        0.7210      154.3099      155.0309      75.282054       0.07378
  12     297.5       79.7196        0.7958      153.8734      154.6692      74.949583       0.09861
  11     328.5       79.6912        0.8763      153.2898      154.1661      74.474927       0.12906
  10     361.9       79.6659        0.9626      152.5016      153.4642      73.798208       0.17122
   9     398.1       79.6475        1.0545      151.4342      152.4886      72.841170       0.22297
   8     437.6       79.6416        1.1518      150.0209      151.1728      71.531113       0.28010
   7     480.5       79.6573        1.2543      148.2024      149.4567      69.799381       0.34011
   6     533.0       79.7184        1.3772      145.5764      146.9536      67.235187       0.41250
   5     589.8       79.8519        1.5055      142.3639      143.8694      64.017451       0.47762
   4     651.6       80.1052        1.6382      138.5775      140.2157      60.110489       0.53429
   3     718.7       80.5321        1.7755      134.4056      136.1811      55.649050       0.56068
   2     792.3       81.2396        1.9157      129.8209      131.7366      50.496984       0.59088
   1     891.5       82.7435        2.0952      123.6694      125.7645      43.021055       0.63617
   0    1013.0       85.7398        2.2994      116.8556      119.1551      33.415286       0.66698



 Wavenumbers: 12850. - 16000. cm-1, ATM      1
 LEVEL PRESSURE   UPWARD FLUX   DIFDOWN FLUX  DIRDOWN FLUX  DOWNWARD FLUX   NET FLUX    HEATING RATE
          mb          W/m2          W/m2          W/m2        W/m2          W/m2       degree/day
  51    .06700       72.5597        0.0000       98.0872       98.0872      25.527497       0.00000
  50    .07753       72.5597        0.0001       98.0864       98.0864      25.526707       0.63350
  49    .09103       72.5597        0.0002       98.0853       98.0854      25.525714       0.62029
  48    0.1069       72.5597        0.0003       98.0841       98.0843      25.524574       0.60680
  47    0.1255       72.5597        0.0004       98.0826       98.0830      25.523265       0.59359
  46    0.1487       72.5598        0.0005       98.0809       98.0814      25.521613       0.60211
  45    0.1794       72.5598        0.0007       98.0784       98.0792      25.519367       0.61664
  44    0.2165       72.5598        0.0009       98.0756       98.0766      25.516726       0.60079
  43    0.2613       72.5599        0.0012       98.0723       98.0736      25.513622       0.58513
  42    0.3336       72.5601        0.0017       98.0670       98.0687      25.508558       0.59031
  41    0.4307       72.5605        0.0023       98.0602       98.0625      25.502016       0.56884
  40    0.5894       72.5611        0.0033       98.0496       98.0528      25.491719       0.54759
  39     1.339       72.5670        0.0079       98.0043       98.0123      25.445263       0.52301
  38     1.782       72.5724        0.0107       97.9793       97.9899      25.417506       0.52845
  37     2.292       72.5779        0.0215       97.9394       97.9610      25.383027       0.57106
  36     2.964       72.5906        0.0282       97.8952       97.9233      25.332700       0.63175
  35     3.853       72.6120        0.0349       97.8350       97.8699      25.257859       0.71025
  34     5.035       72.6447        0.0430       97.7516       97.7946      25.149843       0.77162
  33     6.613       72.6906        0.0531       97.6392       97.6924      25.001746       0.79173
  32     8.786       72.7504        0.0665       97.4934       97.5598      24.809422       0.74692
  31     11.80       72.8283        0.0854       97.3003       97.3857      24.557404       0.70557
  30     15.07       72.9028        0.1056       97.1106       97.2162      24.313354       0.63009
  29     18.79       72.9789        0.1283       96.9122       97.0405      24.061595       0.57082
  28     23.16       73.0584        0.1548       96.6987       96.8535      23.795091       0.51533
  27     28.12       73.1384        0.1851       96.4756       96.6607      23.522309       0.46371
  26     33.73       73.2121        0.2190       96.2551       96.4741      23.262004       0.39138
  25     40.54       73.2830        0.2599       96.0228       96.2827      22.999668       0.32546
  24     48.69       73.3508        0.3092       95.7765       96.0858      22.734957       0.27393
  23     57.69       73.4082        0.3634       95.5392       95.9026      22.494478       0.22541
  22     68.43       73.4579        0.4280       95.2925       95.7205      22.262628       0.18227
  21     81.20       73.4917        0.5050       95.0462       95.5513      22.059567       0.13418
  20     96.49       73.5085        0.5970       94.7972       95.3941      21.885640       0.09600
  19     114.6       73.5290        0.7072       94.5200       95.2271      21.698189       0.08753
  18     136.5       73.5426        0.8378       94.2080       95.0458      21.503208       0.07497
  17     162.9       73.5492        0.9933       93.8487       94.8420      21.292865       0.06723
  16     196.4       73.5371        1.1950       93.4050       94.6000      21.062972       0.05787
  15     218.7       73.5219        1.3275       93.1187       94.4461      20.924216       0.05268
  14     243.0       73.5020        1.4714       92.8099       94.2813      20.779291       0.05026
  13     269.0       73.4774        1.6273       92.4761       94.1034      20.625931       0.04975
  12     297.5       73.4484        1.7958       92.1146       93.9104      20.461985       0.04862
  11     328.5       73.4171        1.9778       91.7203       93.6981      20.281072       0.04919
  10     361.9       73.3845        2.1737       91.2891       93.4628      20.078373       0.05128
   9     398.1       73.3523        2.3845       90.8149       93.1994      19.847064       0.05389
   8     437.6       73.3238        2.6106       90.2887       92.8993      19.575488       0.05806
   7     480.5       73.3029        2.8527       89.6996       92.5523      19.249385       0.06405
   6     533.0       73.2962        3.1499       88.9310       92.0809      18.784693       0.07475
   5     589.8       73.3199        3.4693       88.0400       91.5093      18.189422       0.08836
   4     651.6       73.3905        3.8101       87.0073       90.8173      17.426846       0.10428
   3     718.7       73.5200        4.1719       85.8384       90.0103      16.490287       0.11770
   2     792.3       73.7437        4.5532       84.5120       89.0652      15.321442       0.13405
   1     891.5       74.2180        5.0572       82.6306       87.6878      13.469729       0.15757
   0    1013.0       75.0691        5.6493       80.3525       86.0018      10.932729       0.17616



 Wavenumbers: 16000. - 22650. cm-1, ATM      1
 LEVEL PRESSURE   UPWARD FLUX   DIFDOWN FLUX  DIRDOWN FLUX  DOWNWARD FLUX   NET FLUX    HEATING RATE
          mb          W/m2          W/m2          W/m2        W/m2          W/m2       degree/day
  51    .06700      140.5116        0.0000      156.3892      156.3892      15.877681       0.00000
  50    .07753      140.5115        0.0004      156.3887      156.3891      15.877534       0.11813
  49    .09103      140.5115        0.0009      156.3879      156.3888      15.877320       0.13399
  48    0.1069      140.5115        0.0015      156.3871      156.3885      15.877033       0.15279
  47    0.1255      140.5115        0.0021      156.3861      156.3882      15.876648       0.17416
  46    0.1487      140.5116        0.0030      156.3847      156.3877      15.876082       0.20637
  45    0.1794      140.5117        0.0041      156.3828      156.3869      15.875197       0.24299
  44    0.2165      140.5119        0.0054      156.3805      156.3859      15.873997       0.27309
  43    0.2613      140.5123        0.0070      156.3776      156.3846      15.872368       0.30702
  42    0.3336      140.5130        0.0096      156.3726      156.3823      15.869271       0.36105
  41    0.4307      140.5142        0.0131      156.3657      156.3788      15.864603       0.40586
  40    0.5894      140.5168        0.0188      156.3537      156.3725      15.855701       0.47342
  39     1.339      140.5393        0.0458      156.2834      156.3292      15.789929       0.74047
  38     1.782      140.5601        0.0616      156.2324      156.2940      15.733899       1.06672
  37     2.292      140.5810        0.1243      156.1096      156.2338      15.652798       1.34324
  36     2.964      140.6296        0.1626      155.9884      156.1510      15.521421       1.64919
  35     3.853      140.7117        0.2016      155.8231      156.0247      15.312960       1.97833
  34     5.035      140.8372        0.2478      155.5913      155.8391      15.001958       2.22167
  33     6.613      141.0133        0.3064      155.2766      155.5830      14.569759       2.31054
  32     8.786      141.2430        0.3834      154.8670      155.2504      14.007376       2.18409
  31     11.80      141.5423        0.4923      154.3237      154.8159      13.273618       2.05429
  30     15.07      141.8291        0.6084      153.7884      154.3968      12.567774       1.82235
  29     18.79      142.1218        0.7391      153.2271      153.9662      11.844356       1.64021
  28     23.16      142.4278        0.8915      152.6206      153.5121      11.084239       1.46982
  27     28.12      142.7357        1.0653      151.9837      153.0490      10.313361       1.31044
  26     33.73      143.0198        1.2597      151.3493      152.6090       9.589283       1.08867
  25     40.54      143.2930        1.4944      150.6722      152.1666       8.873641       0.88783
  24     48.69      143.5545        1.7770      149.9426      151.7196       8.165152       0.73317
  23     57.69      143.7760        2.0870      149.2242      151.3112       7.535242       0.59045
  22     68.43      143.9689        2.4558      148.4570      150.9129       6.943928       0.46485
  21     81.20      144.1017        2.8950      147.6615      150.5565       6.454780       0.32322
  20     96.49      144.1697        3.4177      146.8229      150.2406       6.070925       0.21186
  19     114.6      144.2045        4.0366      145.8866      149.9232       5.718688       0.16447
  18     136.5      144.2145        4.7674      144.8193      149.5867       5.372177       0.13324
  17     162.9      144.1978        5.6335      143.5894      149.2229       5.025104       0.11094
  16     196.4      144.1146        6.7511      142.0763      148.8274       4.712764       0.07862
  15     218.7      144.0376        7.4814      141.1147      148.5961       4.558527       0.05856
  14     243.0      143.9433        8.2718      140.0871      148.3589       4.415576       0.04958
  13     269.0      143.8304        9.1245      138.9919      148.1164       4.286036       0.04202
  12     297.5      143.6981       10.0415      137.8270      147.8686       4.170456       0.03428
  11     328.5      143.5506       11.0272      136.5813      147.6085       4.057855       0.03062
  10     361.9      143.3877       12.0824      135.2533      147.3358       3.948018       0.02779
   9     398.1      143.2092       13.2113      133.8375      147.0488       3.839642       0.02525
   8     437.6      143.0161       14.4157      132.3295      146.7453       3.729171       0.02362
   7     480.5      142.8085       15.6980      130.7257      146.4237       3.615146       0.02239
   6     533.0      142.5547       17.2642      128.7657      146.0299       3.475205       0.02251
   5     589.8      142.2867       18.9377      126.6664      145.6041       3.317343       0.02343
   4     651.6      142.0087       20.7197      124.4208      145.1405       3.131794       0.02537
   3     718.7      141.7237       22.6119      122.0239      144.6359       2.912148       0.02760
   2     792.3      141.4414       24.6120      119.4696      144.0816       2.640196       0.03119
   1     891.5      141.1055       27.2668      116.0416      143.3084       2.202896       0.03721
   0    1013.0      140.7590       30.3875      111.9780      142.3655       1.606482       0.04141



 Wavenumbers: 22650. - 29000. cm-1, ATM      1
 LEVEL PRESSURE   UPWARD FLUX   DIFDOWN FLUX  DIRDOWN FLUX  DOWNWARD FLUX   NET FLUX    HEATING RATE
          mb          W/m2          W/m2          W/m2        W/m2          W/m2       degree/day
  51    .06700       58.3821        0.0000       59.0156       59.0156       0.633472       0.00000
  50    .07753       58.3820        0.0005       59.0151       59.0155       0.633472       0.00000
  49    .09103       58.3819        0.0010       59.0144       59.0154       0.633472       0.00000
  48    0.1069       58.3818        0.0017       59.0136       59.0153       0.633472      -0.00000
  47    0.1255       58.3817        0.0025       59.0127       59.0151       0.633472       0.00000
  46    0.1487       58.3815        0.0034       59.0115       59.0149       0.633472      -0.00000
  45    0.1794       58.3812        0.0048       59.0099       59.0147       0.633472       0.00000
  44    0.2165       58.3809        0.0063       59.0080       59.0144       0.633472       0.00000
  43    0.2613       58.3805        0.0082       59.0058       59.0140       0.633472      -0.00000
  42    0.3336       58.3799        0.0113       59.0022       59.0134       0.633472      -0.00000
  41    0.4307       58.3791        0.0153       58.9973       59.0126       0.633472       0.00000
  40    0.5894       58.3779        0.0220       58.9894       59.0113       0.633472      -0.00000
  39     1.339       58.3717        0.0534       58.9518       59.0052       0.633472       0.00000
  38     1.782       58.3681        0.0719       58.9297       59.0016       0.633472       0.00000
  37     2.292       58.3539        0.1449       58.8424       58.9873       0.633472      -0.00000
  36     2.964       58.3452        0.1896       58.7891       58.9786       0.633472      -0.00000
  35     3.853       58.3363        0.2351       58.7347       58.9698       0.633472       0.00000
  34     5.035       58.3258        0.2891       58.6701       58.9592       0.633472       0.00000
  33     6.613       58.3124        0.3576       58.5883       58.9459       0.633472      -0.00000
  32     8.786       58.2948        0.4476       58.4807       58.9283       0.633472       0.00000
  31     11.80       58.2700        0.5748       58.3287       58.9035       0.633472      -0.00000
  30     15.07       58.2436        0.7106       58.1665       58.8770       0.633472      -0.00000
  29     18.79       58.2138        0.8633       57.9840       58.8473       0.633472       0.00000
  28     23.16       58.1791        1.0410       57.7716       58.8126       0.633472       0.00000
  27     28.12       58.1396        1.2436       57.5295       58.7731       0.633472       0.00000
  26     33.73       58.0955        1.4694       57.2595       58.7290       0.633472       0.00000
  25     40.54       58.0425        1.7412       56.9348       58.6760       0.633472       0.00000
  24     48.69       57.9789        2.0670       56.5453       58.6124       0.633472       0.00000
  23     57.69       57.9094        2.4227       56.1202       58.5429       0.633472       0.00000
  22     68.43       57.8273        2.8432       55.6176       58.4608       0.633472       0.00000
  21     81.20       57.7303        3.3398       55.0240       58.3638       0.633472      -0.00000
  20     96.49       57.6159        3.9252       54.3242       58.2494       0.633472      -0.00000
  19     114.6       57.4818        4.6113       53.5039       58.1152       0.633472       0.00000
  18     136.5       57.3251        5.4121       52.5465       57.9586       0.633472      -0.00000
  17     162.9       57.1419        6.3482       51.4272       57.7754       0.633472       0.00000
  16     196.4       56.9096        7.5341       50.0090       57.5430       0.633472      -0.00000
  15     218.7       56.7602        8.2961       49.0975       57.3936       0.633472       0.00000
  14     243.0       56.6005        9.1097       48.1244       57.2340       0.633472       0.00000
  13     269.0       56.4308        9.9742       47.0900       57.0643       0.633472      -0.00000
  12     297.5       56.2510       10.8890       45.9955       56.8845       0.633472       0.00000
  11     328.5       56.0609       11.8554       44.8390       56.6944       0.633472       0.00000
  10     361.9       55.8610       12.8709       43.6236       56.4945       0.633472       0.00000
   9     398.1       55.6512       13.9355       42.3491       56.2846       0.633472      -0.00000
   8     437.6       55.4317       15.0471       41.0181       56.0652       0.633472       0.00000
   7     480.5       55.2032       16.2035       39.6332       55.8367       0.633472      -0.00000
   6     533.0       54.9309       17.5789       37.9855       55.5644       0.633472       0.00000
   5     589.8       54.6480       19.0046       36.2770       55.2815       0.633472       0.00000
   4     651.6       54.3560       20.4731       34.5163       54.9895       0.633472      -0.00000
   3     718.7       54.0558       21.9787       32.7105       54.6893       0.633472       0.00000
   2     792.3       53.7491       23.5123       30.8702       54.3826       0.633472       0.00000
   1     891.5       53.3588       25.4563       28.5360       53.9923       0.633472       0.00000
   0    1013.0       52.9229       27.6157       25.9406       53.5563       0.633472      -0.00000



 Wavenumbers: 29000. - 38000. cm-1, ATM      1
 LEVEL PRESSURE   UPWARD FLUX   DIFDOWN FLUX  DIRDOWN FLUX  DOWNWARD FLUX   NET FLUX    HEATING RATE
          mb          W/m2          W/m2          W/m2        W/m2          W/m2       degree/day
  51    .06700        8.7530        0.0000       20.8114       20.8114      12.058366       0.00000
  50    .07753        8.7528        0.0003       20.8070       20.8074      12.054558       3.05262
  49    .09103        8.7526        0.0007       20.8009       20.8016      12.049019       3.46206
  48    0.1069        8.7523        0.0012       20.7928       20.7939      12.041606       3.94568
  47    0.1255        8.7520        0.0017       20.7820       20.7837      12.031698       4.49193
  46    0.1487        8.7517        0.0024       20.7665       20.7688      12.017129       5.31033
  45    0.1794        8.7513        0.0033       20.7424       20.7457      11.994456       6.22428
  44    0.2165        8.7508        0.0044       20.7103       20.7147      11.963922       6.94594
  43    0.2613        8.7502        0.0056       20.6675       20.6731      11.922913       7.73020
  42    0.3336        8.7493        0.0077       20.5880       20.5956      11.846322       8.92967
  41    0.4307        8.7483        0.0104       20.4722       20.4826      11.734325       9.73792
  40    0.5894        8.7468        0.0147       20.2637       20.2784      11.531554      10.78311
  39     1.339        8.7441        0.0331       19.0984       19.1315      10.387351      12.88165
  38     1.782        8.7454        0.0427       18.4394       18.4821       9.736669      12.38793
  37     2.292        8.7317        0.0821       17.7257       17.8078       9.076145      10.94000
  36     2.964        8.7334        0.1024       16.9853       17.0877       8.354310       9.06121
  35     3.853        8.7439        0.1210       16.2078       16.3288       7.584837       7.30245
  34     5.035        8.7638        0.1416       15.4206       15.5621       6.798356       5.61829
  33     6.613        8.7937        0.1668       14.6575       14.8244       6.030648       4.10417
  32     8.786        8.8337        0.1994       13.9383       14.1377       5.303954       2.82222
  31     11.80        8.8862        0.2448       13.2312       13.4760       4.589801       1.99940
  30     15.07        8.9369        0.2925       12.6887       12.9812       4.044286       1.40841
  29     18.79        8.9894        0.3453       12.2181       12.5633       3.573969       1.06635
  28     23.16        9.0450        0.4056       11.7834       12.1891       3.144044       0.83133
  27     28.12        9.1021        0.4734       11.3831       11.8565       2.754481       0.66223
  26     33.73        9.1547        0.5484       11.0263       11.5746       2.419947       0.50298
  25     40.54        9.2046        0.6381       10.6792       11.3173       2.112681       0.38120
  24     48.69        9.2517        0.7447       10.3340       11.0787       1.826969       0.29567
  23     57.69        9.2903        0.8602       10.0160       10.8762       1.585927       0.22594
  22     68.43        9.3214        0.9958        9.6952       10.6910       1.369540       0.17011
  21     81.20        9.3362        1.1561        9.3772       10.5332       1.196999       0.11401
  20     96.49        9.3327        1.3446        9.0538       10.3984       1.065659       0.07249
  19     114.6        9.3189        1.5625        8.7052       10.2677       0.948755       0.05459
  18     136.5        9.2978        1.8116        8.3228       10.1344       0.836586       0.04313
  17     162.9        9.2695        2.0955        7.9007        9.9963       0.726766       0.03510
  16     196.4        9.2219        2.4480        7.4040        9.8520       0.630068       0.02434
  15     218.7        9.1878        2.6693        7.1014        9.7707       0.582930       0.01790
  14     243.0        9.1504        2.9006        6.7892        9.6898       0.539405       0.01510
  13     269.0        9.1095        3.1411        6.4687        9.6098       0.500324       0.01268
  12     297.5        9.0652        3.3896        6.1415        9.5311       0.465875       0.01022
  11     328.5        9.0190        3.6453        5.8065        9.4519       0.432895       0.00897
  10     361.9        8.9712        3.9057        5.4671        9.3728       0.401531       0.00794
   9     398.1        8.9221        4.1701        5.1238        9.2939       0.371811       0.00692
   8     437.6        8.8721        4.4371        4.7781        9.2152       0.343162       0.00613
   7     480.5        8.8215        4.7046        4.4329        9.1375       0.315972       0.00534
   6     533.0        8.7635        5.0094        4.0404        9.0498       0.286334       0.00477
   5     589.8        8.7062        5.3100        3.6539        8.9638       0.257642       0.00426
   4     651.6        8.6505        5.6032        3.2768        8.8800       0.229573       0.00384
   3     718.7        8.5970        5.8861        2.9131        8.7991       0.202085       0.00345
   2     792.3        8.5465        6.1559        2.5658        8.7217       0.175183       0.00309
   1     891.5        8.4884        6.4725        2.1578        8.6304       0.141973       0.00283
   0    1013.0        8.4326        6.7895        1.7484        8.5379       0.105284       0.00255



 Wavenumbers: 38000. - 50000. cm-1, ATM      1
 LEVEL PRESSURE   UPWARD FLUX   DIFDOWN FLUX  DIRDOWN FLUX  DOWNWARD FLUX   NET FLUX    HEATING RATE
          mb          W/m2          W/m2          W/m2        W/m2          W/m2       degree/day
  51    .06700        0.0072        0.0000        1.2836        1.2836       1.276455       0.00000
  50    .07753        0.0071        0.0001        1.2812        1.2812       1.274120       1.87224
  49    .09103        0.0070        0.0002        1.2777        1.2778       1.270787       2.08324
  48    0.1069        0.0070        0.0002        1.2731        1.2734       1.266407       2.33141
  47    0.1255        0.0069        0.0004        1.2672        1.2675       1.260650       2.60995
  46    0.1487        0.0068        0.0005        1.2586        1.2591       1.252321       3.03595
  45    0.1794        0.0066        0.0007        1.2455        1.2462       1.239549       3.50627
  44    0.2165        0.0064        0.0009        1.2282        1.2291       1.222618       3.85152
  43    0.2613        0.0063        0.0011        1.2054        1.2065       1.200262       4.21385
  42    0.3336        0.0060        0.0015        1.1639        1.1654       1.159426       4.76112
  41    0.4307        0.0056        0.0020        1.1051        1.1071       1.101449       5.04099
  40    0.5894        0.0051        0.0026        1.0039        1.0064       1.001374       5.32188
  39     1.339        0.0037        0.0035        0.5438        0.5473       0.543671       5.15290
  38     1.782        0.0034        0.0032        0.3635        0.3667       0.363235       3.43521
  37     2.292        0.0016        0.0041        0.2328        0.2369       0.235327       2.11849
  36     2.964        0.0010        0.0034        0.1432        0.1466       0.145582       1.12658
  35     3.853        0.0006        0.0025        0.0843        0.0868       0.086178       0.56375
  34     5.035        0.0004        0.0018        0.0479        0.0497       0.049274       0.26363
  33     6.613        0.0003        0.0012        0.0268        0.0280       0.027738       0.11513
  32     8.786        0.0002        0.0009        0.0141        0.0150       0.014805       0.05023
  31     11.80        0.0001        0.0005        0.0064        0.0069       0.006852       0.02227
  30     15.07        0.0000        0.0003        0.0030        0.0033       0.003307       0.00915
  29     18.79        0.0000        0.0002        0.0014        0.0016       0.001574       0.00393
  28     23.16        0.0000        0.0001        0.0006        0.0007       0.000717       0.00166
  27     28.12        0.0000        0.0001        0.0003        0.0003       0.000316       0.00068
  26     33.73        0.0000        0.0000        0.0001        0.0001       0.000139       0.00027
  25     40.54        0.0000        0.0000        0.0000        0.0001       0.000057       0.00010
  24     48.69        0.0000        0.0000        0.0000        0.0000       0.000021       0.00004
  23     57.69        0.0000        0.0000        0.0000        0.0000       0.000008       0.00001
  22     68.43        0.0000        0.0000        0.0000        0.0000       0.000003       0.00000
  21     81.20        0.0000        0.0000        0.0000        0.0000       0.000001       0.00000
  20     96.49        0.0000        0.0000        0.0000        0.0000       0.000000       0.00000
  19     114.6        0.0000        0.0000        0.0000        0.0000       0.000000       0.00000
  18     136.5        0.0000        0.0000        0.0000        0.0000       0.000000       0.00000
  17     162.9        0.0000        0.0000        0.0000        0.0000       0.000000       0.00000
  16     196.4        0.0000        0.0000        0.0000        0.0000       0.000000       0.00000
  15     218.7        0.0000        0.0000        0.0000        0.0000       0.000000       0.00000
  14     243.0        0.0000        0.0000        0.0000        0.0000       0.000000       0.00000
  13     269.0        0.0000        0.0000        0.0000        0.0000       0.000000       0.00000
  12     297.5        0.0000        0.0000        0.0000        0.0000       0.000000       0.00000
  11     328.5        0.0000        0.0000        0.0000        0.0000       0.000000       0.00000
  10     361.9        0.0000        0.0000        0.0000        0.0000       0.000000       0.00000
   9     398.1        0.0000        0.0000        0.0000        0.0000       0.000000       0.00000
   8     437.6        0.0000        0.0000        0.0000        0.0000       0.000000       0.00000
   7     480.5        0.0000        0.0000        0.0000        0.0000       0.000000       0.00000
   6     533.0        0.0000        0.0000        0.0000        0.0000       0.000000       0.00000
   5     589.8        0.0000        0.0000        0.0000        0.0000       0.000000       0.00000
   4     651.6        0.0000        0.0000        0.0000        0.0000       0.000000       0.00000
   3     718.7        0.0000        0.0000        0.0000        0.0000       0.000000       0.00000
   2     792.3        0.0000        0.0000        0.0000        0.0000       0.000000       0.00000
   1     891.5        0.0000        0.0000        0.0000        0.0000       0.000000       0.00000
   0    1013.0        0.0000        0.0000        0.0000        0.0000       0.000000       0.00000



 Wavenumbers:   820. -  2600. cm-1, ATM      1
 LEVEL PRESSURE   UPWARD FLUX   DIFDOWN FLUX  DIRDOWN FLUX  DOWNWARD FLUX   NET FLUX    HEATING RATE
          mb          W/m2          W/m2          W/m2        W/m2          W/m2       degree/day
  51    .06700        0.4091        0.0000        6.0047        6.0047       5.595528       0.00000
  50    .07753        0.4091        0.0000        6.0009        6.0009       5.591749       3.02937
  49    .09103        0.4091        0.0000        6.0001        6.0001       5.590959       0.49378
  48    0.1069        0.4091        0.0000        5.9992        5.9992       5.590084       0.46572
  47    0.1255        0.4091        0.0000        5.9982        5.9982       5.589103       0.44470
  46    0.1487        0.4091        0.0000        5.9970        5.9970       5.587925       0.42941
  45    0.1794        0.4091        0.0000        5.9956        5.9956       5.586458       0.40259
  44    0.2165        0.4091        0.0000        5.9940        5.9940       5.584926       0.34860
  43    0.2613        0.4091        0.0000        5.9925        5.9925       5.583347       0.29770
  42    0.3336        0.4091        0.0000        5.9902        5.9902       5.581117       0.25991
  41    0.4307        0.4091        0.0000        5.9877        5.9877       5.578529       0.22503
  40    0.5894        0.4091        0.0000        5.9836        5.9836       5.574497       0.21442
  39     1.339        0.4091        0.0000        5.9651        5.9651       5.555987       0.20839
  38     1.782        0.4091        0.0000        5.9549        5.9549       5.545770       0.19451
  37     2.292        0.4803        0.0000        1.2705        1.2705       0.790165      78.76522
  36     2.964        0.5062        0.0000        1.1753        1.1753       0.669070       1.52012
  35     3.853        0.5202        0.0000        1.1343        1.1343       0.614038       0.52226
  34     5.035        0.5286        0.0000        1.1123        1.1123       0.583696       0.21675
  33     6.613        0.5337        0.0000        1.0995        1.0995       0.565843       0.09544
  32     8.786        0.5368        0.0000        1.0920        1.0920       0.555222       0.04125
  31     11.80        0.5388        0.0000        1.0874        1.0874       0.548543       0.01870
  30     15.07        0.5399        0.0000        1.0849        1.0849       0.545026       0.00908
  29     18.79        0.5405        0.0000        1.0834        1.0834       0.542886       0.00485
  28     23.16        0.5410        0.0000        1.0824        1.0824       0.541393       0.00289
  27     28.12        0.5413        0.0000        1.0816        1.0816       0.540266       0.00192
  26     33.73        0.5416        0.0000        1.0810        1.0810       0.539398       0.00130
  25     40.54        0.5419        0.0000        1.0801        1.0801       0.538205       0.00148
  24     48.69        0.5422        0.0000        1.0794        1.0794       0.537185       0.00105
  23     57.69        0.5425        0.0000        1.0789        1.0789       0.536385       0.00075
  22     68.43        0.5427        0.0000        1.0784        1.0784       0.535699       0.00054
  21     81.20        0.5429        0.0000        1.0780        1.0780       0.535108       0.00039
  20     96.49        0.5430        0.0000        1.0776        1.0776       0.534592       0.00028
  19     114.6        0.5432        0.0000        1.0773        1.0773       0.534181       0.00019
  18     136.5        0.5433        0.0000        1.0770        1.0770       0.533751       0.00017
  17     162.9        0.5434        0.0000        1.0768        1.0768       0.533349       0.00013
  16     196.4        0.5435        0.0000        1.0765        1.0765       0.532952       0.00010
  15     218.7        0.5436        0.0000        1.0763        1.0763       0.532696       0.00010
  14     243.0        0.5437        0.0000        1.0762        1.0762       0.532492       0.00007
  13     269.0        0.5438        0.0000        1.0760        1.0760       0.532226       0.00009
  12     297.5        0.5439        0.0000        1.0757        1.0757       0.531823       0.00012
  11     328.5        0.5441        0.0000        1.0753        1.0753       0.531203       0.00017
  10     361.9        0.5444        0.0000        1.0746        1.0746       0.530212       0.00025
   9     398.1        0.5449        0.0000        1.0735        1.0735       0.528678       0.00036
   8     437.6        0.5456        0.0000        1.0720        1.0720       0.526399       0.00049
   7     480.5        0.5466        0.0000        1.0697        1.0697       0.523066       0.00065
   6     533.0        0.5485        0.0000        1.0655        1.0656       0.517019       0.00097
   5     589.8        0.5516        0.0000        1.0591        1.0591       0.507541       0.00141
   4     651.6        0.5568        0.0000        1.0480        1.0481       0.491248       0.00223
   3     718.7        0.5650        0.0000        1.0313        1.0313       0.466254       0.00314
   2     792.3        0.5775        0.0000        1.0067        1.0067       0.429229       0.00425
   1     891.5        0.6019        0.0000        0.9618        0.9619       0.359966       0.00589
   0    1013.0        0.6427        0.0000        0.8950        0.8950       0.252298       0.00748

  Modules and versions used in this calculation:

       rrtmg_sw.1col.f90:  $Revision$                    rrtmg_sw_init.f90:  $Revision$        
     rrtmgsw_cldprop.f90:  $Revision$                  rrtmgsw_cldprmc.f90:  NOT USED          
     rrtmg_sw_reftra.f90:  $Revision$                  rrtmg_sw_spcvrt.f90:  NOT USED          
     rrtmg_sw_spcvmc.f90:  NOT USED                    rrtmgsw_setcoef.f90:  NOT USED          
     rrtmg_sw_taumol.f90:  $Revision$                  rrtmg_sw_vrtqdr.f90:  NOT USED          
                rrtatm.f:  NOT USED                             util_xxx.f:  NOT USED          
                 extra.f:  NOT USED                       rrtmg_sw_k_g.f90:  $Revision$        

