

 Wavenumbers:   820. - 50000. cm-1, ATM      1
 LEVEL PRESSURE   UPWARD FLUX   DIFDOWN FLUX  DIRDOWN FLUX  DOWNWARD FLUX   NET FLUX    HEATING RATE
          mb          W/m2          W/m2          W/m2        W/m2          W/m2       degree/day
  51    .06700      404.1123        0.0000      617.8126      617.8126     213.700295       0.00000
  50    .07753      404.1119        0.0013      617.7948      617.7962     213.684281      12.83566
  49    .09103      404.1115        0.0030      617.7782      617.7812     213.669738       9.08953
  48    0.1069      404.1110        0.0050      617.7588      617.7638     213.652832       8.99931
  47    0.1255      404.1105        0.0072      617.7352      617.7424     213.631908       9.48557
  46    0.1487      404.1099        0.0100      617.7026      617.7126     213.602762      10.62418
  45    0.1794      404.1092        0.0139      617.6545      617.6684     213.559263      11.94164
  44    0.2165      404.1084        0.0184      617.5928      617.6112     213.502813      12.84124
  43    0.2613      404.1077        0.0238      617.5133      617.5371     213.429361      13.84546
  42    0.3336      404.1068        0.0326      617.3704      617.4029     213.296096      15.53734
  41    0.4307      404.1061        0.0442      617.1679      617.2121     213.105958      16.53207
  40    0.5894      404.1059        0.0629      616.8134      616.8764     212.770412      17.84394
  39     1.339      404.1235        0.1476      614.9754      615.1230     210.999485      19.93742
  38     1.782      404.1468        0.1952      614.0076      614.2029     210.056076      17.96098
  37     2.292      404.2285        0.3481      598.1748      598.5229     194.294359     261.05515
  36     2.964      404.3135        0.4485      595.8370      596.2855     191.972047      29.15202
  35     3.853      404.4360        0.5551      594.0348      594.5899     190.153893      17.25462
  34     5.035      404.6147        0.6842      592.3855      593.0697     188.455007      12.13614
  33     6.613      404.8610        0.8495      590.7755      591.6250     186.763980       9.04023
  32     8.786      405.1788        1.0680      589.1410      590.2090     185.030205       6.73336
  31     11.80      405.5884        1.3771      587.3372      588.7143     183.125932       5.33136
  30     15.07      405.9771        1.7067      585.7599      587.4666     181.489472       4.22502
  29     18.79      406.3711        2.0768      584.2242      586.3011     179.929956       3.53590
  28     23.16      406.7796        2.5071      582.6400      585.1471     178.367526       3.02124
  27     28.12      407.1863        2.9969      581.0185      584.0154     176.829053       2.61530
  26     33.73      407.5533        3.5429      579.4137      582.9567     175.403341       2.14360
  25     40.54      407.8944        4.2006      577.6593      581.8599     173.965491       1.78381
  24     48.69      408.2060        4.9897      575.7532      580.7429     172.536939       1.47833
  23     57.69      408.4518        5.8524      573.8530      579.7054     171.253564       1.20297
  22     68.43      408.6399        6.8744      571.7892      578.6636     170.023767       0.96679
  21     81.20      408.7184        8.0862      569.5804      577.6666     168.948198       0.71072
  20     96.49      408.6772        9.5210      567.1827      576.7037     168.026511       0.50870
  19     114.6      408.5781       11.2088      564.3090      575.5178     166.939743       0.50744
  18     136.5      408.4153       13.1851      561.0683      574.2534     165.838115       0.42360
  17     162.9      408.1820       15.5043      557.3778      572.8820     164.699996       0.36379
  16     196.4      407.7907       18.4626      552.8114      571.2739     163.483185       0.30629
  15     218.7      407.5053       20.3747      549.7810      570.1557     162.650380       0.31618
  14     243.0      407.1838       22.4258      546.5594      568.9852     161.801396       0.29446
  13     269.0      406.8270       24.6174      542.9422      567.5595     160.732531       0.34673
  12     297.5      406.4364       26.9501      538.8255      565.7757     159.339283       0.41322
  11     328.5      406.0217       29.4302      534.0703      563.5006     157.478804       0.50586
  10     361.9      405.5887       32.0538      528.5271      560.5808     154.992148       0.62915
   9     398.1      405.1440       34.8252      522.0271      556.8523     151.708330       0.76506
   8     437.6      404.7013       37.7433      514.4362      552.1795     147.478230       0.90442
   7     480.5      404.2781       40.8058      505.7274      546.5332     142.255131       1.02580
   6     533.0      403.8522       44.4873      494.5223      539.0096     135.157410       1.14180
   5     589.8      403.5446       48.3505      482.2784      530.6289     127.084323       1.19831
   4     651.6      403.4506       52.3843      469.1514      521.5357     118.085065       1.23067
   3     718.7      403.6754       56.5824      455.5582      512.1407     108.465336       1.20893
   2     792.3      404.4132       60.9282      441.5170      502.4451      98.031986       1.19659
   1     891.5      406.4729       66.5602      423.5033      490.0635      83.590614       1.22889
   0    1013.0      411.1704       72.9964      403.4871      476.4835      65.313062       1.26910



 Wavenumbers:  2600. -  3250. cm-1, ATM      1
 LEVEL PRESSURE   UPWARD FLUX   DIFDOWN FLUX  DIRDOWN FLUX  DOWNWARD FLUX   NET FLUX    HEATING RATE
          mb          W/m2          W/m2          W/m2        W/m2          W/m2       degree/day
  51    .06700        1.3992        0.0000        5.4450        5.4450       4.045881       0.00000
  50    .07753        1.3992        0.0000        5.4450        5.4450       4.045873       0.00640
  49    .09103        1.3992        0.0000        5.4450        5.4450       4.045863       0.00627
  48    0.1069        1.3992        0.0000        5.4450        5.4450       4.045851       0.00613
  47    0.1255        1.3992        0.0000        5.4450        5.4450       4.045838       0.00599
  46    0.1487        1.3992        0.0000        5.4450        5.4450       4.045821       0.00608
  45    0.1794        1.3992        0.0000        5.4450        5.4450       4.045798       0.00625
  44    0.2165        1.3992        0.0000        5.4449        5.4449       4.045772       0.00612
  43    0.2613        1.3992        0.0000        5.4449        5.4449       4.045740       0.00600
  42    0.3336        1.3992        0.0000        5.4448        5.4448       4.045687       0.00617
  41    0.4307        1.3992        0.0000        5.4448        5.4448       4.045616       0.00620
  40    0.5894        1.3992        0.0000        5.4446        5.4446       4.045496       0.00637
  39     1.339        1.3992        0.0000        5.4439        5.4439       4.044788       0.00797
  38     1.782        1.3992        0.0000        5.4434        5.4434       4.044245       0.01034
  37     2.292        1.3992        0.0000        5.4427        5.4427       4.043529       0.01186
  36     2.964        1.3992        0.0000        5.4416        5.4416       4.042491       0.01304
  35     3.853        1.3992        0.0000        5.4402        5.4402       4.041013       0.01402
  34     5.035        1.3992        0.0000        5.4381        5.4381       4.038958       0.01468
  33     6.613        1.3992        0.0000        5.4353        5.4353       4.036176       0.01487
  32     8.786        1.3992        0.0000        5.4317        5.4317       4.032544       0.01411
  31     11.80        1.3992        0.0000        5.4269        5.4269       4.027763       0.01339
  30     15.07        1.3992        0.0000        5.4224        5.4224       4.023235       0.01169
  29     18.79        1.3992        0.0000        5.4180        5.4180       4.018821       0.01001
  28     23.16        1.3992        0.0000        5.4135        5.4135       4.014333       0.00868
  27     28.12        1.3992        0.0000        5.4088        5.4088       4.009681       0.00791
  26     33.73        1.3992        0.0000        5.4036        5.4036       4.004435       0.00789
  25     40.54        1.3992        0.0000        5.3966        5.3967       3.997484       0.00862
  24     48.69        1.3992        0.0000        5.3872        5.3872       3.987994       0.00982
  23     57.69        1.3992        0.0000        5.3754        5.3754       3.976190       0.01106
  22     68.43        1.3992        0.0000        5.3599        5.3599       3.960674       0.01220
  21     81.20        1.3993        0.0000        5.3401        5.3401       3.940801       0.01313
  20     96.49        1.3994        0.0000        5.3155        5.3155       3.916176       0.01359
  19     114.6        1.3996        0.0000        5.2701        5.2701       3.870511       0.02132
  18     136.5        1.3999        0.0001        5.2231        5.2231       3.823240       0.01818
  17     162.9        1.4003        0.0001        5.1752        5.1753       3.775013       0.01542
  16     196.4        1.4009        0.0001        5.1224        5.1225       3.721552       0.01346
  15     218.7        1.4014        0.0001        5.0879        5.0880       3.686568       0.01328
  14     243.0        1.4020        0.0001        5.0547        5.0548       3.652715       0.01174
  13     269.0        1.4029        0.0001        5.0166        5.0167       3.613833       0.01261
  12     297.5        1.4041        0.0001        4.9723        4.9724       3.568307       0.01350
  11     328.5        1.4057        0.0001        4.9184        4.9185       3.512805       0.01509
  10     361.9        1.4080        0.0001        4.8501        4.8502       3.442193       0.01787
   9     398.1        1.4112        0.0002        4.7612        4.7614       3.350164       0.02144
   8     437.6        1.4156        0.0002        4.6441        4.6443       3.228707       0.02597
   7     480.5        1.4218        0.0002        4.4935        4.4937       3.071903       0.03080
   6     533.0        1.4319        0.0002        4.2815        4.2817       2.849840       0.03572
   5     589.8        1.4468        0.0002        4.0381        4.0383       2.591436       0.03836
   4     651.6        1.4692        0.0002        3.7736        3.7738       2.304642       0.03922
   3     718.7        1.5011        0.0002        3.5098        3.5101       2.008962       0.03716
   2     792.3        1.5475        0.0002        3.2394        3.2397       1.692148       0.03634
   1     891.5        1.6373        0.0002        2.8915        2.8918       1.254493       0.03724
   0    1013.0        1.8091        0.0002        2.5191        2.5193       0.710177       0.03779



 Wavenumbers:  3250. -  4000. cm-1, ATM      1
 LEVEL PRESSURE   UPWARD FLUX   DIFDOWN FLUX  DIRDOWN FLUX  DOWNWARD FLUX   NET FLUX    HEATING RATE
          mb          W/m2          W/m2          W/m2        W/m2          W/m2       degree/day
  51    .06700        0.0066        0.0000        9.1795        9.1795       9.172956       0.00000
  50    .07753        0.0066        0.0000        9.1747        9.1747       9.168087       3.90286
  49    .09103        0.0066        0.0000        9.1713        9.1713       9.164767       2.07466
  48    0.1069        0.0066        0.0000        9.1689        9.1689       9.162361       1.28111
  47    0.1255        0.0066        0.0000        9.1668        9.1668       9.160240       0.96121
  46    0.1487        0.0066        0.0000        9.1645        9.1645       9.157968       0.82828
  45    0.1794        0.0066        0.0000        9.1619        9.1619       9.155298       0.73288
  44    0.2165        0.0066        0.0000        9.1592        9.1592       9.152610       0.61167
  43    0.2613        0.0066        0.0000        9.1565        9.1565       9.149912       0.50840
  42    0.3336        0.0066        0.0000        9.1528        9.1528       9.146216       0.43101
  41    0.4307        0.0066        0.0000        9.1487        9.1487       9.142117       0.35634
  40    0.5894        0.0066        0.0000        9.1428        9.1428       9.136225       0.31334
  39     1.339        0.0066        0.0000        9.1196        9.1196       9.113043       0.26099
  38     1.782        0.0066        0.0000        9.1090        9.1090       9.102459       0.20149
  37     2.292        0.0066        0.0000        6.0007        6.0007       5.994148      51.48175
  36     2.964        0.0066        0.0000        5.6254        5.6254       5.618821       4.71148
  35     3.853        0.0066        0.0000        5.4347        5.4347       5.428055       1.81040
  34     5.035        0.0066        0.0000        5.3126        5.3126       5.305951       0.87226
  33     6.613        0.0066        0.0000        5.2269        5.2269       5.220279       0.45800
  32     8.786        0.0066        0.0000        5.1638        5.1638       5.157175       0.24507
  31     11.80        0.0066        0.0000        5.1132        5.1133       5.106630       0.14151
  30     15.07        0.0066        0.0000        5.0792        5.0792       5.072557       0.08797
  29     18.79        0.0066        0.0000        5.0527        5.0527       5.046085       0.06002
  28     23.16        0.0066        0.0000        5.0291        5.0291       5.022457       0.04569
  27     28.12        0.0066        0.0000        5.0062        5.0062       4.999622       0.03882
  26     33.73        0.0066        0.0000        4.9837        4.9837       4.977098       0.03387
  25     40.54        0.0066        0.0000        4.9494        4.9494       4.942808       0.04254
  24     48.69        0.0066        0.0000        4.9130        4.9130       4.906388       0.03769
  23     57.69        0.0066        0.0000        4.8789        4.8790       4.872379       0.03188
  22     68.43        0.0066        0.0001        4.8440        4.8440       4.837438       0.02747
  21     81.20        0.0066        0.0001        4.8075        4.8076       4.800968       0.02410
  20     96.49        0.0066        0.0001        4.7700        4.7701       4.763551       0.02065
  19     114.6        0.0066        0.0001        4.7277        4.7278       4.721244       0.01975
  18     136.5        0.0065        0.0001        4.6794        4.6795       4.672912       0.01858
  17     162.9        0.0065        0.0001        4.6241        4.6243       4.617740       0.01764
  16     196.4        0.0065        0.0001        4.5489        4.5490       4.542521       0.01893
  15     218.7        0.0065        0.0002        4.4726        4.4728       4.466258       0.02895
  14     243.0        0.0065        0.0002        4.3900        4.3902       4.383725       0.02863
  13     269.0        0.0065        0.0002        4.2632        4.2634       4.256901       0.04114
  12     297.5        0.0065        0.0002        4.0793        4.0795       4.072983       0.05455
  11     328.5        0.0065        0.0002        3.8326        3.8328       3.826372       0.06705
  10     361.9        0.0065        0.0002        3.5260        3.5262       3.519755       0.07758
   9     398.1        0.0065        0.0002        3.1758        3.1760       3.169494       0.08160
   8     437.6        0.0066        0.0002        2.7982        2.7984       2.791777       0.08076
   7     480.5        0.0067        0.0002        2.4148        2.4150       2.408230       0.07533
   6     533.0        0.0070        0.0002        1.9821        1.9823       1.975272       0.06965
   5     589.8        0.0076        0.0002        1.5705        1.5706       1.563069       0.06118
   4     651.6        0.0086        0.0001        1.1777        1.1779       1.169277       0.05385
   3     718.7        0.0104        0.0001        0.8277        0.8278       0.817409       0.04422
   2     792.3        0.0141        0.0001        0.5395        0.5395       0.525440       0.03349
   1     891.5        0.0251        0.0000        0.2729        0.2729       0.247835       0.02362
   0    1013.0        0.0666        0.0000        0.0927        0.0927       0.026127       0.01539



 Wavenumbers:  4000. -  4650. cm-1, ATM      1
 LEVEL PRESSURE   UPWARD FLUX   DIFDOWN FLUX  DIRDOWN FLUX  DOWNWARD FLUX   NET FLUX    HEATING RATE
          mb          W/m2          W/m2          W/m2        W/m2          W/m2       degree/day
  51    .06700        4.9722        0.0000       10.7795       10.7795       5.807326       0.00000
  50    .07753        4.9722        0.0000       10.7795       10.7795       5.807325       0.00080
  49    .09103        4.9722        0.0000       10.7795       10.7795       5.807324       0.00078
  48    0.1069        4.9722        0.0000       10.7795       10.7795       5.807322       0.00077
  47    0.1255        4.9722        0.0000       10.7795       10.7795       5.807321       0.00075
  46    0.1487        4.9722        0.0000       10.7795       10.7795       5.807319       0.00076
  45    0.1794        4.9722        0.0000       10.7795       10.7795       5.807316       0.00078
  44    0.2165        4.9722        0.0000       10.7795       10.7795       5.807312       0.00076
  43    0.2613        4.9722        0.0000       10.7795       10.7795       5.807308       0.00075
  42    0.3336        4.9722        0.0000       10.7795       10.7795       5.807302       0.00077
  41    0.4307        4.9722        0.0000       10.7795       10.7795       5.807293       0.00078
  40    0.5894        4.9722        0.0000       10.7795       10.7795       5.807278       0.00080
  39     1.339        4.9722        0.0000       10.7794       10.7794       5.807188       0.00101
  38     1.782        4.9722        0.0000       10.7793       10.7793       5.807118       0.00133
  37     2.292        4.9722        0.0000       10.7792       10.7792       5.807024       0.00156
  36     2.964        4.9722        0.0000       10.7791       10.7791       5.806883       0.00177
  35     3.853        4.9722        0.0000       10.7789       10.7789       5.806675       0.00198
  34     5.035        4.9722        0.0000       10.7785       10.7786       5.806367       0.00220
  33     6.613        4.9722        0.0000       10.7781       10.7781       5.805914       0.00242
  32     8.786        4.9722        0.0000       10.7774       10.7774       5.805245       0.00260
  31     11.80        4.9722        0.0001       10.7763       10.7764       5.804195       0.00294
  30     15.07        4.9722        0.0001       10.7751       10.7751       5.802962       0.00318
  29     18.79        4.9722        0.0001       10.7736       10.7737       5.801470       0.00338
  28     23.16        4.9722        0.0001       10.7717       10.7718       5.799618       0.00358
  27     28.12        4.9722        0.0001       10.7694       10.7696       5.797375       0.00381
  26     33.73        4.9722        0.0002       10.7666       10.7668       5.794609       0.00416
  25     40.54        4.9722        0.0002       10.7629       10.7631       5.790856       0.00466
  24     48.69        4.9722        0.0002       10.7579       10.7581       5.785853       0.00518
  23     57.69        4.9723        0.0003       10.7519       10.7522       5.779918       0.00556
  22     68.43        4.9723        0.0003       10.7445       10.7448       5.772477       0.00585
  21     81.20        4.9725        0.0004       10.7354       10.7358       5.763308       0.00606
  20     96.49        4.9726        0.0005       10.7243       10.7248       5.752144       0.00616
  19     114.6        4.9731        0.0005       10.7021       10.7027       5.729546       0.01055
  18     136.5        4.9738        0.0006       10.6785       10.6792       5.705327       0.00931
  17     162.9        4.9748        0.0008       10.6523       10.6531       5.678348       0.00862
  16     196.4        4.9761        0.0009       10.6191       10.6200       5.643853       0.00868
  15     218.7        4.9774        0.0010       10.5944       10.5954       5.618069       0.00979
  14     243.0        4.9788        0.0011       10.5680       10.5691       5.590277       0.00964
  13     269.0        4.9808        0.0012       10.5353       10.5365       5.555757       0.01120
  12     297.5        4.9835        0.0014       10.4943       10.4957       5.512220       0.01291
  11     328.5        4.9871        0.0015       10.4419       10.4434       5.456254       0.01522
  10     361.9        4.9921        0.0016       10.3726       10.3743       5.382148       0.01875
   9     398.1        4.9986        0.0018       10.2809       10.2827       5.284103       0.02284
   8     437.6        5.0067        0.0019       10.1618       10.1638       5.157062       0.02716
   7     480.5        5.0171        0.0021       10.0148       10.0169       4.999832       0.03088
   6     533.0        5.0329        0.0023        9.8200        9.8223       4.789407       0.03385
   5     589.8        5.0548        0.0025        9.6049        9.6074       4.552524       0.03516
   4     651.6        5.0861        0.0027        9.3577        9.3604       4.274328       0.03804
   3     718.7        5.1304        0.0029        9.0626        9.0655       3.935119       0.04263
   2     792.3        5.1945        0.0031        8.7116        8.7147       3.520209       0.04759
   1     891.5        5.3174        0.0034        8.2340        8.2373       2.919967       0.05108
   0    1013.0        5.5502        0.0037        7.7250        7.7287       2.178437       0.05149



 Wavenumbers:  4650. -  5150. cm-1, ATM      1
 LEVEL PRESSURE   UPWARD FLUX   DIFDOWN FLUX  DIRDOWN FLUX  DOWNWARD FLUX   NET FLUX    HEATING RATE
          mb          W/m2          W/m2          W/m2        W/m2          W/m2       degree/day
  51    .06700        3.4342        0.0000       10.2033       10.2033       6.769156       0.00000
  50    .07753        3.4342        0.0000       10.2031       10.2031       6.768921       0.18859
  49    .09103        3.4342        0.0000       10.2028       10.2028       6.768627       0.18387
  48    0.1069        3.4342        0.0000       10.2025       10.2025       6.768291       0.17891
  47    0.1255        3.4342        0.0000       10.2021       10.2021       6.767907       0.17387
  46    0.1487        3.4342        0.0000       10.2016       10.2016       6.767427       0.17497
  45    0.1794        3.4342        0.0000       10.2010       10.2010       6.766779       0.17811
  44    0.2165        3.4342        0.0000       10.2002       10.2002       6.766021       0.17239
  43    0.2613        3.4342        0.0000       10.1993       10.1993       6.765137       0.16653
  42    0.3336        3.4342        0.0000       10.1979       10.1979       6.763708       0.16665
  41    0.4307        3.4342        0.0000       10.1961       10.1961       6.761872       0.15967
  40    0.5894        3.4342        0.0000       10.1932       10.1932       6.759004       0.15249
  39     1.339        3.4342        0.0000       10.1816       10.1816       6.747437       0.13022
  38     1.782        3.4342        0.0000       10.1761       10.1761       6.741920       0.10504
  37     2.292        3.4342        0.0000       10.1706       10.1706       6.736475       0.09018
  36     2.964        3.4342        0.0000       10.1647       10.1647       6.730564       0.07420
  35     3.853        3.4342        0.0000       10.1585       10.1585       6.724362       0.05886
  34     5.035        3.4342        0.0000       10.1522       10.1522       6.718038       0.04518
  33     6.613        3.4342        0.0001       10.1457       10.1458       6.711591       0.03446
  32     8.786        3.4342        0.0001       10.1387       10.1388       6.704589       0.02719
  31     11.80        3.4342        0.0001       10.1296       10.1297       6.695557       0.02529
  30     15.07        3.4342        0.0001       10.1197       10.1199       6.685685       0.02549
  29     18.79        3.4342        0.0001       10.1077       10.1079       6.673684       0.02721
  28     23.16        3.4342        0.0002       10.0924       10.0926       6.658386       0.02958
  27     28.12        3.4343        0.0002       10.0734       10.0735       6.639297       0.03245
  26     33.73        3.4343        0.0002       10.0503       10.0505       6.616205       0.03472
  25     40.54        3.4344        0.0003       10.0204       10.0207       6.586300       0.03710
  24     48.69        3.4345        0.0003        9.9823        9.9826       6.548117       0.03951
  23     57.69        3.4347        0.0004        9.9388        9.9392       6.504555       0.04083
  22     68.43        3.4349        0.0005        9.8862        9.8867       6.451778       0.04149
  21     81.20        3.4352        0.0005        9.8240        9.8245       6.389306       0.04128
  20     96.49        3.4357        0.0006        9.7524        9.7530       6.317352       0.03971
  19     114.6        3.4365        0.0008        9.6694        9.6702       6.233744       0.03904
  18     136.5        3.4375        0.0009        9.5808        9.5817       6.144205       0.03443
  17     162.9        3.4389        0.0010        9.4871        9.4882       6.049280       0.03034
  16     196.4        3.4410        0.0012        9.3793        9.3806       5.939579       0.02761
  15     218.7        3.4427        0.0014        9.3119        9.3133       5.870551       0.02621
  14     243.0        3.4448        0.0015        9.2408        9.2423       5.797499       0.02534
  13     269.0        3.4476        0.0017        9.1620        9.1636       5.716065       0.02642
  12     297.5        3.4512        0.0018        9.0717        9.0736       5.622379       0.02779
  11     328.5        3.4560        0.0020        8.9658        8.9678       5.511745       0.03008
  10     361.9        3.4623        0.0022        8.8423        8.8444       5.382145       0.03279
   9     398.1        3.4705        0.0024        8.6963        8.6987       5.228222       0.03586
   8     437.6        3.4812        0.0026        8.5241        8.5267       5.045476       0.03907
   7     480.5        3.4953        0.0028        8.3215        8.3243       4.828992       0.04252
   6     533.0        3.5168        0.0030        8.0518        8.0548       4.538063       0.04680
   5     589.8        3.5462        0.0032        7.7442        7.7474       4.201145       0.05001
   4     651.6        3.5870        0.0034        7.4031        7.4065       3.819507       0.05219
   3     718.7        3.6430        0.0036        7.0436        7.0472       3.404242       0.05219
   2     792.3        3.7210        0.0038        6.6742        6.6781       2.957101       0.05128
   1     891.5        3.8640        0.0041        6.2125        6.2166       2.352672       0.05143
   0    1013.0        4.1110        0.0044        5.7200        5.7244       1.613372       0.05133



 Wavenumbers:  5150. -  6150. cm-1, ATM      1
 LEVEL PRESSURE   UPWARD FLUX   DIFDOWN FLUX  DIRDOWN FLUX  DOWNWARD FLUX   NET FLUX    HEATING RATE
          mb          W/m2          W/m2          W/m2        W/m2          W/m2       degree/day
  51    .06700        8.5988        0.0000       25.5798       25.5798      16.981016       0.00000
  50    .07753        8.5988        0.0000       25.5798       25.5798      16.981016       0.00022
  49    .09103        8.5988        0.0000       25.5798       25.5798      16.981016       0.00022
  48    0.1069        8.5988        0.0000       25.5798       25.5798      16.981015       0.00021
  47    0.1255        8.5988        0.0000       25.5798       25.5798      16.981015       0.00021
  46    0.1487        8.5988        0.0000       25.5798       25.5798      16.981014       0.00021
  45    0.1794        8.5988        0.0000       25.5798       25.5798      16.981013       0.00022
  44    0.2165        8.5988        0.0000       25.5798       25.5798      16.981012       0.00021
  43    0.2613        8.5988        0.0000       25.5798       25.5798      16.981011       0.00021
  42    0.3336        8.5988        0.0000       25.5798       25.5798      16.981009       0.00022
  41    0.4307        8.5988        0.0000       25.5798       25.5798      16.981007       0.00022
  40    0.5894        8.5988        0.0000       25.5798       25.5798      16.981003       0.00022
  39     1.339        8.5988        0.0000       25.5797       25.5798      16.980978       0.00028
  38     1.782        8.5988        0.0001       25.5797       25.5797      16.980958       0.00037
  37     2.292        8.6012        0.0001       22.9463       22.9464      14.345190      43.65519
  36     2.964        8.6022        0.0001       22.6050       22.6051      14.002869       4.29716
  35     3.853        8.6029        0.0001       22.4187       22.4189      13.815932       1.77407
  34     5.035        8.6035        0.0002       22.2975       22.2977      13.694201       0.86960
  33     6.613        8.6039        0.0002       22.2127       22.2129      13.609002       0.45548
  32     8.786        8.6043        0.0003       22.1512       22.1515      13.547175       0.24011
  31     11.80        8.6046        0.0004       22.1032       22.1035      13.498911       0.13512
  30     15.07        8.6048        0.0005       22.0719       22.0723      13.467482       0.08114
  29     18.79        8.6050        0.0006       22.0487       22.0492      13.444202       0.05278
  28     23.16        8.6052        0.0007       22.0292       22.0298      13.424639       0.03783
  27     28.12        8.6054        0.0008       22.0116       22.0124      13.406958       0.03006
  26     33.73        8.6056        0.0010       21.9953       21.9963      13.390653       0.02451
  25     40.54        8.6060        0.0011       21.9690       21.9702      13.364196       0.03282
  24     48.69        8.6064        0.0014       21.9421       21.9435      13.337100       0.02804
  23     57.69        8.6069        0.0016       21.9171       21.9187      13.311794       0.02372
  22     68.43        8.6074        0.0019       21.8917       21.8936      13.286170       0.02014
  21     81.20        8.6081        0.0022       21.8661       21.8683      13.260249       0.01713
  20     96.49        8.6089        0.0026       21.8401       21.8427      13.233864       0.01456
  19     114.6        8.6098        0.0031       21.8116       21.8147      13.204942       0.01350
  18     136.5        8.6109        0.0037       21.7796       21.7833      13.172387       0.01252
  17     162.9        8.6122        0.0044       21.7444       21.7488      13.136641       0.01143
  16     196.4        8.6138        0.0053       21.6986       21.7039      13.090097       0.01172
  15     218.7        8.6150        0.0059       21.6525       21.6584      13.043446       0.01771
  14     243.0        8.6162        0.0065       21.6018       21.6083      12.992124       0.01780
  13     269.0        8.6176        0.0072       21.5161       21.5233      12.905686       0.02804
  12     297.5        8.6194        0.0079       21.3730       21.3809      12.761495       0.04277
  11     328.5        8.6216        0.0086       21.1436       21.1523      12.530680       0.06276
  10     361.9        8.6245        0.0094       20.7924       20.8018      12.177361       0.08939
   9     398.1        8.6283        0.0101       20.2889       20.2990      11.670706       0.11804
   8     437.6        8.6336        0.0109       19.6167       19.6276      10.993973       0.14469
   7     480.5        8.6410        0.0115       18.7951       18.8066      10.165635       0.16268
   6     533.0        8.6535        0.0123       17.7525       17.7648       9.111289       0.16961
   5     589.8        8.6729        0.0130       16.7256       16.7386       8.065657       0.15521
   4     651.6        8.7039        0.0137       15.7958       15.8096       7.105687       0.13128
   3     718.7        8.7523        0.0146       15.0324       15.0470       6.294671       0.10192
   2     792.3        8.8296        0.0156       14.4027       14.4183       5.588690       0.08097
   1     891.5        8.9934        0.0169       13.7180       13.7349       4.741448       0.07210
   0    1013.0        9.3349        0.0184       12.9791       12.9975       3.662612       0.07491



 Wavenumbers:  6150. -  7700. cm-1, ATM      1
 LEVEL PRESSURE   UPWARD FLUX   DIFDOWN FLUX  DIRDOWN FLUX  DOWNWARD FLUX   NET FLUX    HEATING RATE
          mb          W/m2          W/m2          W/m2        W/m2          W/m2       degree/day
  51    .06700       13.4191        0.0000       47.3109       47.3109      33.891806       0.00000
  50    .07753       13.4191        0.0000       47.3108       47.3108      33.891790       0.01303
  49    .09103       13.4191        0.0000       47.3108       47.3108      33.891769       0.01277
  48    0.1069       13.4190        0.0000       47.3108       47.3108      33.891746       0.01250
  47    0.1255       13.4190        0.0000       47.3108       47.3108      33.891719       0.01223
  46    0.1487       13.4190        0.0000       47.3107       47.3107      33.891685       0.01241
  45    0.1794       13.4190        0.0000       47.3107       47.3107      33.891638       0.01276
  44    0.2165       13.4190        0.0000       47.3106       47.3106      33.891583       0.01252
  43    0.2613       13.4190        0.0000       47.3105       47.3106      33.891518       0.01228
  42    0.3336       13.4190        0.0000       47.3104       47.3104      33.891410       0.01256
  41    0.4307       13.4190        0.0000       47.3102       47.3103      33.891268       0.01242
  40    0.5894       13.4190        0.0001       47.3100       47.3100      33.891035       0.01240
  39     1.339       13.4189        0.0002       47.3087       47.3089      33.889933       0.01240
  38     1.782       13.4189        0.0002       47.3080       47.3082      33.889287       0.01230
  37     2.292       13.4211        0.0004       42.8444       42.8448      29.423688      73.96197
  36     2.964       13.4221        0.0005       42.3646       42.3651      28.942991       6.03419
  35     3.853       13.4228        0.0006       42.1024       42.1029      28.680133       2.49458
  34     5.035       13.4233        0.0007       41.9329       41.9336      28.510353       1.21284
  33     6.613       13.4236        0.0009       41.8153       41.8162      28.392595       0.62953
  32     8.786       13.4237        0.0012       41.7307       41.7319      28.308121       0.32807
  31     11.80       13.4238        0.0015       41.6654       41.6669      28.243129       0.18196
  30     15.07       13.4237        0.0019       41.6234       41.6252      28.201522       0.10742
  29     18.79       13.4236        0.0023       41.5925       41.5948      28.171211       0.06872
  28     23.16       13.4233        0.0028       41.5667       41.5695      28.146144       0.04847
  27     28.12       13.4231        0.0033       41.5436       41.5469      28.123844       0.03791
  26     33.73       13.4228        0.0040       41.5226       41.5266      28.103784       0.03016
  25     40.54       13.4224        0.0047       41.4895       41.4942      28.071759       0.03973
  24     48.69       13.4220        0.0056       41.4563       41.4619      28.039956       0.03291
  23     57.69       13.4215        0.0066       41.4259       41.4325      28.011045       0.02710
  22     68.43       13.4208        0.0078       41.3954       41.4032      27.982418       0.02250
  21     81.20       13.4200        0.0093       41.3647       41.3739      27.953915       0.01883
  20     96.49       13.4191        0.0110       41.3332       41.3442      27.925104       0.01590
  19     114.6       13.4180        0.0130       41.2973       41.3103      27.892326       0.01530
  18     136.5       13.4167        0.0154       41.2554       41.2707      27.854070       0.01471
  17     162.9       13.4151        0.0183       41.2061       41.2243      27.809178       0.01435
  16     196.4       13.4132        0.0220       41.1359       41.1579      27.744688       0.01623
  15     218.7       13.4121        0.0244       41.0595       41.0839      27.671848       0.02765
  14     243.0       13.4109        0.0271       40.9731       41.0001      27.589250       0.02865
  13     269.0       13.4099        0.0299       40.8258       40.8557      27.445810       0.04653
  12     297.5       13.4093        0.0329       40.5792       40.6121      27.202860       0.07206
  11     328.5       13.4094        0.0360       40.1819       40.2180      26.808551       0.10721
  10     361.9       13.4108        0.0392       39.5672       39.6064      26.195620       0.15508
   9     398.1       13.4144        0.0424       38.6689       38.7113      25.296932       0.20937
   8     437.6       13.4215        0.0454       37.4469       37.4923      24.070806       0.26215
   7     480.5       13.4341        0.0482       35.9088       35.9569      22.522808       0.30402
   6     533.0       13.4596        0.0510       33.8532       33.9043      20.444693       0.33430
   5     589.8       13.5036        0.0536       31.6479       31.7015      18.197951       0.33349
   4     651.6       13.5783        0.0560       29.4203       29.4763      15.897942       0.31453
   3     718.7       13.6989        0.0583       27.3218       27.3801      13.681197       0.27858
   2     792.3       13.8941        0.0606       25.3578       25.4185      11.524370       0.24736
   1     891.5       14.3089        0.0636       23.1536       23.2172       8.908316       0.22261
   0    1013.0       15.1829        0.0673       21.0688       21.1361       5.953161       0.20519



 Wavenumbers:  7700. -  8050. cm-1, ATM      1
 LEVEL PRESSURE   UPWARD FLUX   DIFDOWN FLUX  DIRDOWN FLUX  DOWNWARD FLUX   NET FLUX    HEATING RATE
          mb          W/m2          W/m2          W/m2        W/m2          W/m2       degree/day
  51    .06700        6.4496        0.0000       11.1810       11.1810       4.731353       0.00000
  50    .07753        6.4496        0.0000       11.1809       11.1809       4.731331       0.01771
  49    .09103        6.4496        0.0000       11.1809       11.1809       4.731303       0.01736
  48    0.1069        6.4496        0.0000       11.1809       11.1809       4.731271       0.01700
  47    0.1255        6.4496        0.0000       11.1809       11.1809       4.731235       0.01663
  46    0.1487        6.4496        0.0000       11.1808       11.1808       4.731188       0.01688
  45    0.1794        6.4497        0.0000       11.1808       11.1808       4.731125       0.01737
  44    0.2165        6.4497        0.0000       11.1807       11.1807       4.731050       0.01704
  43    0.2613        6.4497        0.0000       11.1806       11.1806       4.730961       0.01672
  42    0.3336        6.4497        0.0000       11.1805       11.1805       4.730815       0.01710
  41    0.4307        6.4497        0.0000       11.1803       11.1804       4.730620       0.01692
  40    0.5894        6.4498        0.0000       11.1801       11.1801       4.730302       0.01690
  39     1.339        6.4501        0.0001       11.1788       11.1789       4.728799       0.01693
  38     1.782        6.4503        0.0001       11.1781       11.1782       4.727916       0.01681
  37     2.292        6.4504        0.0002       11.1771       11.1773       4.726893       0.01693
  36     2.964        6.4507        0.0002       11.1760       11.1762       4.725551       0.01685
  35     3.853        6.4510        0.0003       11.1745       11.1748       4.723778       0.01683
  34     5.035        6.4514        0.0004       11.1725       11.1728       4.721423       0.01683
  33     6.613        6.4520        0.0005       11.1698       11.1703       4.718277       0.01682
  32     8.786        6.4528        0.0006       11.1663       11.1668       4.714039       0.01646
  31     11.80        6.4539        0.0007       11.1612       11.1619       4.707980       0.01696
  30     15.07        6.4552        0.0009       11.1557       11.1566       4.701479       0.01678
  29     18.79        6.4566        0.0011       11.1496       11.1507       4.694143       0.01663
  28     23.16        6.4582        0.0014       11.1424       11.1438       4.685585       0.01655
  27     28.12        6.4600        0.0017       11.1342       11.1359       4.675812       0.01661
  26     33.73        6.4621        0.0020       11.1251       11.1270       4.664896       0.01641
  25     40.54        6.4647        0.0024       11.1141       11.1164       4.651738       0.01633
  24     48.69        6.4678        0.0028       11.1009       11.1037       4.635918       0.01637
  23     57.69        6.4712        0.0033       11.0864       11.0898       4.618597       0.01624
  22     68.43        6.4753        0.0039       11.0694       11.0733       4.598048       0.01615
  21     81.20        6.4802        0.0046       11.0492       11.0538       4.573680       0.01610
  20     96.49        6.4860        0.0055       11.0254       11.0308       4.544803       0.01594
  19     114.6        6.4931        0.0065       10.9973       11.0038       4.510672       0.01594
  18     136.5        6.5016        0.0077       10.9645       10.9722       4.470536       0.01543
  17     162.9        6.5119        0.0091       10.9259       10.9350       4.423166       0.01514
  16     196.4        6.5254        0.0109       10.8768       10.8878       4.362366       0.01530
  15     218.7        6.5345        0.0121       10.8451       10.8572       4.322743       0.01504
  14     243.0        6.5444        0.0134       10.8109       10.8244       4.279959       0.01484
  13     269.0        6.5554        0.0149       10.7744       10.7892       4.233825       0.01497
  12     297.5        6.5675        0.0164       10.7353       10.7517       4.184156       0.01473
  11     328.5        6.5809        0.0180       10.6935       10.7115       4.130589       0.01456
  10     361.9        6.5958        0.0198       10.6488       10.6686       4.072858       0.01461
   9     398.1        6.6122        0.0217       10.6010       10.6227       4.010430       0.01454
   8     437.6        6.6307        0.0238       10.5496       10.5734       3.942676       0.01449
   7     480.5        6.6515        0.0259       10.4943       10.5203       3.868776       0.01451
   6     533.0        6.6786        0.0286       10.4255       10.4542       3.775596       0.01499
   5     589.8        6.7100        0.0315       10.3499       10.3815       3.671457       0.01546
   4     651.6        6.7468        0.0346       10.2661       10.3007       3.553859       0.01608
   3     718.7        6.7903        0.0380       10.1728       10.2108       3.420493       0.01676
   2     792.3        6.8421        0.0415       10.0684       10.1099       3.267808       0.01751
   1     891.5        6.9211        0.0462        9.9203        9.9665       3.045428       0.01892
   0    1013.0        7.0306        0.0518        9.7333        9.7850       2.754477       0.02020



 Wavenumbers:  8050. - 12850. cm-1, ATM      1
 LEVEL PRESSURE   UPWARD FLUX   DIFDOWN FLUX  DIRDOWN FLUX  DOWNWARD FLUX   NET FLUX    HEATING RATE
          mb          W/m2          W/m2          W/m2        W/m2          W/m2       degree/day
  51    .06700       83.6606        0.0000      156.5418      156.5418      72.881182       0.00000
  50    .07753       83.6606        0.0000      156.5417      156.5417      72.881182       0.00000
  49    .09103       83.6605        0.0001      156.5417      156.5417      72.881182       0.00000
  48    0.1069       83.6605        0.0001      156.5416      156.5417      72.881182       0.00000
  47    0.1255       83.6605        0.0002      156.5415      156.5417      72.881182      -0.00000
  46    0.1487       83.6605        0.0002      156.5414      156.5417      72.881182       0.00000
  45    0.1794       83.6604        0.0003      156.5413      156.5416      72.881182       0.00000
  44    0.2165       83.6604        0.0004      156.5412      156.5416      72.881182      -0.00000
  43    0.2613       83.6603        0.0005      156.5410      156.5415      72.881182       0.00000
  42    0.3336       83.6602        0.0007      156.5407      156.5414      72.881182      -0.00000
  41    0.4307       83.6601        0.0010      156.5403      156.5413      72.881182       0.00000
  40    0.5894       83.6599        0.0014      156.5397      156.5411      72.881182      -0.00000
  39     1.339       83.6590        0.0035      156.5367      156.5402      72.881182       0.00000
  38     1.782       83.6585        0.0047      156.5350      156.5397      72.881182       0.00000
  37     2.292       83.6568        0.0085      156.5295      156.5380      72.881182       0.00000
  36     2.964       83.6557        0.0111      156.5257      156.5369      72.881182      -0.00000
  35     3.853       83.6544        0.0139      156.5217      156.5356      72.881182       0.00000
  34     5.035       83.6529        0.0174      156.5167      156.5341      72.881182       0.00000
  33     6.613       83.6509        0.0218      156.5103      156.5321      72.881182       0.00000
  32     8.786       83.6483        0.0277      156.5018      156.5295      72.881182      -0.00000
  31     11.80       83.6447        0.0361      156.4898      156.5258      72.881182       0.00000
  30     15.07       83.6407        0.0450      156.4768      156.5219      72.881182      -0.00000
  29     18.79       83.6362        0.0552      156.4623      156.5174      72.881182       0.00000
  28     23.16       83.6310        0.0670      156.4452      156.5122      72.881182       0.00000
  27     28.12       83.6251        0.0805      156.4257      156.5062      72.881182       0.00000
  26     33.73       83.6184        0.0957      156.4039      156.4995      72.881182      -0.00000
  25     40.54       83.6103        0.1140      156.3774      156.4915      72.881182      -0.00000
  24     48.69       83.6005        0.1362      156.3455      156.4817      72.881182       0.00000
  23     57.69       83.5897        0.1605      156.3104      156.4709      72.881182       0.00000
  22     68.43       83.5769        0.1896      156.2685      156.4581      72.881182       0.00000
  21     81.20       83.5616        0.2243      156.2185      156.4428      72.881182      -0.00000
  20     96.49       83.5433        0.2656      156.1589      156.4245      72.881182       0.00000
  19     114.6       83.5260        0.3147      155.9531      156.2678      72.741867       0.06505
  18     136.5       83.5042        0.3730      155.7463      156.1193      72.615107       0.04874
  17     162.9       83.4768        0.4426      155.5329      155.9755      72.498782       0.03718
  16     196.4       83.4395        0.5331      155.2732      155.8063      72.366813       0.03322
  15     218.7       83.4150        0.5926      155.0617      155.6543      72.239281       0.04842
  14     243.0       83.3880        0.6573      154.8463      155.5036      72.115653       0.04288
  13     269.0       83.3597        0.7275      154.5578      155.2853      71.925507       0.06168
  12     297.5       83.3311        0.8032      154.1750      154.9783      71.647207       0.08254
  11     328.5       83.3031        0.8850      153.6739      154.5588      71.255690       0.10645
  10     361.9       83.2783        0.9727      153.0148      153.9875      70.709206       0.13827
   9     398.1       83.2600        1.0664      152.1359      153.2023      69.942324       0.17867
   8     437.6       83.2539        1.1661      150.9671      152.1331      68.879213       0.22730
   7     480.5       83.2688        1.2714      149.4490      150.7204      67.451600       0.28038
   6     533.0       83.3276        1.3984      147.2371      148.6355      65.307895       0.34485
   5     589.8       83.4567        1.5318      144.4892      146.0209      62.564222       0.40725
   4     651.6       83.7014        1.6705      141.1677      142.8382      59.136823       0.46871
   3     718.7       84.1139        1.8145      137.4300      139.2445      55.130583       0.50347
   2     792.3       84.7953        1.9628      133.3036      135.2665      50.471225       0.53438
   1     891.5       86.2368        2.1538      127.7389      129.8927      43.655954       0.57995
   0    1013.0       89.0698        2.3731      121.4115      123.7845      34.714746       0.62083



 Wavenumbers: 12850. - 16000. cm-1, ATM      1
 LEVEL PRESSURE   UPWARD FLUX   DIFDOWN FLUX  DIRDOWN FLUX  DOWNWARD FLUX   NET FLUX    HEATING RATE
          mb          W/m2          W/m2          W/m2        W/m2          W/m2       degree/day
  51    .06700       73.6419        0.0000       98.0872       98.0872      24.445342       0.00000
  50    .07753       73.6419        0.0001       98.0864       98.0864      24.444551       0.63395
  49    .09103       73.6419        0.0002       98.0853       98.0854      24.443558       0.62081
  48    0.1069       73.6419        0.0003       98.0841       98.0843      24.442417       0.60739
  47    0.1255       73.6419        0.0004       98.0826       98.0830      24.441106       0.59427
  46    0.1487       73.6419        0.0005       98.0809       98.0814      24.439452       0.60291
  45    0.1794       73.6420        0.0007       98.0784       98.0792      24.437202       0.61758
  44    0.2165       73.6420        0.0009       98.0756       98.0766      24.434556       0.60185
  43    0.2613       73.6421        0.0012       98.0723       98.0736      24.431446       0.58632
  42    0.3336       73.6423        0.0017       98.0670       98.0687      24.426371       0.59171
  41    0.4307       73.6427        0.0023       98.0602       98.0625      24.419810       0.57042
  40    0.5894       73.6434        0.0033       98.0496       98.0529      24.409479       0.54943
  39     1.339       73.6496        0.0080       98.0043       98.0123      24.362767       0.52588
  38     1.782       73.6552        0.0107       97.9793       97.9900      24.334793       0.53259
  37     2.292       73.6619        0.0195       97.9424       97.9619      24.299999       0.57628
  36     2.964       73.6753        0.0254       97.8991       97.9245      24.249161       0.63817
  35     3.853       73.6977        0.0319       97.8394       97.8712      24.173509       0.71796
  34     5.035       73.7318        0.0397       97.7563       97.7960      24.064279       0.78029
  33     6.613       73.7794        0.0499       97.6441       97.6939      23.914492       0.80076
  32     8.786       73.8416        0.0632       97.4983       97.5615      23.719962       0.75548
  31     11.80       73.9225        0.0822       97.3053       97.3875      23.465053       0.71366
  30     15.07       74.0000        0.1025       97.1157       97.2182      23.218210       0.63730
  29     18.79       74.0791        0.1254       96.9173       97.0427      22.963573       0.57734
  28     23.16       74.1619        0.1521       96.7038       96.8559      22.694030       0.52121
  27     28.12       74.2451        0.1825       96.4807       96.6632      22.418147       0.46898
  26     33.73       74.3220        0.2166       96.2603       96.4769      22.154910       0.39578
  25     40.54       74.3961        0.2578       96.0279       96.2858      21.889655       0.32908
  24     48.69       74.4672        0.3075       95.7817       96.0892      21.622024       0.27696
  23     57.69       74.5276        0.3621       95.5444       95.9065      21.378908       0.22788
  22     68.43       74.5803        0.4271       95.2977       95.7248      21.144526       0.18426
  21     81.20       74.6168        0.5047       95.0514       95.5561      20.939299       0.13561
  20     96.49       74.6360        0.5972       94.8023       95.3995      20.763564       0.09699
  19     114.6       74.6580        0.7081       94.5260       95.2341      20.576190       0.08749
  18     136.5       74.6734        0.8396       94.2150       95.0546      20.381248       0.07496
  17     162.9       74.6820        0.9961       93.8565       94.8525      20.170572       0.06734
  16     196.4       74.6725        1.1990       93.4137       94.6127      19.940260       0.05797
  15     218.7       74.6590        1.3323       93.1285       94.4608      19.801833       0.05256
  14     243.0       74.6410        1.4771       92.8210       94.2981      19.657113       0.05019
  13     269.0       74.6184        1.6341       92.4891       94.1231      19.504753       0.04942
  12     297.5       74.5914        1.8036       92.1309       93.9345      19.343172       0.04792
  11     328.5       74.5620        1.9868       91.7420       93.7287      19.166776       0.04796
  10     361.9       74.5311        2.1839       91.3190       93.5030      18.971888       0.04931
   9     398.1       74.5001        2.3960       90.8577       93.2537      18.753598       0.05086
   8     437.6       74.4717        2.6237       90.3508       92.9745      18.502825       0.05362
   7     480.5       74.4490        2.8674       89.7904       92.6579      18.208873       0.05773
   6     533.0       74.4365        3.1672       89.0690       92.2362      17.799653       0.06583
   5     589.8       74.4483        3.4892       88.2469       91.7361      17.287851       0.07597
   4     651.6       74.5004        3.8337       87.3017       91.1353      16.634941       0.08929
   3     718.7       74.6089        4.2007       86.2244       90.4251      15.816255       0.10289
   2     792.3       74.7953        4.5890       85.0135       89.6025      14.807189       0.11573
   1     891.5       75.1881        5.1045       83.3079       88.4124      13.224322       0.13469
   0    1013.0       75.8946        5.7127       81.2348       86.9476      11.052907       0.15077



 Wavenumbers: 16000. - 22650. cm-1, ATM      1
 LEVEL PRESSURE   UPWARD FLUX   DIFDOWN FLUX  DIRDOWN FLUX  DOWNWARD FLUX   NET FLUX    HEATING RATE
          mb          W/m2          W/m2          W/m2        W/m2          W/m2       degree/day
  51    .06700      140.8419        0.0000      156.3892      156.3892      15.547304       0.00000
  50    .07753      140.8419        0.0004      156.3887      156.3891      15.547156       0.11839
  49    .09103      140.8419        0.0009      156.3879      156.3888      15.546941       0.13428
  48    0.1069      140.8419        0.0015      156.3871      156.3885      15.546654       0.15313
  47    0.1255      140.8419        0.0021      156.3861      156.3882      15.546269       0.17454
  46    0.1487      140.8420        0.0030      156.3847      156.3877      15.545701       0.20683
  45    0.1794      140.8421        0.0041      156.3828      156.3869      15.544814       0.24353
  44    0.2165      140.8423        0.0054      156.3805      156.3859      15.543611       0.27370
  43    0.2613      140.8427        0.0070      156.3776      156.3846      15.541979       0.30770
  42    0.3336      140.8434        0.0096      156.3726      156.3823      15.538875       0.36185
  41    0.4307      140.8447        0.0131      156.3657      156.3789      15.534197       0.40676
  40    0.5894      140.8472        0.0188      156.3537      156.3725      15.525274       0.47447
  39     1.339      140.8699        0.0458      156.2834      156.3292      15.459356       0.74212
  38     1.782      140.8908        0.0616      156.2324      156.2940      15.403201       1.06909
  37     2.292      140.9149        0.1117      156.1251      156.2368      15.321919       1.34625
  36     2.964      140.9647        0.1459      156.0090      156.1549      15.190245       1.65291
  35     3.853      141.0478        0.1829      155.8462      156.0291      14.981313       1.98280
  34     5.035      141.1742        0.2280      155.6159      155.8438      14.669604       2.22672
  33     6.613      141.3515        0.2859      155.3020      155.5879      14.236420       2.31580
  32     8.786      141.5827        0.3626      154.8929      155.2555      13.672749       2.18910
  31     11.80      141.8838        0.4712      154.3498      154.8211      12.937302       2.05902
  30     15.07      142.1722        0.5874      153.8147      154.4021      12.229822       1.82657
  29     18.79      142.4668        0.7182      153.2534      153.9715      11.504718       1.64403
  28     23.16      142.7747        0.8706      152.6469      153.5175      10.742817       1.47327
  27     28.12      143.0844        1.0446      152.0099      153.0545       9.970118       1.31354
  26     33.73      143.3703        1.2392      151.3755      152.6146       9.244319       1.09126
  25     40.54      143.6454        1.4740      150.6984      152.1724       8.526965       0.88996
  24     48.69      143.9088        1.7568      149.9687      151.7255       7.816770       0.73494
  23     57.69      144.1320        2.0671      149.2502      151.3173       7.185332       0.59188
  22     68.43      144.3266        2.4363      148.4829      150.9192       6.592576       0.46599
  21     81.20      144.4608        2.8758      147.6872      150.5630       6.102227       0.32402
  20     96.49      144.5301        3.3990      146.8486      150.2475       5.717425       0.21238
  19     114.6      144.5659        4.0184      145.9122      149.9307       5.364732       0.16468
  18     136.5      144.5769        4.7498      144.8449      149.5947       5.017771       0.13341
  17     162.9      144.5613        5.6167      143.6149      149.2316       4.670242       0.11108
  16     196.4      144.4794        6.7353      142.1017      148.8370       4.357563       0.07871
  15     218.7      144.4030        7.4662      141.1401      148.6063       4.203303       0.05857
  14     243.0      144.3095        8.2573      140.1125      148.3699       4.060348       0.04958
  13     269.0      144.1973        9.1108      139.0175      148.1283       3.931007       0.04196
  12     297.5      144.0656       10.0286      137.8530      147.8816       3.815943       0.03413
  11     328.5      143.9187       11.0151      136.6078      147.6230       3.704306       0.03035
  10     361.9      143.7562       12.0712      135.2810      147.3523       3.596122       0.02737
   9     398.1      143.5777       13.2010      133.8672      147.0682       3.490436       0.02462
   8     437.6      143.3843       14.4064      132.3621      146.7685       3.384182       0.02272
   7     480.5      143.1757       15.6895      130.7628      146.4523       3.276584       0.02113
   6     533.0      142.9196       17.2568      128.8105      146.0673       3.147779       0.02072
   5     589.8      142.6473       18.9313      126.7225      145.6538       3.006527       0.02097
   4     651.6      142.3621       20.7144      124.4931      145.2074       2.845298       0.02205
   3     718.7      142.0663       22.6076      122.1179      144.7255       2.659225       0.02338
   2     792.3      141.7668       24.6090      119.5927      144.2017       2.434890       0.02573
   1     891.5      141.3967       27.2666      116.2128      143.4794       2.082684       0.02997
   0    1013.0      140.9955       30.3913      112.2133      142.6046       1.609095       0.03288



 Wavenumbers: 22650. - 29000. cm-1, ATM      1
 LEVEL PRESSURE   UPWARD FLUX   DIFDOWN FLUX  DIRDOWN FLUX  DOWNWARD FLUX   NET FLUX    HEATING RATE
          mb          W/m2          W/m2          W/m2        W/m2          W/m2       degree/day
  51    .06700       58.3821        0.0000       59.0156       59.0156       0.633484       0.00000
  50    .07753       58.3820        0.0005       59.0151       59.0155       0.633484      -0.00000
  49    .09103       58.3819        0.0010       59.0144       59.0154       0.633484       0.00000
  48    0.1069       58.3818        0.0017       59.0136       59.0153       0.633484       0.00000
  47    0.1255       58.3816        0.0025       59.0127       59.0151       0.633484      -0.00000
  46    0.1487       58.3815        0.0034       59.0115       59.0149       0.633484       0.00000
  45    0.1794       58.3812        0.0048       59.0099       59.0147       0.633484      -0.00000
  44    0.2165       58.3809        0.0063       59.0080       59.0144       0.633484       0.00000
  43    0.2613       58.3805        0.0082       59.0058       59.0140       0.633484       0.00000
  42    0.3336       58.3799        0.0113       59.0022       59.0134       0.633484       0.00000
  41    0.4307       58.3791        0.0153       58.9973       59.0126       0.633484       0.00000
  40    0.5894       58.3778        0.0220       58.9894       59.0113       0.633484      -0.00000
  39     1.339       58.3717        0.0534       58.9518       59.0052       0.633484       0.00000
  38     1.782       58.3681        0.0719       58.9297       59.0016       0.633484       0.00000
  37     2.292       58.3567        0.1302       58.8600       58.9902       0.633484       0.00000
  36     2.964       58.3490        0.1701       58.8124       58.9824       0.633484      -0.00000
  35     3.853       58.3406        0.2132       58.7609       58.9740       0.633484      -0.00000
  34     5.035       58.3303        0.2658       58.6980       58.9638       0.633484       0.00000
  33     6.613       58.3171        0.3335       58.6171       58.9506       0.633484      -0.00000
  32     8.786       58.2996        0.4231       58.5100       58.9331       0.633484       0.00000
  31     11.80       58.2749        0.5501       58.3583       58.9083       0.633484      -0.00000
  30     15.07       58.2484        0.6857       58.1962       58.8819       0.633484       0.00000
  29     18.79       58.2186        0.8384       58.0138       58.8521       0.633484      -0.00000
  28     23.16       58.1839        1.0161       57.8013       58.8174       0.633484       0.00000
  27     28.12       58.1444        1.2188       57.5591       58.7779       0.633484       0.00000
  26     33.73       58.1003        1.4447       57.2891       58.7338       0.633484      -0.00000
  25     40.54       58.0473        1.7165       56.9642       58.6808       0.633484       0.00000
  24     48.69       57.9837        2.0425       56.5746       58.6171       0.633484      -0.00000
  23     57.69       57.9142        2.3983       56.1493       58.5477       0.633484       0.00000
  22     68.43       57.8320        2.8191       55.6464       58.4655       0.633484      -0.00000
  21     81.20       57.7350        3.3159       55.0525       58.3684       0.633484       0.00000
  20     96.49       57.6205        3.9017       54.3523       58.2540       0.633484      -0.00000
  19     114.6       57.4863        4.5882       53.5316       58.1198       0.633484       0.00000
  18     136.5       57.3296        5.3894       52.5737       57.9630       0.633484       0.00000
  17     162.9       57.1462        6.3259       51.4538       57.7797       0.633484      -0.00000
  16     196.4       56.9138        7.5125       50.0348       57.5473       0.633484       0.00000
  15     218.7       56.7643        8.2749       49.1229       57.3978       0.633484      -0.00000
  14     243.0       56.6046        9.0889       48.1492       57.2381       0.633484       0.00000
  13     269.0       56.4348        9.9539       47.1143       57.0683       0.633484      -0.00000
  12     297.5       56.2549       10.8691       46.0193       56.8884       0.633484      -0.00000
  11     328.5       56.0648       11.8360       44.8623       56.6982       0.633484       0.00000
  10     361.9       55.8647       12.8518       43.6464       56.4982       0.633484      -0.00000
   9     398.1       55.6548       13.9168       42.3715       56.2883       0.633484       0.00000
   8     437.6       55.4354       15.0288       41.0401       56.0688       0.633484       0.00000
   7     480.5       55.2068       16.1853       39.6550       55.8403       0.633484      -0.00000
   6     533.0       54.9345       17.5608       38.0072       55.5679       0.633484      -0.00000
   5     589.8       54.6516       18.9865       36.2985       55.2851       0.633484       0.00000
   4     651.6       54.3596       20.4549       34.5382       54.9931       0.633484       0.00000
   3     718.7       54.0597       21.9592       32.7340       54.6932       0.633484       0.00000
   2     792.3       53.7536       23.4896       30.8976       54.3871       0.633484      -0.00000
   1     891.5       53.3638       25.4315       28.5658       53.9972       0.633484       0.00000
   0    1013.0       52.9285       27.5876       25.9745       53.5620       0.633484       0.00000



 Wavenumbers: 29000. - 38000. cm-1, ATM      1
 LEVEL PRESSURE   UPWARD FLUX   DIFDOWN FLUX  DIRDOWN FLUX  DOWNWARD FLUX   NET FLUX    HEATING RATE
          mb          W/m2          W/m2          W/m2        W/m2          W/m2       degree/day
  51    .06700        8.7483        0.0000       20.8114       20.8114      12.063081       0.00000
  50    .07753        8.7481        0.0003       20.8070       20.8074      12.059273       3.05230
  49    .09103        8.7479        0.0007       20.8009       20.8016      12.053734       3.46171
  48    0.1069        8.7476        0.0012       20.7928       20.7939      12.046323       3.94527
  47    0.1255        8.7473        0.0017       20.7820       20.7837      12.036415       4.49146
  46    0.1487        8.7470        0.0024       20.7665       20.7688      12.021849       5.30978
  45    0.1794        8.7465        0.0033       20.7424       20.7457      11.999178       6.22362
  44    0.2165        8.7460        0.0044       20.7103       20.7147      11.968647       6.94519
  43    0.2613        8.7455        0.0056       20.6675       20.6731      11.927642       7.72935
  42    0.3336        8.7446        0.0077       20.5880       20.5956      11.851060       8.92866
  41    0.4307        8.7435        0.0104       20.4722       20.4826      11.739076       9.73677
  40    0.5894        8.7420        0.0147       20.2637       20.2784      11.536331      10.78174
  39     1.339        8.7392        0.0331       19.0984       19.1315      10.392341      12.87924
  38     1.782        8.7402        0.0427       18.4394       18.4821       9.741881      12.38372
  37     2.292        8.7311        0.0739       17.7384       17.8123       9.081193      10.94271
  36     2.964        8.7342        0.0921       17.0007       17.0928       8.358594       9.07081
  35     3.853        8.7454        0.1099       16.2244       16.3343       7.588904       7.30450
  34     5.035        8.7656        0.1303       15.4375       15.5678       6.802255       5.61949
  33     6.613        8.7957        0.1555       14.6748       14.8303       6.034639       4.10368
  32     8.786        8.8358        0.1885       13.9546       14.1431       5.307299       2.82473
  31     11.80        8.8884        0.2342       13.2467       13.4809       4.592567       2.00102
  30     15.07        8.9391        0.2823       12.7034       12.9857       4.046638       1.40948
  29     18.79        8.9915        0.3354       12.2322       12.5675       3.575981       1.06712
  28     23.16        9.0472        0.3961       11.7969       12.1930       3.145759       0.83191
  27     28.12        9.1043        0.4642       11.3961       11.8602       2.755936       0.66267
  26     33.73        9.1570        0.5394       11.0388       11.5781       2.421187       0.50330
  25     40.54        9.2069        0.6294       10.6912       11.3206       2.113727       0.38144
  24     48.69        9.2540        0.7362       10.3456       11.0818       1.827841       0.29585
  23     57.69        9.2926        0.8520       10.0272       10.8792       1.586657       0.22607
  22     68.43        9.3237        0.9879        9.7060       10.6939       1.370145       0.17021
  21     81.20        9.3385        1.1484        9.3876       10.5360       1.197507       0.11408
  20     96.49        9.3349        1.3372        9.0638       10.4010       1.066095       0.07253
  19     114.6        9.3211        1.5554        8.7149       10.2702       0.949127       0.05462
  18     136.5        9.3000        1.8048        8.3320       10.1369       0.836900       0.04315
  17     162.9        9.2716        2.0892        7.9095        9.9987       0.727023       0.03512
  16     196.4        9.2240        2.4421        7.4121        9.8543       0.630277       0.02435
  15     218.7        9.1898        2.6637        7.1092        9.7729       0.583115       0.01791
  14     243.0        9.1523        2.8952        6.7967        9.6919       0.539569       0.01510
  13     269.0        9.1114        3.1360        6.4759        9.6119       0.500470       0.01268
  12     297.5        9.0671        3.3848        6.1483        9.5331       0.466005       0.01022
  11     328.5        9.0208        3.6408        5.8130        9.4538       0.433009       0.00897
  10     361.9        8.9730        3.9015        5.4732        9.3746       0.401631       0.00794
   9     398.1        8.9238        4.1662        5.1295        9.2957       0.371897       0.00693
   8     437.6        8.8737        4.4335        4.7835        9.2170       0.343235       0.00613
   7     480.5        8.8231        4.7013        4.4379        9.1392       0.316032       0.00534
   6     533.0        8.7650        5.0065        4.0449        9.0514       0.286380       0.00477
   5     589.8        8.7077        5.3074        3.6579        8.9654       0.257675       0.00426
   4     651.6        8.6521        5.6000        3.2817        8.8817       0.229596       0.00384
   3     718.7        8.5987        5.8826        2.9182        8.8008       0.202097       0.00346
   2     792.3        8.5482        6.1528        2.5706        8.7234       0.175183       0.00309
   1     891.5        8.4901        6.4693        2.1627        8.6321       0.141959       0.00283
   0    1013.0        8.4344        6.7860        1.7537        8.5397       0.105297       0.00255



 Wavenumbers: 38000. - 50000. cm-1, ATM      1
 LEVEL PRESSURE   UPWARD FLUX   DIFDOWN FLUX  DIRDOWN FLUX  DOWNWARD FLUX   NET FLUX    HEATING RATE
          mb          W/m2          W/m2          W/m2        W/m2          W/m2       degree/day
  51    .06700        0.0069        0.0000        1.2836        1.2836       1.276757       0.00000
  50    .07753        0.0068        0.0001        1.2812        1.2812       1.274422       1.87203
  49    .09103        0.0067        0.0002        1.2777        1.2778       1.271089       2.08302
  48    0.1069        0.0067        0.0002        1.2731        1.2734       1.266710       2.33118
  47    0.1255        0.0066        0.0004        1.2672        1.2675       1.260953       2.60970
  46    0.1487        0.0065        0.0005        1.2586        1.2591       1.252625       3.03568
  45    0.1794        0.0063        0.0007        1.2455        1.2462       1.239854       3.50597
  44    0.2165        0.0061        0.0009        1.2282        1.2291       1.222924       3.85119
  43    0.2613        0.0060        0.0011        1.2054        1.2065       1.200571       4.21350
  42    0.3336        0.0057        0.0015        1.1639        1.1654       1.159738       4.76072
  41    0.4307        0.0053        0.0020        1.1051        1.1071       1.101766       5.04054
  40    0.5894        0.0047        0.0026        1.0039        1.0064       1.001700       5.32136
  39     1.339        0.0033        0.0035        0.5438        0.5473       0.544079       5.15199
  38     1.782        0.0029        0.0032        0.3635        0.3667       0.363739       3.43338
  37     2.292        0.0015        0.0037        0.2336        0.2373       0.235814       2.11876
  36     2.964        0.0009        0.0030        0.1438        0.1469       0.145914       1.12852
  35     3.853        0.0006        0.0023        0.0847        0.0870       0.086386       0.56494
  34     5.035        0.0004        0.0016        0.0482        0.0498       0.049400       0.26421
  33     6.613        0.0003        0.0012        0.0269        0.0281       0.027808       0.11543
  32     8.786        0.0002        0.0008        0.0142        0.0150       0.014843       0.05035
  31     11.80        0.0001        0.0005        0.0065        0.0069       0.006868       0.02233
  30     15.07        0.0000        0.0003        0.0031        0.0034       0.003314       0.00917
  29     18.79        0.0000        0.0002        0.0014        0.0016       0.001577       0.00394
  28     23.16        0.0000        0.0001        0.0006        0.0007       0.000718       0.00166
  27     28.12        0.0000        0.0001        0.0003        0.0003       0.000316       0.00068
  26     33.73        0.0000        0.0000        0.0001        0.0001       0.000139       0.00027
  25     40.54        0.0000        0.0000        0.0000        0.0001       0.000057       0.00010
  24     48.69        0.0000        0.0000        0.0000        0.0000       0.000021       0.00004
  23     57.69        0.0000        0.0000        0.0000        0.0000       0.000008       0.00001
  22     68.43        0.0000        0.0000        0.0000        0.0000       0.000003       0.00000
  21     81.20        0.0000        0.0000        0.0000        0.0000       0.000001       0.00000
  20     96.49        0.0000        0.0000        0.0000        0.0000       0.000000       0.00000
  19     114.6        0.0000        0.0000        0.0000        0.0000       0.000000       0.00000
  18     136.5        0.0000        0.0000        0.0000        0.0000       0.000000       0.00000
  17     162.9        0.0000        0.0000        0.0000        0.0000       0.000000       0.00000
  16     196.4        0.0000        0.0000        0.0000        0.0000       0.000000       0.00000
  15     218.7        0.0000        0.0000        0.0000        0.0000       0.000000       0.00000
  14     243.0        0.0000        0.0000        0.0000        0.0000       0.000000       0.00000
  13     269.0        0.0000        0.0000        0.0000        0.0000       0.000000       0.00000
  12     297.5        0.0000        0.0000        0.0000        0.0000       0.000000       0.00000
  11     328.5        0.0000        0.0000        0.0000        0.0000       0.000000       0.00000
  10     361.9        0.0000        0.0000        0.0000        0.0000       0.000000       0.00000
   9     398.1        0.0000        0.0000        0.0000        0.0000       0.000000       0.00000
   8     437.6        0.0000        0.0000        0.0000        0.0000       0.000000       0.00000
   7     480.5        0.0000        0.0000        0.0000        0.0000       0.000000       0.00000
   6     533.0        0.0000        0.0000        0.0000        0.0000       0.000000       0.00000
   5     589.8        0.0000        0.0000        0.0000        0.0000       0.000000       0.00000
   4     651.6        0.0000        0.0000        0.0000        0.0000       0.000000       0.00000
   3     718.7        0.0000        0.0000        0.0000        0.0000       0.000000       0.00000
   2     792.3        0.0000        0.0000        0.0000        0.0000       0.000000       0.00000
   1     891.5        0.0000        0.0000        0.0000        0.0000       0.000000       0.00000
   0    1013.0        0.0000        0.0000        0.0000        0.0000       0.000000       0.00000



 Wavenumbers:   820. -  2600. cm-1, ATM      1
 LEVEL PRESSURE   UPWARD FLUX   DIFDOWN FLUX  DIRDOWN FLUX  DOWNWARD FLUX   NET FLUX    HEATING RATE
          mb          W/m2          W/m2          W/m2        W/m2          W/m2       degree/day
  51    .06700        0.5510        0.0000        6.0047        6.0047       5.453651       0.00000
  50    .07753        0.5510        0.0000        6.0009        6.0009       5.449871       3.02937
  49    .09103        0.5510        0.0000        6.0001        6.0001       5.449081       0.49378
  48    0.1069        0.5510        0.0000        5.9992        5.9992       5.448206       0.46572
  47    0.1255        0.5510        0.0000        5.9982        5.9982       5.447225       0.44470
  46    0.1487        0.5510        0.0000        5.9970        5.9970       5.446047       0.42941
  45    0.1794        0.5510        0.0000        5.9956        5.9956       5.444581       0.40259
  44    0.2165        0.5510        0.0000        5.9940        5.9940       5.443048       0.34860
  43    0.2613        0.5510        0.0000        5.9925        5.9925       5.441469       0.29770
  42    0.3336        0.5510        0.0000        5.9902        5.9902       5.439240       0.25991
  41    0.4307        0.5510        0.0000        5.9877        5.9877       5.436652       0.22503
  40    0.5894        0.5510        0.0000        5.9836        5.9836       5.432619       0.21442
  39     1.339        0.5510        0.0000        5.9651        5.9651       5.414109       0.20839
  38     1.782        0.5510        0.0000        5.9549        5.9549       5.403893       0.19451
  37     2.292        0.6208        0.0000        1.3846        1.3846       0.763819      76.85172
  36     2.964        0.6465        0.0000        1.2898        1.2898       0.643296       1.51293
  35     3.853        0.6607        0.0000        1.2498        1.2498       0.589167       0.51369
  34     5.035        0.6692        0.0000        1.2287        1.2287       0.559513       0.21184
  33     6.613        0.6744        0.0000        1.2165        1.2165       0.542122       0.09297
  32     8.786        0.6776        0.0000        1.2094        1.2094       0.531799       0.04009
  31     11.80        0.6797        0.0000        1.2050        1.2050       0.525313       0.01816
  30     15.07        0.6808        0.0000        1.2027        1.2027       0.521900       0.00881
  29     18.79        0.6815        0.0000        1.2013        1.2013       0.519824       0.00471
  28     23.16        0.6819        0.0000        1.2003        1.2003       0.518375       0.00280
  27     28.12        0.6823        0.0000        1.1996        1.1996       0.517282       0.00186
  26     33.73        0.6826        0.0000        1.1990        1.1990       0.516439       0.00127
  25     40.54        0.6829        0.0000        1.1982        1.1982       0.515281       0.00144
  24     48.69        0.6833        0.0000        1.1976        1.1976       0.514292       0.00102
  23     57.69        0.6835        0.0000        1.1970        1.1970       0.513514       0.00073
  22     68.43        0.6837        0.0000        1.1966        1.1966       0.512846       0.00052
  21     81.20        0.6839        0.0000        1.1962        1.1962       0.512271       0.00038
  20     96.49        0.6841        0.0000        1.1959        1.1959       0.511767       0.00028
  19     114.6        0.6842        0.0000        1.1956        1.1956       0.511358       0.00019
  18     136.5        0.6844        0.0000        1.1953        1.1953       0.510929       0.00017
  17     162.9        0.6845        0.0000        1.1950        1.1950       0.510527       0.00013
  16     196.4        0.6846        0.0000        1.1948        1.1948       0.510132       0.00010
  15     218.7        0.6847        0.0000        1.1946        1.1946       0.509881       0.00010
  14     243.0        0.6848        0.0000        1.1944        1.1945       0.509681       0.00007
  13     269.0        0.6849        0.0000        1.1943        1.1943       0.509432       0.00008
  12     297.5        0.6850        0.0000        1.1940        1.1940       0.509071       0.00011
  11     328.5        0.6852        0.0000        1.1937        1.1937       0.508544       0.00014
  10     361.9        0.6854        0.0000        1.1931        1.1932       0.507738       0.00020
   9     398.1        0.6858        0.0000        1.1923        1.1924       0.506539       0.00028
   8     437.6        0.6864        0.0000        1.1912        1.1912       0.504813       0.00037
   7     480.5        0.6872        0.0000        1.1896        1.1896       0.502382       0.00048
   6     533.0        0.6887        0.0000        1.1867        1.1868       0.498059       0.00070
   5     589.8        0.6910        0.0000        1.1823        1.1823       0.491326       0.00100
   4     651.6        0.6951        0.0000        1.1747        1.1747       0.479680       0.00159
   3     718.7        0.7014        0.0000        1.1630        1.1630       0.461597       0.00227
   2     792.3        0.7111        0.0000        1.1454        1.1454       0.434247       0.00314
   1     891.5        0.7303        0.0000        1.1123        1.1123       0.382051       0.00444
   0    1013.0        0.7621        0.0000        1.0612        1.0613       0.299169       0.00575

  Modules and versions used in this calculation:

       rrtmg_sw.1col.f90:  $Revision$                    rrtmg_sw_init.f90:  $Revision$        
     rrtmgsw_cldprop.f90:  $Revision$                  rrtmgsw_cldprmc.f90:  NOT USED          
     rrtmg_sw_reftra.f90:  $Revision$                  rrtmg_sw_spcvrt.f90:  NOT USED          
     rrtmg_sw_spcvmc.f90:  NOT USED                    rrtmgsw_setcoef.f90:  NOT USED          
     rrtmg_sw_taumol.f90:  $Revision$                  rrtmg_sw_vrtqdr.f90:  NOT USED          
                rrtatm.f:  NOT USED                             util_xxx.f:  NOT USED          
                 extra.f:  NOT USED                       rrtmg_sw_k_g.f90:  $Revision$        

