

 Wavenumbers:   820. - 50000. cm-1, ATM      1
 LEVEL PRESSURE   UPWARD FLUX   DIFDOWN FLUX  DIRDOWN FLUX  DOWNWARD FLUX   NET FLUX    HEATING RATE
          mb          W/m2          W/m2          W/m2        W/m2          W/m2       degree/day
  51    .06700      401.8615        0.0000      617.8126      617.8126     215.951045       0.00000
  50    .07753      401.8612        0.0014      617.7948      617.7962     215.935029      12.83690
  49    .09103      401.8607        0.0030      617.7782      617.7812     215.920484       9.09096
  48    0.1069      401.8603        0.0050      617.7588      617.7638     215.903575       9.00098
  47    0.1255      401.8597        0.0072      617.7352      617.7424     215.882647       9.48749
  46    0.1487      401.8592        0.0101      617.7026      617.7127     215.853494      10.62649
  45    0.1794      401.8585        0.0139      617.6545      617.6685     215.809985      11.94440
  44    0.2165      401.8578        0.0185      617.5928      617.6113     215.753522      12.84436
  43    0.2613      401.8571        0.0238      617.5133      617.5371     215.680051      13.84900
  42    0.3336      401.8563        0.0327      617.3703      617.4030     215.546750      15.54154
  41    0.4307      401.8557        0.0443      617.1679      617.2122     215.356557      16.53682
  40    0.5894      401.8557        0.0631      616.8134      616.8766     215.020906      17.84954
  39     1.339      401.8744        0.1481      614.9754      615.1235     213.249173      19.94649
  38     1.782      401.8985        0.1960      614.0076      614.2036     212.305039      17.97479
  37     2.292      401.9043        0.3692      597.4419      597.8111     195.906828     271.59714
  36     2.964      401.9625        0.4760      595.0173      595.4934     193.530807      29.82624
  35     3.853      402.0720        0.5859      593.1727      593.7586     191.686614      17.50172
  34     5.035      402.2448        0.7170      591.4972      592.2142     189.969395      12.26710
  33     6.613      402.4903        0.8840      589.8682      590.7522     188.261932       9.12810
  32     8.786      402.8111        1.1037      588.2209      589.3247     186.513601       6.78989
  31     11.80      403.2270        1.4142      586.4075      587.8216     184.594629       5.37252
  30     15.07      403.6230        1.7451      584.8242      586.5693     182.946220       4.25587
  29     18.79      404.0252        2.1167      583.2844      585.4011     181.375932       3.56032
  28     23.16      404.4427        2.5487      581.6972      584.2458     179.803112       3.04133
  27     28.12      404.8590        3.0404      580.0733      583.1137     178.254683       2.63223
  26     33.73      405.2354        3.5886      578.4667      582.0554     176.820032       2.15704
  25     40.54      405.5859        4.2490      576.7087      580.9577     175.371807       1.79669
  24     48.69      405.9075        5.0415      574.7991      579.8406     173.933150       1.48878
  23     57.69      406.1627        5.9078      572.8954      578.8032     172.640529       1.21164
  22     68.43      406.3602        6.9342      570.8286      577.7628     171.402510       0.97325
  21     81.20      406.4478        8.1512      568.6172      576.7685     170.320614       0.71490
  20     96.49      406.4151        9.5924      566.2165      575.8088     169.393694       0.51159
  19     114.6      406.3281       11.2878      563.3091      574.5970     168.268865       0.52522
  18     136.5      406.1778       13.2732      560.0405      573.3137     167.135888       0.43566
  17     162.9      405.9577       15.6033      556.3263      571.9295     165.971881       0.37206
  16     196.4      405.5800       18.5758      551.7340      570.3098     164.729820       0.31264
  15     218.7      405.3018       20.4974      548.6777      569.1750     163.873236       0.32521
  14     243.0      404.9874       22.5587      545.4314      567.9901     163.002725       0.30192
  13     269.0      404.6369       24.7615      541.7736      566.5350     161.898111       0.35833
  12     297.5      404.2517       27.1064      537.5933      564.6997     160.448005       0.43009
  11     328.5      403.8411       29.5996      532.7418      562.3415     158.500323       0.52957
  10     361.9      403.4106       32.2373      527.0546      559.2919     155.881393       0.66262
   9     398.1      402.9665       35.0241      520.3496      555.3737     152.407274       0.80939
   8     437.6      402.5221       37.9586      512.5040      550.4626     147.940475       0.95503
   7     480.5      402.0944       41.0386      503.5087      544.5473     142.452920       1.07774
   6     533.0      401.6584       44.7414      491.9652      536.7067     135.048302       1.19117
   5     589.8      401.3324       48.6277      479.4024      528.0301     126.697765       1.23949
   4     651.6      401.2061       52.6863      465.9758      518.6621     117.456019       1.26383
   3     718.7      401.3694       56.9109      452.1172      509.0280     107.658616       1.23126
   2     792.3      402.0096       61.2862      437.7661      499.0523      97.042652       1.21753
   1     891.5      403.8617       66.9538      419.3017      486.2555      82.393797       1.24655
   0    1013.0      408.0819       73.4282      398.8613      472.2895      64.207564       1.26276



 Wavenumbers:  2600. -  3250. cm-1, ATM      1
 LEVEL PRESSURE   UPWARD FLUX   DIFDOWN FLUX  DIRDOWN FLUX  DOWNWARD FLUX   NET FLUX    HEATING RATE
          mb          W/m2          W/m2          W/m2        W/m2          W/m2       degree/day
  51    .06700        0.0289        0.0000        5.4450        5.4450       5.416089       0.00000
  50    .07753        0.0289        0.0000        5.4450        5.4450       5.416081       0.00640
  49    .09103        0.0289        0.0000        5.4450        5.4450       5.416071       0.00627
  48    0.1069        0.0289        0.0000        5.4450        5.4450       5.416060       0.00613
  47    0.1255        0.0289        0.0000        5.4450        5.4450       5.416046       0.00599
  46    0.1487        0.0289        0.0000        5.4450        5.4450       5.416030       0.00608
  45    0.1794        0.0289        0.0000        5.4450        5.4450       5.416007       0.00625
  44    0.2165        0.0289        0.0000        5.4449        5.4449       5.415980       0.00612
  43    0.2613        0.0289        0.0000        5.4449        5.4449       5.415948       0.00600
  42    0.3336        0.0289        0.0000        5.4448        5.4448       5.415895       0.00617
  41    0.4307        0.0289        0.0000        5.4448        5.4448       5.415824       0.00620
  40    0.5894        0.0289        0.0000        5.4446        5.4446       5.415704       0.00637
  39     1.339        0.0289        0.0000        5.4439        5.4439       5.414997       0.00797
  38     1.782        0.0289        0.0000        5.4434        5.4434       5.414454       0.01034
  37     2.292        0.0289        0.0000        5.4427        5.4427       5.413738       0.01186
  36     2.964        0.0289        0.0000        5.4416        5.4416       5.412699       0.01304
  35     3.853        0.0289        0.0000        5.4402        5.4402       5.411222       0.01402
  34     5.035        0.0289        0.0000        5.4381        5.4381       5.409167       0.01468
  33     6.613        0.0289        0.0000        5.4353        5.4353       5.406386       0.01487
  32     8.786        0.0289        0.0000        5.4317        5.4317       5.402754       0.01411
  31     11.80        0.0289        0.0000        5.4269        5.4269       5.397974       0.01338
  30     15.07        0.0289        0.0000        5.4224        5.4224       5.393447       0.01169
  29     18.79        0.0289        0.0000        5.4180        5.4180       5.389036       0.01000
  28     23.16        0.0289        0.0000        5.4135        5.4135       5.384551       0.00867
  27     28.12        0.0289        0.0000        5.4088        5.4088       5.379904       0.00790
  26     33.73        0.0289        0.0000        5.4036        5.4036       5.374665       0.00788
  25     40.54        0.0289        0.0000        5.3966        5.3967       5.367726       0.00861
  24     48.69        0.0289        0.0000        5.3872        5.3872       5.358253       0.00980
  23     57.69        0.0289        0.0000        5.3754        5.3754       5.346474       0.01104
  22     68.43        0.0289        0.0000        5.3599        5.3599       5.330992       0.01217
  21     81.20        0.0289        0.0000        5.3401        5.3401       5.311169       0.01310
  20     96.49        0.0289        0.0000        5.3155        5.3155       5.286615       0.01355
  19     114.6        0.0289        0.0000        5.2674        5.2675       5.238571       0.02243
  18     136.5        0.0289        0.0000        5.2186        5.2187       5.189762       0.01877
  17     162.9        0.0289        0.0001        5.1697        5.1697       5.140801       0.01565
  16     196.4        0.0289        0.0001        5.1158        5.1159       5.086983       0.01355
  15     218.7        0.0289        0.0001        5.0803        5.0804       5.051479       0.01348
  14     243.0        0.0289        0.0001        5.0463        5.0463       5.017419       0.01181
  13     269.0        0.0289        0.0001        5.0068        5.0069       4.978011       0.01278
  12     297.5        0.0289        0.0001        4.9601        4.9602       4.931264       0.01386
  11     328.5        0.0290        0.0001        4.9026        4.9027       4.873748       0.01564
  10     361.9        0.0290        0.0001        4.8286        4.8288       4.799751       0.01872
   9     398.1        0.0291        0.0001        4.7310        4.7311       4.702065       0.02276
   8     437.6        0.0291        0.0001        4.6026        4.6027       4.573571       0.02747
   7     480.5        0.0293        0.0001        4.4385        4.4386       4.409352       0.03225
   6     533.0        0.0295        0.0002        4.2113        4.2114       4.181966       0.03658
   5     589.8        0.0298        0.0002        3.9547        3.9549       3.925126       0.03812
   4     651.6        0.0302        0.0002        3.6849        3.6851       3.654838       0.03696
   3     718.7        0.0309        0.0002        3.4137        3.4138       3.382922       0.03417
   2     792.3        0.0319        0.0002        3.1316        3.1317       3.099834       0.03247
   1     891.5        0.0338        0.0002        2.7697        2.7698       2.736024       0.03096
   0    1013.0        0.0375        0.0002        2.3912        2.3913       2.353797       0.02654



 Wavenumbers:  3250. -  4000. cm-1, ATM      1
 LEVEL PRESSURE   UPWARD FLUX   DIFDOWN FLUX  DIRDOWN FLUX  DOWNWARD FLUX   NET FLUX    HEATING RATE
          mb          W/m2          W/m2          W/m2        W/m2          W/m2       degree/day
  51    .06700        0.0004        0.0000        9.1795        9.1795       9.179155       0.00000
  50    .07753        0.0004        0.0000        9.1747        9.1747       9.174286       3.90286
  49    .09103        0.0004        0.0000        9.1713        9.1713       9.170967       2.07467
  48    0.1069        0.0004        0.0000        9.1689        9.1689       9.168560       1.28111
  47    0.1255        0.0004        0.0000        9.1668        9.1668       9.166440       0.96121
  46    0.1487        0.0004        0.0000        9.1645        9.1645       9.164167       0.82829
  45    0.1794        0.0004        0.0000        9.1619        9.1619       9.161498       0.73288
  44    0.2165        0.0004        0.0000        9.1592        9.1592       9.158809       0.61167
  43    0.2613        0.0004        0.0000        9.1565        9.1565       9.156112       0.50840
  42    0.3336        0.0004        0.0000        9.1528        9.1528       9.152415       0.43101
  41    0.4307        0.0004        0.0000        9.1487        9.1487       9.148317       0.35634
  40    0.5894        0.0004        0.0000        9.1428        9.1428       9.142424       0.31334
  39     1.339        0.0004        0.0000        9.1196        9.1196       9.119242       0.26099
  38     1.782        0.0004        0.0000        9.1090        9.1090       9.108659       0.20149
  37     2.292        0.0004        0.0000        5.8042        5.8042       5.803860      54.73610
  36     2.964        0.0004        0.0000        5.4305        5.4305       5.430160       4.69105
  35     3.853        0.0004        0.0000        5.2400        5.2400       5.239644       1.80803
  34     5.035        0.0004        0.0000        5.1174        5.1174       5.116991       0.87618
  33     6.613        0.0004        0.0000        5.0308        5.0308       5.030409       0.46287
  32     8.786        0.0004        0.0000        4.9668        4.9668       4.966386       0.24864
  31     11.80        0.0004        0.0000        4.9155        4.9155       4.915145       0.14346
  30     15.07        0.0004        0.0000        4.8811        4.8812       4.880763       0.08877
  29     18.79        0.0004        0.0000        4.8547        4.8547       4.854291       0.06002
  28     23.16        0.0004        0.0000        4.8313        4.8313       4.830939       0.04515
  27     28.12        0.0004        0.0000        4.8090        4.8091       4.808681       0.03784
  26     33.73        0.0004        0.0000        4.7874        4.7874       4.787033       0.03255
  25     40.54        0.0004        0.0000        4.7540        4.7541       4.753692       0.04136
  24     48.69        0.0004        0.0000        4.7187        4.7187       4.718332       0.03659
  23     57.69        0.0004        0.0000        4.6853        4.6853       4.684943       0.03130
  22     68.43        0.0004        0.0001        4.6513        4.6513       4.650974       0.02670
  21     81.20        0.0003        0.0001        4.6162        4.6162       4.615902       0.02317
  20     96.49        0.0003        0.0001        4.5796        4.5797       4.579377       0.02016
  19     114.6        0.0003        0.0001        4.5387        4.5387       4.538427       0.01912
  18     136.5        0.0003        0.0001        4.4914        4.4915       4.491185       0.01817
  17     162.9        0.0003        0.0001        4.4374        4.4375       4.437261       0.01724
  16     196.4        0.0003        0.0001        4.3635        4.3637       4.363390       0.01859
  15     218.7        0.0003        0.0002        4.2879        4.2880       4.287780       0.02871
  14     243.0        0.0002        0.0002        4.2062        4.2064       4.206156       0.02831
  13     269.0        0.0002        0.0002        4.0802        4.0804       4.080144       0.04088
  12     297.5        0.0002        0.0002        3.8974        3.8976       3.897404       0.05420
  11     328.5        0.0002        0.0002        3.6538        3.6540       3.653836       0.06623
  10     361.9        0.0002        0.0002        3.3532        3.3534       3.353184       0.07607
   9     398.1        0.0002        0.0002        3.0088        3.0089       3.008790       0.08024
   8     437.6        0.0001        0.0002        2.6395        2.6396       2.639499       0.07896
   7     480.5        0.0001        0.0002        2.2633        2.2635       2.263368       0.07387
   6     533.0        0.0001        0.0002        1.8374        1.8375       1.837405       0.06852
   5     589.8        0.0001        0.0001        1.4310        1.4311       1.430973       0.06033
   4     651.6        0.0001        0.0001        1.0430        1.0431       1.042998       0.05306
   3     718.7        0.0002        0.0001        0.7082        0.7083       0.708166       0.04208
   2     792.3        0.0002        0.0001        0.4403        0.4403       0.440106       0.03074
   1     891.5        0.0004        0.0000        0.1991        0.1991       0.198707       0.02054
   0    1013.0        0.0014        0.0000        0.0544        0.0544       0.053016       0.01012



 Wavenumbers:  4000. -  4650. cm-1, ATM      1
 LEVEL PRESSURE   UPWARD FLUX   DIFDOWN FLUX  DIRDOWN FLUX  DOWNWARD FLUX   NET FLUX    HEATING RATE
          mb          W/m2          W/m2          W/m2        W/m2          W/m2       degree/day
  51    .06700        1.2685        0.0000       10.7795       10.7795       9.511071       0.00000
  50    .07753        1.2685        0.0000       10.7795       10.7795       9.511070       0.00080
  49    .09103        1.2685        0.0000       10.7795       10.7795       9.511069       0.00078
  48    0.1069        1.2685        0.0000       10.7795       10.7795       9.511067       0.00076
  47    0.1255        1.2685        0.0000       10.7795       10.7795       9.511066       0.00075
  46    0.1487        1.2685        0.0000       10.7795       10.7795       9.511064       0.00076
  45    0.1794        1.2685        0.0000       10.7795       10.7795       9.511061       0.00078
  44    0.2165        1.2685        0.0000       10.7795       10.7795       9.511057       0.00076
  43    0.2613        1.2685        0.0000       10.7795       10.7795       9.511053       0.00075
  42    0.3336        1.2685        0.0000       10.7795       10.7795       9.511047       0.00077
  41    0.4307        1.2685        0.0000       10.7795       10.7795       9.511038       0.00077
  40    0.5894        1.2685        0.0000       10.7795       10.7795       9.511023       0.00080
  39     1.339        1.2685        0.0000       10.7794       10.7794       9.510934       0.00101
  38     1.782        1.2685        0.0000       10.7793       10.7793       9.510864       0.00133
  37     2.292        1.2685        0.0000       10.7792       10.7792       9.510770       0.00156
  36     2.964        1.2685        0.0000       10.7791       10.7791       9.510630       0.00176
  35     3.853        1.2685        0.0000       10.7789       10.7789       9.510422       0.00197
  34     5.035        1.2685        0.0000       10.7785       10.7786       9.510115       0.00219
  33     6.613        1.2684        0.0000       10.7781       10.7781       9.509664       0.00241
  32     8.786        1.2684        0.0000       10.7774       10.7774       9.508997       0.00259
  31     11.80        1.2684        0.0001       10.7763       10.7764       9.507951       0.00293
  30     15.07        1.2684        0.0001       10.7751       10.7751       9.506724       0.00317
  29     18.79        1.2684        0.0001       10.7736       10.7736       9.505240       0.00336
  28     23.16        1.2684        0.0001       10.7717       10.7718       9.503399       0.00356
  27     28.12        1.2684        0.0001       10.7694       10.7696       9.501172       0.00379
  26     33.73        1.2684        0.0001       10.7667       10.7668       9.498427       0.00413
  25     40.54        1.2684        0.0002       10.7629       10.7631       9.494705       0.00462
  24     48.69        1.2683        0.0002       10.7579       10.7581       9.489751       0.00513
  23     57.69        1.2683        0.0002       10.7520       10.7522       9.483882       0.00550
  22     68.43        1.2683        0.0003       10.7446       10.7448       9.476535       0.00578
  21     81.20        1.2683        0.0003       10.7355       10.7358       9.467500       0.00597
  20     96.49        1.2683        0.0004       10.7245       10.7248       9.456522       0.00606
  19     114.6        1.2684        0.0004       10.7008       10.7013       9.432899       0.01103
  18     136.5        1.2685        0.0005       10.6762       10.6767       9.408233       0.00948
  17     162.9        1.2687        0.0006       10.6493       10.6499       9.381233       0.00863
  16     196.4        1.2689        0.0007       10.6152       10.6159       9.347015       0.00861
  15     218.7        1.2692        0.0008       10.5897       10.5905       9.321347       0.00975
  14     243.0        1.2695        0.0009       10.5624       10.5633       9.293812       0.00955
  13     269.0        1.2699        0.0010       10.5284       10.5294       9.259449       0.01115
  12     297.5        1.2705        0.0011       10.4851       10.4862       9.215664       0.01299
  11     328.5        1.2714        0.0012       10.4285       10.4297       9.158323       0.01559
  10     361.9        1.2726        0.0013       10.3529       10.3542       9.081637       0.01940
   9     398.1        1.2741        0.0015       10.2526       10.2541       8.979944       0.02369
   8     437.6        1.2761        0.0016       10.1236       10.1252       8.849094       0.02798
   7     480.5        1.2787        0.0017        9.9673        9.9690       8.690334       0.03118
   6     533.0        1.2826        0.0019        9.7643        9.7662       8.483568       0.03326
   5     589.8        1.2882        0.0020        9.5398        9.5418       8.253538       0.03414
   4     651.6        1.2964        0.0022        9.2730        9.2752       7.978780       0.03757
   3     718.7        1.3080        0.0023        8.9499        8.9522       7.644158       0.04205
   2     792.3        1.3251        0.0025        8.5713        8.5738       7.248683       0.04536
   1     891.5        1.3580        0.0026        8.0724        8.0751       6.717092       0.04524
   0    1013.0        1.4199        0.0028        7.5546        7.5574       6.137461       0.04025



 Wavenumbers:  4650. -  5150. cm-1, ATM      1
 LEVEL PRESSURE   UPWARD FLUX   DIFDOWN FLUX  DIRDOWN FLUX  DOWNWARD FLUX   NET FLUX    HEATING RATE
          mb          W/m2          W/m2          W/m2        W/m2          W/m2       degree/day
  51    .06700        0.3203        0.0000       10.2033       10.2033       9.882993       0.00000
  50    .07753        0.3203        0.0000       10.2031       10.2031       9.882757       0.18883
  49    .09103        0.3203        0.0000       10.2028       10.2028       9.882463       0.18410
  48    0.1069        0.3203        0.0000       10.2025       10.2025       9.882126       0.17913
  47    0.1255        0.3203        0.0000       10.2021       10.2021       9.881742       0.17409
  46    0.1487        0.3203        0.0000       10.2016       10.2016       9.881261       0.17519
  45    0.1794        0.3203        0.0000       10.2010       10.2010       9.880612       0.17833
  44    0.2165        0.3203        0.0000       10.2002       10.2002       9.879853       0.17260
  43    0.2613        0.3203        0.0000       10.1993       10.1993       9.878969       0.16674
  42    0.3336        0.3203        0.0000       10.1979       10.1979       9.877537       0.16686
  41    0.4307        0.3203        0.0000       10.1960       10.1960       9.875699       0.15987
  40    0.5894        0.3203        0.0000       10.1932       10.1932       9.872828       0.15268
  39     1.339        0.3203        0.0000       10.1816       10.1816       9.861247       0.13037
  38     1.782        0.3203        0.0000       10.1761       10.1761       9.855724       0.10516
  37     2.292        0.3203        0.0000       10.1706       10.1706       9.850273       0.09028
  36     2.964        0.3203        0.0000       10.1647       10.1647       9.844356       0.07428
  35     3.853        0.3203        0.0000       10.1584       10.1585       9.838148       0.05891
  34     5.035        0.3203        0.0000       10.1521       10.1521       9.831820       0.04521
  33     6.613        0.3203        0.0000       10.1456       10.1457       9.825371       0.03448
  32     8.786        0.3203        0.0001       10.1386       10.1387       9.818370       0.02719
  31     11.80        0.3203        0.0001       10.1296       10.1296       9.809345       0.02527
  30     15.07        0.3203        0.0001       10.1197       10.1198       9.799485       0.02546
  29     18.79        0.3202        0.0001       10.1076       10.1078       9.787502       0.02717
  28     23.16        0.3202        0.0001       10.0923       10.0925       9.772230       0.02953
  27     28.12        0.3202        0.0002       10.0732       10.0734       9.753178       0.03239
  26     33.73        0.3202        0.0002       10.0501       10.0503       9.730138       0.03464
  25     40.54        0.3202        0.0002       10.0202       10.0205       9.700309       0.03701
  24     48.69        0.3201        0.0003        9.9821        9.9824       9.662238       0.03940
  23     57.69        0.3201        0.0003        9.9386        9.9389       9.618823       0.04070
  22     68.43        0.3201        0.0004        9.8859        9.8863       9.566254       0.04133
  21     81.20        0.3200        0.0005        9.8237        9.8241       9.504079       0.04108
  20     96.49        0.3200        0.0005        9.7520        9.7526       9.432547       0.03948
  19     114.6        0.3200        0.0006        9.6684        9.6690       9.348984       0.03902
  18     136.5        0.3200        0.0007        9.5791        9.5798       9.259840       0.03428
  17     162.9        0.3200        0.0009        9.4849        9.4857       9.165744       0.03008
  16     196.4        0.3200        0.0010        9.3765        9.3775       9.057493       0.02725
  15     218.7        0.3201        0.0011        9.3083        9.3095       8.989376       0.02586
  14     243.0        0.3202        0.0012        9.2365        9.2377       8.917526       0.02492
  13     269.0        0.3203        0.0014        9.1562        9.1575       8.837225       0.02605
  12     297.5        0.3205        0.0015        9.0634        9.0649       8.744423       0.02752
  11     328.5        0.3208        0.0016        8.9548        8.9564       8.635618       0.02958
  10     361.9        0.3213        0.0018        8.8272        8.8290       8.507709       0.03236
   9     398.1        0.3219        0.0019        8.6753        8.6772       8.355383       0.03549
   8     437.6        0.3227        0.0021        8.4955        8.4976       8.174922       0.03858
   7     480.5        0.3238        0.0022        8.2838        8.2860       7.962174       0.04178
   6     533.0        0.3256        0.0024        8.0005        8.0029       7.677308       0.04583
   5     589.8        0.3281        0.0025        7.6793        7.6818       7.353677       0.04804
   4     651.6        0.3317        0.0027        7.3237        7.3263       6.994617       0.04910
   3     718.7        0.3368        0.0028        6.9522        6.9550       6.618229       0.04730
   2     792.3        0.3440        0.0029        6.5711        6.5740       6.230045       0.04452
   1     891.5        0.3573        0.0031        6.1003        6.1034       5.746089       0.04118
   0    1013.0        0.3807        0.0032        5.5962        5.5994       5.218734       0.03662



 Wavenumbers:  5150. -  6150. cm-1, ATM      1
 LEVEL PRESSURE   UPWARD FLUX   DIFDOWN FLUX  DIRDOWN FLUX  DOWNWARD FLUX   NET FLUX    HEATING RATE
          mb          W/m2          W/m2          W/m2        W/m2          W/m2       degree/day
  51    .06700        2.6542        0.0000       25.5798       25.5798      22.925650       0.00000
  50    .07753        2.6542        0.0000       25.5798       25.5798      22.925650       0.00019
  49    .09103        2.6542        0.0000       25.5798       25.5798      22.925649       0.00018
  48    0.1069        2.6542        0.0000       25.5798       25.5798      22.925649       0.00018
  47    0.1255        2.6542        0.0000       25.5798       25.5798      22.925649       0.00018
  46    0.1487        2.6542        0.0000       25.5798       25.5798      22.925648       0.00018
  45    0.1794        2.6542        0.0000       25.5798       25.5798      22.925648       0.00018
  44    0.2165        2.6542        0.0000       25.5798       25.5798      22.925647       0.00018
  43    0.2613        2.6542        0.0000       25.5798       25.5798      22.925646       0.00018
  42    0.3336        2.6542        0.0000       25.5798       25.5798      22.925644       0.00018
  41    0.4307        2.6542        0.0000       25.5798       25.5798      22.925642       0.00018
  40    0.5894        2.6542        0.0000       25.5798       25.5798      22.925639       0.00019
  39     1.339        2.6541        0.0000       25.5797       25.5798      22.925617       0.00024
  38     1.782        2.6541        0.0000       25.5797       25.5797      22.925601       0.00032
  37     2.292        2.6549        0.0001       22.7644       22.7645      20.109552      46.64112
  36     2.964        2.6553        0.0001       22.3955       22.3956      19.740357       4.63450
  35     3.853        2.6555        0.0001       22.1966       22.1968      19.541243       1.88963
  34     5.035        2.6557        0.0002       22.0677       22.0678      19.412144       0.92223
  33     6.613        2.6558        0.0002       21.9774       21.9776      19.321822       0.48286
  32     8.786        2.6559        0.0002       21.9119       21.9121      19.256215       0.25479
  31     11.80        2.6560        0.0003       21.8606       21.8609      19.204962       0.14349
  30     15.07        2.6560        0.0004       21.8272       21.8276      19.171564       0.08623
  29     18.79        2.6560        0.0005       21.8024       21.8028      19.146820       0.05610
  28     23.16        2.6560        0.0006       21.7815       21.7820      19.126032       0.04020
  27     28.12        2.6560        0.0007       21.7626       21.7633      19.107253       0.03192
  26     33.73        2.6560        0.0008       21.7451       21.7459      19.089962       0.02600
  25     40.54        2.6560        0.0010       21.7169       21.7178      19.061841       0.03489
  24     48.69        2.6560        0.0012       21.6880       21.6891      19.033100       0.02974
  23     57.69        2.6560        0.0014       21.6610       21.6624      19.006321       0.02510
  22     68.43        2.6561        0.0016       21.6337       21.6353      18.979280       0.02126
  21     81.20        2.6561        0.0019       21.6062       21.6081      18.952015       0.01802
  20     96.49        2.6561        0.0022       21.5782       21.5805      18.924373       0.01526
  19     114.6        2.6561        0.0026       21.5476       21.5503      18.894148       0.01411
  18     136.5        2.6561        0.0031       21.5132       21.5164      18.860220       0.01305
  17     162.9        2.6561        0.0037       21.4756       21.4793      18.823165       0.01184
  16     196.4        2.6561        0.0045       21.4268       21.4313      18.775131       0.01209
  15     218.7        2.6562        0.0049       21.3779       21.3828      18.726650       0.01841
  14     243.0        2.6562        0.0055       21.3241       21.3296      18.673430       0.01846
  13     269.0        2.6562        0.0060       21.2333       21.2394      18.583143       0.02929
  12     297.5        2.6564        0.0066       21.0817       21.0883      18.431964       0.04484
  11     328.5        2.6566        0.0073       20.8390       20.8462      18.189636       0.06589
  10     361.9        2.6570        0.0079       20.4686       20.4765      17.819454       0.09366
   9     398.1        2.6577        0.0085       19.9402       19.9486      17.290893       0.12314
   8     437.6        2.6588        0.0090       19.2414       19.2504      16.591554       0.14952
   7     480.5        2.6605        0.0095       18.4004       18.4099      15.749339       0.16541
   6     533.0        2.6637        0.0100       17.3609       17.3709      14.707191       0.16765
   5     589.8        2.6689        0.0105       16.3640       16.3744      13.705533       0.14868
   4     651.6        2.6775        0.0110       15.4815       15.4925      12.815008       0.12178
   3     718.7        2.6914        0.0116       14.7663       14.7780      12.086586       0.09154
   2     792.3        2.7140        0.0123       14.1640       14.1763      11.462376       0.07159
   1     891.5        2.7629        0.0132       13.4672       13.4804      10.717522       0.06338
   0    1013.0        2.8690        0.0143       12.7001       12.7144       9.845442       0.06055



 Wavenumbers:  6150. -  7700. cm-1, ATM      1
 LEVEL PRESSURE   UPWARD FLUX   DIFDOWN FLUX  DIRDOWN FLUX  DOWNWARD FLUX   NET FLUX    HEATING RATE
          mb          W/m2          W/m2          W/m2        W/m2          W/m2       degree/day
  51    .06700        4.2900        0.0000       47.3109       47.3109      43.020851       0.00000
  50    .07753        4.2900        0.0000       47.3108       47.3108      43.020834       0.01303
  49    .09103        4.2900        0.0000       47.3108       47.3108      43.020814       0.01277
  48    0.1069        4.2900        0.0000       47.3108       47.3108      43.020791       0.01250
  47    0.1255        4.2900        0.0000       47.3108       47.3108      43.020764       0.01223
  46    0.1487        4.2900        0.0000       47.3107       47.3107      43.020730       0.01241
  45    0.1794        4.2900        0.0000       47.3107       47.3107      43.020683       0.01276
  44    0.2165        4.2900        0.0000       47.3106       47.3106      43.020628       0.01252
  43    0.2613        4.2900        0.0000       47.3105       47.3106      43.020563       0.01228
  42    0.3336        4.2900        0.0000       47.3104       47.3104      43.020455       0.01256
  41    0.4307        4.2900        0.0000       47.3102       47.3103      43.020312       0.01242
  40    0.5894        4.2900        0.0001       47.3100       47.3100      43.020079       0.01240
  39     1.339        4.2899        0.0001       47.3087       47.3089      43.018978       0.01240
  38     1.782        4.2898        0.0002       47.3080       47.3082      43.018332       0.01230
  37     2.292        4.2908        0.0003       42.5769       42.5773      38.286509      78.37132
  36     2.964        4.2912        0.0004       42.0438       42.0442      37.753043       6.69661
  35     3.853        4.2914        0.0005       41.7556       41.7562      37.464738       2.73606
  34     5.035        4.2916        0.0007       41.5702       41.5708      37.279253       1.32503
  33     6.613        4.2916        0.0008       41.4418       41.4426      37.151013       0.68557
  32     8.786        4.2916        0.0010       41.3496       41.3507      37.059090       0.35699
  31     11.80        4.2914        0.0013       41.2785       41.2798      36.988383       0.19796
  30     15.07        4.2912        0.0017       41.2327       41.2343      36.943118       0.11687
  29     18.79        4.2910        0.0020       41.1991       41.2011      36.910142       0.07477
  28     23.16        4.2906        0.0024       41.1711       41.1735      36.882870       0.05273
  27     28.12        4.2902        0.0029       41.1459       41.1489      36.858613       0.04124
  26     33.73        4.2898        0.0035       41.1231       41.1266      36.836800       0.03280
  25     40.54        4.2893        0.0041       41.0871       41.0913      36.801961       0.04322
  24     48.69        4.2887        0.0049       41.0511       41.0561      36.767390       0.03578
  23     57.69        4.2880        0.0058       41.0182       41.0240      36.735990       0.02943
  22     68.43        4.2871        0.0068       40.9852       40.9920      36.704936       0.02441
  21     81.20        4.2861        0.0081       40.9521       40.9602      36.674065       0.02040
  20     96.49        4.2849        0.0096       40.9182       40.9278      36.642923       0.01719
  19     114.6        4.2834        0.0113       40.8798       40.8911      36.607683       0.01645
  18     136.5        4.2817        0.0134       40.8349       40.8483      36.566637       0.01578
  17     162.9        4.2796        0.0159       40.7823       40.7982      36.518591       0.01536
  16     196.4        4.2770        0.0191       40.7075       40.7266      36.449605       0.01736
  15     218.7        4.2753        0.0212       40.6252       40.6464      36.371163       0.02978
  14     243.0        4.2734        0.0235       40.5323       40.5557      36.282311       0.03082
  13     269.0        4.2716        0.0259       40.3730       40.3990      36.127431       0.05024
  12     297.5        4.2697        0.0285       40.1065       40.1350      35.865314       0.07774
  11     328.5        4.2680        0.0312       39.6780       39.7092      35.441212       0.11531
  10     361.9        4.2665        0.0338       39.0184       39.0523      34.785717       0.16585
   9     398.1        4.2657        0.0364       38.0617       38.0981      33.832359       0.22211
   8     437.6        4.2659        0.0388       36.7719       36.8106      32.544697       0.27531
   7     480.5        4.2679        0.0408       35.1652       35.2061      30.938183       0.31551
   6     533.0        4.2735        0.0428       33.0466       33.0894      28.815891       0.34141
   5     589.8        4.2851        0.0445       30.8147       30.8591      26.574064       0.33276
   4     651.6        4.3064        0.0459       28.5884       28.6343      24.327901       0.30717
   3     718.7        4.3423        0.0473       26.5031       26.5504      22.208071       0.26640
   2     792.3        4.4021        0.0486       24.5578       24.6064      20.204255       0.22982
   1     891.5        4.5319        0.0503       22.3809       22.4311      17.899249       0.19614
   0    1013.0        4.8100        0.0524       20.3291       20.3815      15.571516       0.16163



 Wavenumbers:  7700. -  8050. cm-1, ATM      1
 LEVEL PRESSURE   UPWARD FLUX   DIFDOWN FLUX  DIRDOWN FLUX  DOWNWARD FLUX   NET FLUX    HEATING RATE
          mb          W/m2          W/m2          W/m2        W/m2          W/m2       degree/day
  51    .06700        5.6500        0.0000       11.1810       11.1810       5.530937       0.00000
  50    .07753        5.6500        0.0000       11.1809       11.1809       5.530915       0.01726
  49    .09103        5.6500        0.0000       11.1809       11.1809       5.530888       0.01691
  48    0.1069        5.6500        0.0000       11.1809       11.1809       5.530857       0.01656
  47    0.1255        5.6500        0.0000       11.1809       11.1809       5.530821       0.01620
  46    0.1487        5.6501        0.0000       11.1808       11.1808       5.530776       0.01644
  45    0.1794        5.6501        0.0000       11.1808       11.1808       5.530714       0.01692
  44    0.2165        5.6501        0.0000       11.1807       11.1807       5.530641       0.01660
  43    0.2613        5.6501        0.0000       11.1806       11.1806       5.530555       0.01628
  42    0.3336        5.6501        0.0000       11.1805       11.1805       5.530412       0.01666
  41    0.4307        5.6501        0.0000       11.1803       11.1804       5.530223       0.01648
  40    0.5894        5.6502        0.0000       11.1801       11.1801       5.529913       0.01646
  39     1.339        5.6504        0.0001       11.1788       11.1789       5.528448       0.01649
  38     1.782        5.6506        0.0001       11.1781       11.1782       5.527588       0.01638
  37     2.292        5.6507        0.0002       11.1771       11.1773       5.526592       0.01649
  36     2.964        5.6509        0.0002       11.1760       11.1762       5.525285       0.01641
  35     3.853        5.6512        0.0003       11.1745       11.1747       5.523558       0.01639
  34     5.035        5.6516        0.0004       11.1725       11.1728       5.521263       0.01639
  33     6.613        5.6521        0.0005       11.1698       11.1703       5.518199       0.01638
  32     8.786        5.6527        0.0006       11.1662       11.1668       5.514071       0.01603
  31     11.80        5.6537        0.0007       11.1611       11.1619       5.508170       0.01652
  30     15.07        5.6548        0.0009       11.1557       11.1566       5.501840       0.01634
  29     18.79        5.6560        0.0011       11.1495       11.1507       5.494697       0.01620
  28     23.16        5.6573        0.0014       11.1424       11.1437       5.486365       0.01611
  27     28.12        5.6589        0.0016       11.1342       11.1358       5.476852       0.01617
  26     33.73        5.6607        0.0019       11.1250       11.1270       5.466227       0.01597
  25     40.54        5.6629        0.0023       11.1140       11.1163       5.453422       0.01589
  24     48.69        5.6656        0.0027       11.1008       11.1036       5.438031       0.01593
  23     57.69        5.6685        0.0032       11.0864       11.0897       5.421184       0.01579
  22     68.43        5.6720        0.0038       11.0694       11.0732       5.401202       0.01571
  21     81.20        5.6762        0.0045       11.0492       11.0537       5.377515       0.01565
  20     96.49        5.6812        0.0053       11.0254       11.0307       5.349458       0.01549
  19     114.6        5.6873        0.0063       10.9973       11.0036       5.316297       0.01548
  18     136.5        5.6946        0.0074       10.9645       10.9719       5.277327       0.01498
  17     162.9        5.7033        0.0088       10.9259       10.9347       5.231367       0.01469
  16     196.4        5.7149        0.0106       10.8768       10.8874       5.172431       0.01484
  15     218.7        5.7227        0.0117       10.8450       10.8567       5.134043       0.01457
  14     243.0        5.7312        0.0130       10.8109       10.8239       5.092622       0.01437
  13     269.0        5.7407        0.0143       10.7743       10.7886       5.047973       0.01448
  12     297.5        5.7511        0.0158       10.7352       10.7510       4.999912       0.01425
  11     328.5        5.7626        0.0174       10.6933       10.7107       4.948078       0.01409
  10     361.9        5.7754        0.0191       10.6485       10.6676       4.892191       0.01414
   9     398.1        5.7896        0.0209       10.6004       10.6213       4.831694       0.01409
   8     437.6        5.8056        0.0229       10.5486       10.5715       4.765913       0.01406
   7     480.5        5.8237        0.0250       10.4928       10.5178       4.694110       0.01410
   6     533.0        5.8474        0.0276       10.4230       10.4506       4.603210       0.01462
   5     589.8        5.8750        0.0304       10.3458       10.3762       4.501201       0.01514
   4     651.6        5.9077        0.0334       10.2597       10.2931       4.385377       0.01584
   3     718.7        5.9466        0.0365       10.1633       10.1998       4.253198       0.01661
   2     792.3        5.9933        0.0399       10.0547       10.0946       4.101262       0.01743
   1     891.5        6.0655        0.0444        9.8995        9.9439       3.878376       0.01897
   0    1013.0        6.1665        0.0497        9.7023        9.7520       3.585472       0.02034



 Wavenumbers:  8050. - 12850. cm-1, ATM      1
 LEVEL PRESSURE   UPWARD FLUX   DIFDOWN FLUX  DIRDOWN FLUX  DOWNWARD FLUX   NET FLUX    HEATING RATE
          mb          W/m2          W/m2          W/m2        W/m2          W/m2       degree/day
  51    .06700       98.1772        0.0000      156.5418      156.5418      58.364577       0.00000
  50    .07753       98.1772        0.0000      156.5417      156.5417      58.364577      -0.00000
  49    .09103       98.1771        0.0001      156.5417      156.5417      58.364577       0.00000
  48    0.1069       98.1771        0.0001      156.5416      156.5417      58.364577      -0.00000
  47    0.1255       98.1771        0.0002      156.5415      156.5417      58.364577       0.00000
  46    0.1487       98.1771        0.0002      156.5414      156.5417      58.364577      -0.00000
  45    0.1794       98.1771        0.0003      156.5413      156.5416      58.364577       0.00000
  44    0.2165       98.1770        0.0004      156.5412      156.5416      58.364577       0.00000
  43    0.2613       98.1770        0.0006      156.5410      156.5415      58.364577       0.00000
  42    0.3336       98.1769        0.0008      156.5407      156.5415      58.364577      -0.00000
  41    0.4307       98.1768        0.0010      156.5403      156.5414      58.364577       0.00000
  40    0.5894       98.1766        0.0015      156.5397      156.5412      58.364577      -0.00000
  39     1.339       98.1758        0.0037      156.5367      156.5404      58.364577      -0.00000
  38     1.782       98.1753        0.0049      156.5350      156.5399      58.364577       0.00000
  37     2.292       98.1737        0.0094      156.5288      156.5382      58.364577       0.00000
  36     2.964       98.1726        0.0123      156.5248      156.5372      58.364577       0.00000
  35     3.853       98.1714        0.0154      156.5206      156.5360      58.364577      -0.00000
  34     5.035       98.1701        0.0190      156.5156      156.5347      58.364577       0.00000
  33     6.613       98.1683        0.0237      156.5092      156.5329      58.364577       0.00000
  32     8.786       98.1660        0.0299      156.5007      156.5306      58.364577       0.00000
  31     11.80       98.1627        0.0387      156.4886      156.5273      58.364577      -0.00000
  30     15.07       98.1592        0.0481      156.4757      156.5238      58.364577      -0.00000
  29     18.79       98.1553        0.0588      156.4611      156.5198      58.364577       0.00000
  28     23.16       98.1506        0.0712      156.4440      156.5152      58.364577       0.00000
  27     28.12       98.1453        0.0854      156.4245      156.5099      58.364577      -0.00000
  26     33.73       98.1394        0.1013      156.4027      156.5040      58.364577       0.00000
  25     40.54       98.1322        0.1206      156.3762      156.4968      58.364577       0.00000
  24     48.69       98.1236        0.1438      156.3443      156.4881      58.364577      -0.00000
  23     57.69       98.1140        0.1694      156.3092      156.4786      58.364577      -0.00000
  22     68.43       98.1026        0.1999      156.2673      156.4672      58.364577       0.00000
  21     81.20       98.0891        0.2363      156.2173      156.4536      58.364577       0.00000
  20     96.49       98.0728        0.2797      156.1577      156.4374      58.364577       0.00000
  19     114.6       98.0595        0.3313      155.9264      156.2576      58.198165       0.07770
  18     136.5       98.0420        0.3925      155.6992      156.0917      58.049636       0.05711
  17     162.9       98.0192        0.4655      155.4690      155.9345      57.915224       0.04296
  16     196.4       97.9875        0.5605      155.1919      155.7524      57.764948       0.03783
  15     218.7       97.9664        0.6229      154.9653      155.5882      57.621789       0.05435
  14     243.0       97.9431        0.6908      154.7365      155.4273      57.484200       0.04772
  13     269.0       97.9190        0.7645      154.4283      155.1928      57.273764       0.06826
  12     297.5       97.8953        0.8440      154.0178      154.8618      56.966528       0.09112
  11     328.5       97.8734        0.9297      153.4751      154.4048      56.531370       0.11832
  10     361.9       97.8562        1.0216      152.7508      153.7724      55.916198       0.15564
   9     398.1       97.8480        1.1199      151.7750      152.8948      55.046812       0.20255
   8     437.6       97.8558        1.2242      150.4777      151.7019      53.846088       0.25672
   7     480.5       97.8902        1.3342      148.8030      150.1372      52.246916       0.31407
   6     533.0       97.9822        1.4670      146.3719      147.8389      49.856707       0.38451
   5     589.8       98.1617        1.6061      143.3751      144.9813      46.819597       0.45081
   4     651.6       98.4845        1.7506      139.8007      141.5513      43.066735       0.51321
   3     718.7       99.0152        1.9005      135.8320      137.7326      38.717372       0.54659
   2     792.3       99.8794        2.0549      131.4655      133.5203      33.640927       0.58221
   1     891.5      101.6938        2.2535      125.5830      127.8365      26.142622       0.63807
   0    1013.0      105.2619        2.4813      118.9784      121.4597      16.197793       0.69052



 Wavenumbers: 12850. - 16000. cm-1, ATM      1
 LEVEL PRESSURE   UPWARD FLUX   DIFDOWN FLUX  DIRDOWN FLUX  DOWNWARD FLUX   NET FLUX    HEATING RATE
          mb          W/m2          W/m2          W/m2        W/m2          W/m2       degree/day
  51    .06700       81.0757        0.0000       98.0872       98.0872      17.011512       0.00000
  50    .07753       81.0757        0.0001       98.0864       98.0864      17.010720       0.63519
  49    .09103       81.0757        0.0002       98.0853       98.0855      17.009724       0.62221
  48    0.1069       81.0757        0.0003       98.0841       98.0843      17.008580       0.60900
  47    0.1255       81.0757        0.0004       98.0826       98.0830      17.007265       0.59609
  46    0.1487       81.0758        0.0005       98.0809       98.0814      17.005605       0.60507
  45    0.1794       81.0758        0.0007       98.0784       98.0792      17.003347       0.62013
  44    0.2165       81.0759        0.0010       98.0756       98.0766      17.000688       0.60471
  43    0.2613       81.0760        0.0013       98.0723       98.0736      16.997561       0.58954
  42    0.3336       81.0763        0.0017       98.0670       98.0688      16.992453       0.59550
  41    0.4307       81.0767        0.0024       98.0602       98.0626      16.985844       0.57467
  40    0.5894       81.0776        0.0034       98.0496       98.0530      16.975419       0.55439
  39     1.339       81.0846        0.0082       98.0043       98.0126      16.928017       0.53366
  38     1.782       81.0909        0.0111       97.9793       97.9904      16.899454       0.54379
  37     2.292       81.0984        0.0212       97.9409       97.9622      16.863808       0.59039
  36     2.964       81.1133        0.0278       97.8971       97.9249      16.811590       0.65550
  35     3.853       81.1380        0.0346       97.8372       97.8718      16.733745       0.73876
  34     5.035       81.1756        0.0428       97.7540       97.7968      16.621241       0.80368
  33     6.613       81.2281        0.0534       97.6417       97.6950      16.466895       0.82513
  32     8.786       81.2966        0.0672       97.4958       97.5630      16.266418       0.77858
  31     11.80       81.3859        0.0868       97.3028       97.3896      16.003720       0.73547
  30     15.07       81.4716        0.1078       97.1132       97.2210      15.749351       0.65673
  29     18.79       81.5593        0.1314       96.9148       97.0462      15.486968       0.59490
  28     23.16       81.6510        0.1590       96.7013       96.8603      15.209246       0.53702
  27     28.12       81.7436        0.1905       96.4781       96.6686      14.925027       0.48315
  26     33.73       81.8295        0.2257       96.2577       96.4835      14.653917       0.40762
  25     40.54       81.9129        0.2683       96.0254       96.2937      14.380835       0.33879
  24     48.69       81.9934        0.3197       95.7791       96.0988      14.105413       0.28502
  23     57.69       82.0625        0.3761       95.5418       95.9179      13.855341       0.23441
  22     68.43       82.1240        0.4433       95.2951       95.7384      13.614415       0.18940
  21     81.20       82.1685        0.5235       95.0488       95.5723      13.403776       0.13919
  20     96.49       82.1951        0.6191       94.7998       95.4189      13.223808       0.09933
  19     114.6       82.2266        0.7339       94.5230       95.2569      13.030320       0.09035
  18     136.5       82.2522        0.8700       94.2115       95.0815      12.829345       0.07728
  17     162.9       82.2718        1.0320       93.8525       94.8845      12.612668       0.06926
  16     196.4       82.2744        1.2422       93.4092       94.6513      12.376919       0.05934
  15     218.7       82.2681        1.3802       93.1235       94.5036      12.235485       0.05370
  14     243.0       82.2575        1.5302       92.8153       94.3455      12.087955       0.05117
  13     269.0       82.2426        1.6927       92.4825       94.1752      11.932570       0.05041
  12     297.5       82.2238        1.8683       92.1228       93.9911      11.767342       0.04900
  11     328.5       82.2033        2.0582       91.7311       93.7893      11.585986       0.04931
  10     361.9       82.1824        2.2625       91.3041       93.5666      11.384205       0.05105
   9     398.1       82.1628        2.4824       90.8363       93.3187      11.155855       0.05320
   8     437.6       82.1479        2.7184       90.3197       93.0381      10.890230       0.05679
   7     480.5       82.1417        2.9712       89.7449       92.7161      10.574414       0.06203
   6     533.0       82.1535        3.2818       88.9998       92.2816      10.128130       0.07179
   5     589.8       82.1976        3.6157       88.1430       91.7588       9.561193       0.08415
   4     651.6       82.2942        3.9729       87.1495       91.1224       8.828184       0.10024
   3     718.7       82.4553        4.3530       86.0259       90.3789       7.923631       0.11368
   2     792.3       82.7146        4.7546       84.7560       89.5106       6.795968       0.12933
   1     891.5       83.2400        5.2870       82.9606       88.2476       5.007655       0.15218
   0    1013.0       84.1634        5.9150       80.7759       86.6909       2.527455       0.17221



 Wavenumbers: 16000. - 22650. cm-1, ATM      1
 LEVEL PRESSURE   UPWARD FLUX   DIFDOWN FLUX  DIRDOWN FLUX  DOWNWARD FLUX   NET FLUX    HEATING RATE
          mb          W/m2          W/m2          W/m2        W/m2          W/m2       degree/day
  51    .06700      140.9180        0.0000      156.3892      156.3892      15.471232       0.00000
  50    .07753      140.9180        0.0004      156.3887      156.3891      15.471084       0.11835
  49    .09103      140.9180        0.0009      156.3879      156.3888      15.470870       0.13423
  48    0.1069      140.9180        0.0015      156.3871      156.3885      15.470582       0.15307
  47    0.1255      140.9180        0.0021      156.3861      156.3882      15.470197       0.17448
  46    0.1487      140.9180        0.0030      156.3847      156.3877      15.469630       0.20675
  45    0.1794      140.9182        0.0041      156.3828      156.3869      15.468743       0.24344
  44    0.2165      140.9184        0.0054      156.3805      156.3859      15.467540       0.27360
  43    0.2613      140.9187        0.0070      156.3776      156.3846      15.465909       0.30759
  42    0.3336      140.9195        0.0097      156.3726      156.3823      15.462806       0.36172
  41    0.4307      140.9207        0.0131      156.3657      156.3789      15.458130       0.40661
  40    0.5894      140.9233        0.0188      156.3537      156.3725      15.449211       0.47430
  39     1.339      140.9459        0.0458      156.2834      156.3292      15.383317       0.74185
  38     1.782      140.9668        0.0617      156.2324      156.2940      15.327183       1.06870
  37     2.292      140.9895        0.1181      156.1173      156.2354      15.245931       1.34574
  36     2.964      141.0388        0.1543      155.9987      156.1531      15.114308       1.65227
  35     3.853      141.1215        0.1923      155.8347      156.0270      14.905457       1.98204
  34     5.035      141.2478        0.2380      155.6036      155.8416      14.593869       2.22585
  33     6.613      141.4248        0.2964      155.2893      155.5857      14.160855       2.31489
  32     8.786      141.6558        0.3733      154.8799      155.2532      13.597407       2.18823
  31     11.80      141.9566        0.4821      154.3368      154.8188      12.862252       2.05820
  30     15.07      142.2448        0.5983      153.8016      154.3998      12.155057       1.82584
  29     18.79      142.5391        0.7291      153.2402      153.9693      11.430247       1.64337
  28     23.16      142.8467        0.8816      152.6337      153.5154      10.668658       1.47267
  27     28.12      143.1562        1.0557      151.9968      153.0525       9.896278       1.31299
  26     33.73      143.4419        1.2503      151.3624      152.6127       9.170781       1.09080
  25     40.54      143.7168        1.4852      150.6853      152.1705       8.453728       0.88959
  24     48.69      143.9800        1.7681      149.9557      151.7238       7.743834       0.73463
  23     57.69      144.2030        2.0785      149.2372      151.3157       7.112666       0.59162
  22     68.43      144.3975        2.4477      148.4700      150.9177       6.520166       0.46578
  21     81.20      144.5317        2.8874      147.6744      150.5617       6.030029       0.32387
  20     96.49      144.6010        3.4107      146.8357      150.2464       5.645396       0.21229
  19     114.6      144.6371        4.0303      145.8994      149.9297       5.292646       0.16471
  18     136.5      144.6483        4.7619      144.8321      149.5940       4.945629       0.13344
  17     162.9      144.6331        5.6290      143.6021      149.2312       4.598045       0.11110
  16     196.4      144.5516        6.7479      142.0890      148.8369       4.285278       0.07873
  15     218.7      144.4756        7.4791      141.1274      148.6065       4.130900       0.05861
  14     243.0      144.3824        8.2704      140.0998      148.3702       3.987826       0.04962
  13     269.0      144.2706        9.1242      139.0047      148.1289       3.858274       0.04203
  12     297.5      144.1394       10.0423      137.8400      147.8823       3.742850       0.03423
  11     328.5      143.9930       11.0291      136.5946      147.6237       3.630626       0.03051
  10     361.9      143.8313       12.0856      135.2672      147.3528       3.521507       0.02761
   9     398.1      143.6538       13.2158      133.8524      147.0681       3.414361       0.02496
   8     437.6      143.4616       14.4216      132.3458      146.7674       3.305868       0.02320
   7     480.5      143.2547       15.7054      130.7442      146.4496       3.194905       0.02179
   6     533.0      143.0012       17.2734      128.7881      146.0615       3.060318       0.02165
   5     589.8      142.7327       18.9487      126.6944      145.6431       2.910480       0.02224
   4     651.6      142.4529       20.7328      124.4568      145.1896       2.736709       0.02376
   3     718.7      142.1645       22.6271      122.0708      144.6979       2.533338       0.02556
   2     792.3      141.8760       24.6296      119.5309      144.1604       2.284492       0.02854
   1     891.5      141.5262       27.2882      116.1264      143.4147       1.888490       0.03370
   0    1013.0      141.1567       30.4136      112.0947      142.5082       1.351569       0.03728



 Wavenumbers: 22650. - 29000. cm-1, ATM      1
 LEVEL PRESSURE   UPWARD FLUX   DIFDOWN FLUX  DIRDOWN FLUX  DOWNWARD FLUX   NET FLUX    HEATING RATE
          mb          W/m2          W/m2          W/m2        W/m2          W/m2       degree/day
  51    .06700       58.6820        0.0000       59.0156       59.0156       0.333643       0.00000
  50    .07753       58.6819        0.0005       59.0151       59.0155       0.333643      -0.00000
  49    .09103       58.6818        0.0010       59.0144       59.0154       0.333643       0.00000
  48    0.1069       58.6816        0.0017       59.0136       59.0153       0.333643      -0.00000
  47    0.1255       58.6815        0.0025       59.0127       59.0151       0.333643      -0.00000
  46    0.1487       58.6813        0.0035       59.0115       59.0149       0.333643       0.00000
  45    0.1794       58.6810        0.0048       59.0099       59.0147       0.333643      -0.00000
  44    0.2165       58.6807        0.0063       59.0080       59.0144       0.333643       0.00000
  43    0.2613       58.6804        0.0082       59.0058       59.0140       0.333643       0.00000
  42    0.3336       58.6798        0.0113       59.0022       59.0134       0.333643       0.00000
  41    0.4307       58.6790        0.0154       58.9973       59.0127       0.333643      -0.00000
  40    0.5894       58.6777        0.0220       58.9894       59.0114       0.333643       0.00000
  39     1.339       58.6717        0.0535       58.9518       59.0053       0.333643       0.00000
  38     1.782       58.6681        0.0720       58.9297       59.0017       0.333643       0.00000
  37     2.292       58.6554        0.1378       58.8512       58.9891       0.333643       0.00000
  36     2.964       58.6473        0.1802       58.8007       58.9809       0.333643       0.00000
  35     3.853       58.6387        0.2246       58.7478       58.9724       0.333643      -0.00000
  34     5.035       58.6284        0.2780       58.6840       58.9621       0.333643       0.00000
  33     6.613       58.6153        0.3463       58.6027       58.9489       0.333643       0.00000
  32     8.786       58.5980        0.4363       58.4953       58.9316       0.333643       0.00000
  31     11.80       58.5735        0.5636       58.3435       58.9071       0.333643      -0.00000
  30     15.07       58.5473        0.6996       58.1813       58.8809       0.333643       0.00000
  29     18.79       58.5178        0.8526       57.9989       58.8515       0.333643       0.00000
  28     23.16       58.4835        1.0307       57.7864       58.8172       0.333643      -0.00000
  27     28.12       58.4444        1.2338       57.5443       58.7781       0.333643       0.00000
  26     33.73       58.4008        1.4601       57.2743       58.7345       0.333643       0.00000
  25     40.54       58.3483        1.7325       56.9495       58.6820       0.333643       0.00000
  24     48.69       58.2854        2.0591       56.5600       58.6191       0.333643       0.00000
  23     57.69       58.2168        2.4156       56.1348       58.5504       0.333643       0.00000
  22     68.43       58.1355        2.8372       55.6320       58.4692       0.333643       0.00000
  21     81.20       58.0396        3.3350       55.0382       58.3732       0.333643       0.00000
  20     96.49       57.9265        3.9219       54.3382       58.2601       0.333643       0.00000
  19     114.6       57.7939        4.6098       53.5177       58.1275       0.333643       0.00000
  18     136.5       57.6390        5.4126       52.5601       57.9727       0.333643      -0.00000
  17     162.9       57.4580        6.3511       51.4405       57.7916       0.333643       0.00000
  16     196.4       57.2285        7.5402       50.0219       57.5621       0.333643       0.00000
  15     218.7       57.0809        8.3044       49.1102       57.4146       0.333643      -0.00000
  14     243.0       56.9234        9.1202       48.1368       57.2570       0.333643       0.00000
  13     269.0       56.7558        9.9873       47.1022       57.0895       0.333643       0.00000
  12     297.5       56.5784       10.9047       46.0074       56.9121       0.333643       0.00000
  11     328.5       56.3910       11.8740       44.8506       56.7246       0.333643      -0.00000
  10     361.9       56.1939       12.8925       43.6350       56.5275       0.333643       0.00000
   9     398.1       55.9871       13.9604       42.3603       56.3207       0.333643       0.00000
   8     437.6       55.7710       15.0756       41.0291       56.1047       0.333643       0.00000
   7     480.5       55.5461       16.2356       39.6441       55.8797       0.333643       0.00000
   6     533.0       55.2782       17.6155       37.9963       55.6119       0.333643      -0.00000
   5     589.8       55.0002       19.0461       36.2877       55.3339       0.333643       0.00000
   4     651.6       54.7135       20.5199       34.5273       55.0472       0.333643      -0.00000
   3     718.7       54.4193       22.0302       32.7228       54.7529       0.333643       0.00000
   2     792.3       54.1188       23.5701       30.8824       54.4525       0.333643       0.00000
   1     891.5       53.7371       25.5222       28.5485       54.0707       0.333643       0.00000
   0    1013.0       53.3124       27.6872       25.9589       53.6461       0.333643      -0.00000



 Wavenumbers: 29000. - 38000. cm-1, ATM      1
 LEVEL PRESSURE   UPWARD FLUX   DIFDOWN FLUX  DIRDOWN FLUX  DOWNWARD FLUX   NET FLUX    HEATING RATE
          mb          W/m2          W/m2          W/m2        W/m2          W/m2       degree/day
  51    .06700        8.7817        0.0000       20.8114       20.8114      12.029655       0.00000
  50    .07753        8.7815        0.0003       20.8070       20.8074      12.025846       3.05249
  49    .09103        8.7813        0.0007       20.8009       20.8016      12.020307       3.46192
  48    0.1069        8.7810        0.0012       20.7928       20.7939      12.012895       3.94552
  47    0.1255        8.7808        0.0017       20.7820       20.7837      12.002987       4.49175
  46    0.1487        8.7804        0.0024       20.7665       20.7688      11.988420       5.31011
  45    0.1794        8.7800        0.0033       20.7424       20.7457      11.965748       6.22402
  44    0.2165        8.7795        0.0044       20.7103       20.7147      11.935215       6.94565
  43    0.2613        8.7789        0.0056       20.6675       20.6731      11.894207       7.72987
  42    0.3336        8.7780        0.0077       20.5880       20.5957      11.817620       8.92927
  41    0.4307        8.7770        0.0104       20.4722       20.4826      11.705628       9.73747
  40    0.5894        8.7755        0.0147       20.2637       20.2784      11.502866      10.78258
  39     1.339        8.7728        0.0332       19.0984       19.1315      10.358748      12.88069
  38     1.782        8.7739        0.0427       18.4394       18.4821       9.708159      12.38618
  37     2.292        8.7626        0.0781       17.7323       17.8105       9.047835      10.93668
  36     2.964        8.7651        0.0974       16.9931       17.0904       8.325353       9.06933
  35     3.853        8.7760        0.1156       16.2158       16.3314       7.555403       7.30697
  34     5.035        8.7962        0.1361       15.4291       15.5651       6.768995       5.61777
  33     6.613        8.8263        0.1615       14.6656       14.8271       6.000783       4.10686
  32     8.786        8.8666        0.1942       13.9460       14.1402       5.273618       2.82404
  31     11.80        8.9194        0.2399       13.2386       13.4784       4.558981       2.00076
  30     15.07        8.9704        0.2878       12.6957       12.9835       4.013065       1.40945
  29     18.79        9.0232        0.3407       12.2248       12.5656       3.542372       1.06721
  28     23.16        9.0792        0.4014       11.7899       12.1913       3.112073       0.83206
  27     28.12        9.1366        0.4694       11.3893       11.8588       2.722140       0.66286
  26     33.73        9.1896        0.5446       11.0323       11.5769       2.387261       0.50350
  25     40.54        9.2399        0.6345       10.6850       11.3196       2.079653       0.38162
  24     48.69        9.2874        0.7414       10.3396       11.0810       1.793599       0.29602
  23     57.69        9.3265        0.8572       10.0215       10.8787       1.552249       0.22623
  22     68.43        9.3581        0.9932        9.7005       10.6936       1.335568       0.17034
  21     81.20        9.3733        1.1538        9.3823       10.5361       1.162777       0.11418
  20     96.49        9.3703        1.3428        9.0587       10.4015       1.031237       0.07260
  19     114.6        9.3570        1.5612        8.7099       10.2711       0.914144       0.05467
  18     136.5        9.3364        1.8109        8.3273       10.1382       0.801785       0.04320
  17     162.9        9.3088        2.0955        7.9050       10.0006       0.691768       0.03517
  16     196.4        9.2621        2.4490        7.4080        9.8569       0.594885       0.02439
  15     218.7        9.2284        2.6708        7.1053        9.7761       0.547651       0.01793
  14     243.0        9.1916        2.9027        6.7929        9.6956       0.504034       0.01513
  13     269.0        9.1513        3.1439        6.4723        9.6162       0.464867       0.01271
  12     297.5        9.1077        3.3932        6.1448        9.5380       0.430339       0.01024
  11     328.5        9.0621        3.6497        5.8097        9.4594       0.397279       0.00899
  10     361.9        9.0151        3.9109        5.4701        9.3809       0.365836       0.00796
   9     398.1        8.9668        4.1762        5.1266        9.3028       0.336037       0.00694
   8     437.6        8.9176        4.4442        4.7808        9.2249       0.307309       0.00614
   7     480.5        8.8680        4.7127        4.4354        9.1481       0.280038       0.00536
   6     533.0        8.8111        5.0188        4.0426        9.0615       0.250308       0.00478
   5     589.8        8.7551        5.3207        3.6559        8.9766       0.221521       0.00427
   4     651.6        8.7009        5.6147        3.2795        8.8942       0.193354       0.00385
   3     718.7        8.6489        5.8992        2.9155        8.8147       0.165764       0.00347
   2     792.3        8.6001        6.1707        2.5682        8.7388       0.138756       0.00310
   1     891.5        8.5443        6.4890        2.1607        8.6497       0.105405       0.00284
   0    1013.0        8.4913        6.8085        1.7514        8.5599       0.068595       0.00256



 Wavenumbers: 38000. - 50000. cm-1, ATM      1
 LEVEL PRESSURE   UPWARD FLUX   DIFDOWN FLUX  DIRDOWN FLUX  DOWNWARD FLUX   NET FLUX    HEATING RATE
          mb          W/m2          W/m2          W/m2        W/m2          W/m2       degree/day
  51    .06700        0.0070        0.0000        1.2836        1.2836       1.276607       0.00000
  50    .07753        0.0070        0.0001        1.2812        1.2812       1.274271       1.87214
  49    .09103        0.0069        0.0002        1.2777        1.2778       1.270938       2.08313
  48    0.1069        0.0068        0.0002        1.2731        1.2734       1.266558       2.33130
  47    0.1255        0.0067        0.0004        1.2672        1.2675       1.260802       2.60982
  46    0.1487        0.0066        0.0005        1.2586        1.2591       1.252473       3.03581
  45    0.1794        0.0065        0.0007        1.2455        1.2462       1.239702       3.50612
  44    0.2165        0.0063        0.0009        1.2282        1.2291       1.222771       3.85136
  43    0.2613        0.0061        0.0011        1.2054        1.2065       1.200417       4.21367
  42    0.3336        0.0058        0.0015        1.1639        1.1654       1.159582       4.76092
  41    0.4307        0.0054        0.0020        1.1051        1.1071       1.101608       5.04077
  40    0.5894        0.0049        0.0026        1.0039        1.0064       1.001537       5.32162
  39     1.339        0.0035        0.0035        0.5438        0.5473       0.543875       5.15244
  38     1.782        0.0032        0.0032        0.3635        0.3667       0.363487       3.43430
  37     2.292        0.0015        0.0039        0.2332        0.2371       0.235565       2.11873
  36     2.964        0.0010        0.0032        0.1435        0.1467       0.145754       1.12739
  35     3.853        0.0006        0.0024        0.0845        0.0869       0.086277       0.56445
  34     5.035        0.0004        0.0017        0.0480        0.0498       0.049346       0.26382
  33     6.613        0.0003        0.0012        0.0268        0.0280       0.027777       0.11531
  32     8.786        0.0002        0.0008        0.0142        0.0150       0.014827       0.05029
  31     11.80        0.0001        0.0005        0.0064        0.0069       0.006861       0.02230
  30     15.07        0.0000        0.0003        0.0030        0.0034       0.003311       0.00917
  29     18.79        0.0000        0.0002        0.0014        0.0016       0.001576       0.00393
  28     23.16        0.0000        0.0001        0.0006        0.0007       0.000717       0.00166
  27     28.12        0.0000        0.0001        0.0003        0.0003       0.000316       0.00068
  26     33.73        0.0000        0.0000        0.0001        0.0001       0.000139       0.00027
  25     40.54        0.0000        0.0000        0.0000        0.0001       0.000057       0.00010
  24     48.69        0.0000        0.0000        0.0000        0.0000       0.000021       0.00004
  23     57.69        0.0000        0.0000        0.0000        0.0000       0.000008       0.00001
  22     68.43        0.0000        0.0000        0.0000        0.0000       0.000003       0.00000
  21     81.20        0.0000        0.0000        0.0000        0.0000       0.000001       0.00000
  20     96.49        0.0000        0.0000        0.0000        0.0000       0.000000       0.00000
  19     114.6        0.0000        0.0000        0.0000        0.0000       0.000000       0.00000
  18     136.5        0.0000        0.0000        0.0000        0.0000       0.000000       0.00000
  17     162.9        0.0000        0.0000        0.0000        0.0000       0.000000       0.00000
  16     196.4        0.0000        0.0000        0.0000        0.0000       0.000000       0.00000
  15     218.7        0.0000        0.0000        0.0000        0.0000       0.000000       0.00000
  14     243.0        0.0000        0.0000        0.0000        0.0000       0.000000       0.00000
  13     269.0        0.0000        0.0000        0.0000        0.0000       0.000000       0.00000
  12     297.5        0.0000        0.0000        0.0000        0.0000       0.000000       0.00000
  11     328.5        0.0000        0.0000        0.0000        0.0000       0.000000       0.00000
  10     361.9        0.0000        0.0000        0.0000        0.0000       0.000000       0.00000
   9     398.1        0.0000        0.0000        0.0000        0.0000       0.000000       0.00000
   8     437.6        0.0000        0.0000        0.0000        0.0000       0.000000       0.00000
   7     480.5        0.0000        0.0000        0.0000        0.0000       0.000000       0.00000
   6     533.0        0.0000        0.0000        0.0000        0.0000       0.000000       0.00000
   5     589.8        0.0000        0.0000        0.0000        0.0000       0.000000       0.00000
   4     651.6        0.0000        0.0000        0.0000        0.0000       0.000000       0.00000
   3     718.7        0.0000        0.0000        0.0000        0.0000       0.000000       0.00000
   2     792.3        0.0000        0.0000        0.0000        0.0000       0.000000       0.00000
   1     891.5        0.0000        0.0000        0.0000        0.0000       0.000000       0.00000
   0    1013.0        0.0000        0.0000        0.0000        0.0000       0.000000       0.00000



 Wavenumbers:   820. -  2600. cm-1, ATM      1
 LEVEL PRESSURE   UPWARD FLUX   DIFDOWN FLUX  DIRDOWN FLUX  DOWNWARD FLUX   NET FLUX    HEATING RATE
          mb          W/m2          W/m2          W/m2        W/m2          W/m2       degree/day
  51    .06700        0.0076        0.0000        6.0047        6.0047       5.997074       0.00000
  50    .07753        0.0076        0.0000        6.0009        6.0009       5.993295       3.02937
  49    .09103        0.0076        0.0000        6.0001        6.0001       5.992505       0.49378
  48    0.1069        0.0076        0.0000        5.9992        5.9992       5.991630       0.46572
  47    0.1255        0.0076        0.0000        5.9982        5.9982       5.990649       0.44470
  46    0.1487        0.0076        0.0000        5.9970        5.9970       5.989471       0.42941
  45    0.1794        0.0076        0.0000        5.9956        5.9956       5.988004       0.40259
  44    0.2165        0.0076        0.0000        5.9940        5.9940       5.986472       0.34860
  43    0.2613        0.0076        0.0000        5.9925        5.9925       5.984892       0.29770
  42    0.3336        0.0076        0.0000        5.9902        5.9902       5.982663       0.25991
  41    0.4307        0.0076        0.0000        5.9877        5.9877       5.980075       0.22503
  40    0.5894        0.0076        0.0000        5.9836        5.9836       5.976043       0.21442
  39     1.339        0.0076        0.0000        5.9651        5.9651       5.957533       0.20839
  38     1.782        0.0076        0.0000        5.9549        5.9549       5.947316       0.19451
  37     2.292        0.0087        0.0000        1.3229        1.3229       1.314176      76.73688
  36     2.964        0.0091        0.0000        1.2282        1.2282       1.219052       1.19410
  35     3.853        0.0093        0.0000        1.1879        1.1879       1.178537       0.38449
  34     5.035        0.0095        0.0000        1.1664        1.1664       1.156971       0.15406
  33     6.613        0.0096        0.0000        1.1541        1.1541       1.144539       0.06646
  32     8.786        0.0096        0.0000        1.1468        1.1468       1.137227       0.02840
  31     11.80        0.0096        0.0000        1.1423        1.1423       1.132665       0.01277
  30     15.07        0.0097        0.0000        1.1399        1.1399       1.130274       0.00617
  29     18.79        0.0097        0.0000        1.1385        1.1385       1.128822       0.00329
  28     23.16        0.0097        0.0000        1.1375        1.1375       1.127811       0.00196
  27     28.12        0.0097        0.0000        1.1367        1.1367       1.127049       0.00130
  26     33.73        0.0097        0.0000        1.1361        1.1361       1.126462       0.00088
  25     40.54        0.0097        0.0000        1.1353        1.1353       1.125656       0.00100
  24     48.69        0.0097        0.0000        1.1347        1.1347       1.124968       0.00071
  23     57.69        0.0097        0.0000        1.1341        1.1341       1.124428       0.00051
  22     68.43        0.0097        0.0000        1.1337        1.1337       1.123965       0.00036
  21     81.20        0.0097        0.0000        1.1333        1.1333       1.123566       0.00026
  20     96.49        0.0097        0.0000        1.1329        1.1329       1.123218       0.00019
  19     114.6        0.0097        0.0000        1.1326        1.1326       1.122939       0.00013
  18     136.5        0.0097        0.0000        1.1324        1.1324       1.122645       0.00011
  17     162.9        0.0097        0.0000        1.1321        1.1321       1.122371       0.00009
  16     196.4        0.0097        0.0000        1.1318        1.1318       1.122102       0.00007
  15     218.7        0.0097        0.0000        1.1316        1.1316       1.121929       0.00007
  14     243.0        0.0097        0.0000        1.1315        1.1315       1.121792       0.00005
  13     269.0        0.0097        0.0000        1.1313        1.1313       1.121617       0.00006
  12     297.5        0.0097        0.0000        1.1311        1.1311       1.121358       0.00008
  11     328.5        0.0097        0.0000        1.1307        1.1307       1.120969       0.00011
  10     361.9        0.0097        0.0000        1.1301        1.1301       1.120361       0.00015
   9     398.1        0.0097        0.0000        1.1292        1.1292       1.119437       0.00022
   8     437.6        0.0097        0.0000        1.1278        1.1278       1.118086       0.00029
   7     480.5        0.0098        0.0000        1.1259        1.1259       1.116145       0.00038
   6     533.0        0.0098        0.0000        1.1224        1.1224       1.112658       0.00056
   5     589.8        0.0098        0.0000        1.1170        1.1170       1.107220       0.00081
   4     651.6        0.0099        0.0000        1.1077        1.1078       1.097874       0.00128
   3     718.7        0.0100        0.0000        1.0935        1.0935       1.083539       0.00180
   2     792.3        0.0102        0.0000        1.0725        1.0725       1.062306       0.00244
   1     891.5        0.0105        0.0000        1.0334        1.0335       1.022923       0.00335
   0    1013.0        0.0111        0.0000        0.9742        0.9742       0.963072       0.00416

  Modules and versions used in this calculation:

       rrtmg_sw.1col.f90:  $Revision$                    rrtmg_sw_init.f90:  $Revision$        
     rrtmgsw_cldprop.f90:  $Revision$                  rrtmgsw_cldprmc.f90:  NOT USED          
     rrtmg_sw_reftra.f90:  $Revision$                  rrtmg_sw_spcvrt.f90:  NOT USED          
     rrtmg_sw_spcvmc.f90:  NOT USED                    rrtmgsw_setcoef.f90:  NOT USED          
     rrtmg_sw_taumol.f90:  $Revision$                  rrtmg_sw_vrtqdr.f90:  NOT USED          
                rrtatm.f:  NOT USED                             util_xxx.f:  NOT USED          
                 extra.f:  NOT USED                       rrtmg_sw_k_g.f90:  $Revision$        

