

 Wavenumbers:   820. - 50000. cm-1, ATM      1
 LEVEL PRESSURE   UPWARD FLUX   DIFDOWN FLUX  DIRDOWN FLUX  DOWNWARD FLUX   NET FLUX    HEATING RATE
          mb          W/m2          W/m2          W/m2        W/m2          W/m2       degree/day
  51    .06700      420.9270        0.0000      617.8126      617.8126     196.885617       0.00000
  50    .07753      420.9266        0.0013      617.7947      617.7961     196.869477      12.93655
  49    .09103      420.9261        0.0030      617.7778      617.7808     196.854667       9.25644
  48    0.1069      420.9257        0.0050      617.7581      617.7631     196.837406       9.18822
  47    0.1255      420.9251        0.0072      617.7340      617.7412     196.816062       9.67642
  46    0.1487      420.9245        0.0100      617.7009      617.7109     196.786377      10.82037
  45    0.1794      420.9238        0.0139      617.6521      617.6660     196.742148      12.14193
  44    0.2165      420.9231        0.0184      617.5895      617.6079     196.684829      13.03894
  43    0.2613      420.9224        0.0238      617.5089      617.5327     196.610321      14.04453
  42    0.3336      420.9215        0.0326      617.3641      617.3967     196.475245      15.74856
  41    0.4307      420.9207        0.0442      617.1591      617.2033     196.282635      16.74695
  40    0.5894      420.9205        0.0630      616.8005      616.8634     195.942973      18.06283
  39     1.339      420.9374        0.1477      614.9443      615.0920     194.154600      20.13383
  38     1.782      420.9599        0.1954      613.9670      614.1625     193.202560      18.12531
  37     2.292      420.9973        0.2497      613.0059      613.2556     192.258275      15.63982
  36     2.964      421.0636        0.3203      611.9577      612.2779     191.214340      13.10454
  35     3.853      421.1750        0.4128      610.8024      611.2152     190.040198      11.14282
  34     5.035      421.3464        0.5348      609.5327      610.0675     188.721122       9.42293
  33     6.613      421.5880        0.6968      608.1464      608.8433     187.255323       7.83617
  32     8.786      421.9026        0.9142      606.6250      607.5392     185.636666       6.28628
  31     11.80      422.3099        1.2237      604.8486      606.0723     183.762475       5.24714
  30     15.07      422.6973        1.5539      603.2440      604.7979     182.100570       4.29071
  29     18.79      423.0904        1.9255      601.6511      603.5766     180.486175       3.66033
  28     23.16      423.4983        2.3572      599.9927      602.3499     178.851583       3.16077
  27     28.12      423.9047        2.8486      598.2881      601.1367     177.231975       2.75323
  26     33.73      424.2716        3.3965      596.5951      599.9916     175.719956       2.27336
  25     40.54      424.6125        4.0561      594.7727      598.8288     174.216260       1.86550
  24     48.69      424.9243        4.8475      592.7865      597.6340     172.709725       1.55903
  23     57.69      425.1705        5.7126      590.7959      596.5085     171.338021       1.28577
  22     68.43      425.3594        6.7376      588.6191      595.3567     169.997259       1.05402
  21     81.20      425.4394        7.9527      586.2690      594.2217     168.782333       0.80280
  20     96.49      425.4001        9.3914      583.6961      593.0875     167.687421       0.60431
  19     114.6      425.2999       11.0841      580.7708      591.8549     166.554938       0.52879
  18     136.5      425.1370       13.0659      577.4359      590.5018     165.364878       0.45761
  17     162.9      424.9053       15.3918      573.5624      588.9542     164.048932       0.42063
  16     196.4      424.5181       18.3578      568.5907      586.9485     162.430399       0.40740
  15     218.7      424.2354       20.2754      565.0572      585.3326     161.097152       0.50618
  14     243.0      423.9199       22.3322      560.7495      583.0817     159.161802       0.67124
  13     269.0      423.5719       24.5295      555.3947      579.9242     156.352263       0.91140
  12     297.5      423.1956       26.8680      548.9964      575.8644     152.668732       1.09249
  11     328.5      422.8001       29.3541      542.0895      571.4437     148.643574       1.09443
  10     361.9      422.3914       31.9841      534.6242      566.6084     144.216987       1.11997
   9     398.1      421.9774       34.7625      526.4204      561.1829     139.205587       1.16754
   8     437.6      421.5748       37.6879      517.3907      555.0786     133.503813       1.21907
   7     480.5      421.2007       40.7584      507.7216      548.4800     127.279265       1.22248
   6     533.0      420.8472       44.4499      495.9006      540.3505     119.503268       1.25091
   5     589.8      420.6593       48.3234      483.0788      531.4022     110.742912       1.30032
   4     651.6      420.8509       52.3662      468.6907      521.0569     100.205968       1.44096
   3     718.7      421.7056       56.5703      453.2257      509.7960      88.090353       1.52260
   2     792.3      423.9492       60.9137      436.4928      497.4065      73.457329       1.67824
   1     891.5      341.0041      308.8131       88.5693      397.3824      56.378363       1.45334
   0    1013.0      346.7126      302.6790       83.1083      385.7873      39.074682       1.20148



 Wavenumbers:  2600. -  3250. cm-1, ATM      1
 LEVEL PRESSURE   UPWARD FLUX   DIFDOWN FLUX  DIRDOWN FLUX  DOWNWARD FLUX   NET FLUX    HEATING RATE
          mb          W/m2          W/m2          W/m2        W/m2          W/m2       degree/day
  51    .06700        1.5354        0.0000        5.4450        5.4450       3.909610       0.00000
  50    .07753        1.5354        0.0000        5.4450        5.4450       3.909602       0.00640
  49    .09103        1.5354        0.0000        5.4450        5.4450       3.909592       0.00627
  48    0.1069        1.5354        0.0000        5.4450        5.4450       3.909580       0.00613
  47    0.1255        1.5354        0.0000        5.4450        5.4450       3.909567       0.00599
  46    0.1487        1.5354        0.0000        5.4450        5.4450       3.909551       0.00608
  45    0.1794        1.5354        0.0000        5.4450        5.4450       3.909528       0.00625
  44    0.2165        1.5354        0.0000        5.4449        5.4449       3.909501       0.00612
  43    0.2613        1.5354        0.0000        5.4449        5.4449       3.909469       0.00600
  42    0.3336        1.5354        0.0000        5.4448        5.4448       3.909416       0.00617
  41    0.4307        1.5354        0.0000        5.4448        5.4448       3.909345       0.00620
  40    0.5894        1.5354        0.0000        5.4446        5.4446       3.909225       0.00637
  39     1.339        1.5354        0.0000        5.4439        5.4439       3.908518       0.00797
  38     1.782        1.5354        0.0000        5.4434        5.4434       3.907975       0.01034
  37     2.292        1.5354        0.0000        5.4427        5.4427       3.907259       0.01186
  36     2.964        1.5354        0.0000        5.4416        5.4416       3.906220       0.01304
  35     3.853        1.5354        0.0000        5.4402        5.4402       3.904743       0.01402
  34     5.035        1.5354        0.0000        5.4381        5.4381       3.902687       0.01468
  33     6.613        1.5354        0.0000        5.4353        5.4353       3.899906       0.01487
  32     8.786        1.5354        0.0000        5.4317        5.4317       3.896273       0.01411
  31     11.80        1.5354        0.0000        5.4269        5.4269       3.891492       0.01339
  30     15.07        1.5354        0.0000        5.4224        5.4224       3.886964       0.01169
  29     18.79        1.5354        0.0000        5.4180        5.4180       3.882549       0.01001
  28     23.16        1.5354        0.0000        5.4135        5.4135       3.878060       0.00868
  27     28.12        1.5354        0.0000        5.4088        5.4088       3.873407       0.00791
  26     33.73        1.5354        0.0000        5.4036        5.4036       3.868159       0.00789
  25     40.54        1.5355        0.0000        5.3966        5.3967       3.861207       0.00863
  24     48.69        1.5355        0.0000        5.3872        5.3872       3.851713       0.00982
  23     57.69        1.5355        0.0000        5.3754        5.3754       3.839905       0.01107
  22     68.43        1.5355        0.0000        5.3599        5.3599       3.824383       0.01220
  21     81.20        1.5356        0.0000        5.3401        5.3401       3.804500       0.01314
  20     96.49        1.5357        0.0000        5.3155        5.3155       3.779863       0.01360
  19     114.6        1.5358        0.0000        5.2853        5.2854       3.749569       0.01415
  18     136.5        1.5359        0.0001        5.2504        5.2505       3.714525       0.01348
  17     162.9        1.5362        0.0001        5.2111        5.2112       3.674982       0.01264
  16     196.4        1.5366        0.0001        5.1640        5.1641       3.627554       0.01194
  15     218.7        1.5370        0.0001        5.1331        5.1332       3.596241       0.01189
  14     243.0        1.5376        0.0001        5.0962        5.0963       3.558692       0.01302
  13     269.0        1.5387        0.0001        5.0511        5.0512       3.512549       0.01497
  12     297.5        1.5402        0.0001        4.9956        4.9957       3.455516       0.01692
  11     328.5        1.5424        0.0001        4.9304        4.9305       3.388123       0.01832
  10     361.9        1.5454        0.0001        4.8511        4.8512       3.305886       0.02081
   9     398.1        1.5495        0.0002        4.7507        4.7508       3.201391       0.02435
   8     437.6        1.5551        0.0002        4.6220        4.6222       3.067103       0.02871
   7     480.5        1.5629        0.0002        4.4625        4.4627       2.899767       0.03286
   6     533.0        1.5755        0.0002        4.2460        4.2462       2.670714       0.03685
   5     589.8        1.5947        0.0002        3.9954        3.9956       2.400930       0.04004
   4     651.6        1.6260        0.0002        3.7089        3.7091       2.083015       0.04348
   3     718.7        1.6773        0.0002        3.4018        3.4020       1.724702       0.04503
   2     792.3        1.7689        0.0002        3.0564        3.0566       1.287712       0.05012
   1     891.5        1.0099        1.2518        0.5526        1.8044       0.794464       0.04197
   0    1013.0        1.1567        1.0534        0.4460        1.4995       0.342744       0.03137



 Wavenumbers:  3250. -  4000. cm-1, ATM      1
 LEVEL PRESSURE   UPWARD FLUX   DIFDOWN FLUX  DIRDOWN FLUX  DOWNWARD FLUX   NET FLUX    HEATING RATE
          mb          W/m2          W/m2          W/m2        W/m2          W/m2       degree/day
  51    .06700        0.0261        0.0000        9.1795        9.1795       9.153413       0.00000
  50    .07753        0.0261        0.0000        9.1747        9.1747       9.148570       3.88148
  49    .09103        0.0261        0.0000        9.1713        9.1713       9.145183       2.11747
  48    0.1069        0.0261        0.0000        9.1688        9.1688       9.142658       1.34402
  47    0.1255        0.0261        0.0000        9.1665        9.1665       9.140398       1.02422
  46    0.1487        0.0261        0.0000        9.1641        9.1641       9.137957       0.88991
  45    0.1794        0.0261        0.0000        9.1612        9.1612       9.135079       0.79008
  44    0.2165        0.0261        0.0000        9.1583        9.1583       9.132159       0.66430
  43    0.2613        0.0261        0.0000        9.1553        9.1553       9.129186       0.56041
  42    0.3336        0.0261        0.0000        9.1511        9.1511       9.125007       0.48723
  41    0.4307        0.0261        0.0000        9.1464        9.1464       9.120238       0.41459
  40    0.5894        0.0261        0.0000        9.1393        9.1394       9.113233       0.37255
  39     1.339        0.0261        0.0000        9.1127        9.1127       9.086619       0.29962
  38     1.782        0.0261        0.0000        9.1011        9.1011       9.075031       0.22062
  37     2.292        0.0261        0.0000        9.0901        9.0901       9.063964       0.18329
  36     2.964        0.0261        0.0000        9.0776        9.0776       9.051535       0.15603
  35     3.853        0.0261        0.0000        9.0629        9.0629       9.036744       0.14036
  34     5.035        0.0261        0.0000        9.0441        9.0441       9.018006       0.13386
  33     6.613        0.0261        0.0000        9.0191        9.0191       8.993004       0.13366
  32     8.786        0.0261        0.0000        8.9843        8.9843       8.958220       0.13509
  31     11.80        0.0261        0.0000        8.9327        8.9327       8.906604       0.14451
  30     15.07        0.0261        0.0000        8.8758        8.8759       8.849759       0.14676
  29     18.79        0.0261        0.0000        8.8110        8.8110       8.784932       0.14698
  28     23.16        0.0261        0.0000        8.7365        8.7366       8.710487       0.14395
  27     28.12        0.0261        0.0000        8.6554        8.6555       8.629374       0.13789
  26     33.73        0.0261        0.0000        8.5719        8.5719       8.545874       0.12554
  25     40.54        0.0261        0.0001        8.4812        8.4812       8.455151       0.11255
  24     48.69        0.0261        0.0001        8.3838        8.3839       8.357849       0.10069
  23     57.69        0.0260        0.0001        8.2861        8.2862       8.260114       0.09161
  22     68.43        0.0260        0.0001        8.1751        8.1751       8.149117       0.08726
  21     81.20        0.0260        0.0001        8.0457        8.0458       8.019759       0.08548
  20     96.49        0.0260        0.0001        7.8949        7.8950       7.869056       0.08318
  19     114.6        0.0260        0.0001        7.7162        7.7163       7.690346       0.08344
  18     136.5        0.0259        0.0002        7.5193        7.5195       7.493502       0.07569
  17     162.9        0.0259        0.0002        7.2913        7.2915       7.265610       0.07284
  16     196.4        0.0259        0.0002        6.9660        6.9662       6.940335       0.08188
  15     218.7        0.0259        0.0002        6.6648        6.6650       6.639142       0.11435
  14     243.0        0.0259        0.0002        6.2619        6.2622       6.236337       0.13971
  13     269.0        0.0259        0.0003        5.7576        5.7579       5.732012       0.16360
  12     297.5        0.0259        0.0003        5.1719        5.1722       5.146265       0.17373
  11     328.5        0.0260        0.0002        4.5757        4.5760       4.550007       0.16212
  10     361.9        0.0261        0.0002        3.9995        3.9998       3.973670       0.14582
   9     398.1        0.0264        0.0002        3.4655        3.4657       3.439348       0.12448
   8     437.6        0.0268        0.0002        2.9740        2.9743       2.947459       0.10517
   7     480.5        0.0275        0.0002        2.5307        2.5309       2.503372       0.08722
   6     533.0        0.0289        0.0002        2.0614        2.0616       2.032697       0.07572
   5     589.8        0.0314        0.0002        1.6150        1.6151       1.583749       0.06664
   4     651.6        0.0366        0.0001        1.1565        1.1566       1.119941       0.06343
   3     718.7        0.0483        0.0001        0.7390        0.7391       0.690846       0.05393
   2     792.3        0.0792        0.0001        0.3985        0.3985       0.319367       0.04260
   1     891.5        0.0005        0.0401        0.0244        0.0645       0.063960       0.02173
   0    1013.0        0.0047        0.0042        0.0020        0.0062       0.001422       0.00434



 Wavenumbers:  4000. -  4650. cm-1, ATM      1
 LEVEL PRESSURE   UPWARD FLUX   DIFDOWN FLUX  DIRDOWN FLUX  DOWNWARD FLUX   NET FLUX    HEATING RATE
          mb          W/m2          W/m2          W/m2        W/m2          W/m2       degree/day
  51    .06700        5.5327        0.0000       10.7795       10.7795       5.246878       0.00000
  50    .07753        5.5327        0.0000       10.7795       10.7795       5.246877       0.00080
  49    .09103        5.5327        0.0000       10.7795       10.7795       5.246876       0.00078
  48    0.1069        5.5327        0.0000       10.7795       10.7795       5.246874       0.00076
  47    0.1255        5.5327        0.0000       10.7795       10.7795       5.246872       0.00075
  46    0.1487        5.5327        0.0000       10.7795       10.7795       5.246870       0.00076
  45    0.1794        5.5327        0.0000       10.7795       10.7795       5.246868       0.00078
  44    0.2165        5.5327        0.0000       10.7795       10.7795       5.246864       0.00076
  43    0.2613        5.5327        0.0000       10.7795       10.7795       5.246860       0.00075
  42    0.3336        5.5327        0.0000       10.7795       10.7795       5.246854       0.00077
  41    0.4307        5.5327        0.0000       10.7795       10.7795       5.246845       0.00077
  40    0.5894        5.5327        0.0000       10.7795       10.7795       5.246830       0.00080
  39     1.339        5.5327        0.0000       10.7794       10.7794       5.246740       0.00101
  38     1.782        5.5327        0.0000       10.7793       10.7793       5.246670       0.00133
  37     2.292        5.5327        0.0000       10.7792       10.7792       5.246576       0.00156
  36     2.964        5.5327        0.0000       10.7791       10.7791       5.246436       0.00176
  35     3.853        5.5327        0.0000       10.7789       10.7789       5.246228       0.00198
  34     5.035        5.5327        0.0000       10.7786       10.7786       5.245920       0.00219
  33     6.613        5.5327        0.0000       10.7781       10.7781       5.245468       0.00242
  32     8.786        5.5326        0.0000       10.7774       10.7774       5.244801       0.00259
  31     11.80        5.5326        0.0001       10.7763       10.7764       5.243751       0.00294
  30     15.07        5.5326        0.0001       10.7751       10.7752       5.242520       0.00318
  29     18.79        5.5326        0.0001       10.7736       10.7737       5.241031       0.00338
  28     23.16        5.5326        0.0001       10.7717       10.7718       5.239181       0.00358
  27     28.12        5.5326        0.0001       10.7695       10.7696       5.236941       0.00381
  26     33.73        5.5327        0.0002       10.7667       10.7668       5.234178       0.00415
  25     40.54        5.5327        0.0002       10.7629       10.7631       5.230429       0.00465
  24     48.69        5.5327        0.0002       10.7579       10.7581       5.225431       0.00517
  23     57.69        5.5328        0.0003       10.7520       10.7523       5.219502       0.00556
  22     68.43        5.5329        0.0003       10.7446       10.7449       5.212066       0.00585
  21     81.20        5.5330        0.0004       10.7355       10.7359       5.202902       0.00606
  20     96.49        5.5332        0.0005       10.7245       10.7249       5.191742       0.00616
  19     114.6        5.5335        0.0005       10.7107       10.7113       5.177770       0.00652
  18     136.5        5.5339        0.0006       10.6942       10.6948       5.160917       0.00648
  17     162.9        5.5346        0.0008       10.6740       10.6748       5.140222       0.00661
  16     196.4        5.5357        0.0009       10.6464       10.6473       5.111609       0.00720
  15     218.7        5.5367        0.0010       10.6255       10.6265       5.089794       0.00828
  14     243.0        5.5382        0.0011       10.5980       10.5992       5.060995       0.00999
  13     269.0        5.5404        0.0013       10.5611       10.5623       5.021898       0.01268
  12     297.5        5.5438        0.0014       10.5119       10.5133       4.969552       0.01553
  11     328.5        5.5484        0.0015       10.4499       10.4514       4.903037       0.01809
  10     361.9        5.5544        0.0017       10.3702       10.3718       4.817469       0.02165
   9     398.1        5.5619        0.0018       10.2678       10.2696       4.707690       0.02558
   8     437.6        5.5715        0.0020       10.1390       10.1410       4.569504       0.02954
   7     480.5        5.5836        0.0022        9.9877        9.9899       4.406258       0.03206
   6     533.0        5.6021        0.0024        9.7937        9.7960       4.193967       0.03415
   5     589.8        5.6285        0.0026        9.5752        9.5777       3.949245       0.03632
   4     651.6        5.6704        0.0028        9.2958        9.2986       3.628216       0.04390
   3     718.7        5.7393        0.0030        8.9267        8.9297       3.190384       0.05502
   2     792.3        5.8650        0.0032        8.4542        8.4574       2.592419       0.06858
   1     891.5        3.8769        4.1016        1.6677        5.7693       1.892330       0.05957
   0    1013.0        4.1099        3.8068        1.5141        5.3209       1.211018       0.04731



 Wavenumbers:  4650. -  5150. cm-1, ATM      1
 LEVEL PRESSURE   UPWARD FLUX   DIFDOWN FLUX  DIRDOWN FLUX  DOWNWARD FLUX   NET FLUX    HEATING RATE
          mb          W/m2          W/m2          W/m2        W/m2          W/m2       degree/day
  51    .06700        3.9407        0.0000       10.2033       10.2033       6.262644       0.00000
  50    .07753        3.9407        0.0000       10.2031       10.2031       6.262408       0.18901
  49    .09103        3.9407        0.0000       10.2028       10.2028       6.262113       0.18428
  48    0.1069        3.9407        0.0000       10.2025       10.2025       6.261776       0.17931
  47    0.1255        3.9407        0.0000       10.2021       10.2021       6.261392       0.17426
  46    0.1487        3.9407        0.0000       10.2016       10.2016       6.260911       0.17536
  45    0.1794        3.9407        0.0000       10.2010       10.2010       6.260260       0.17850
  44    0.2165        3.9407        0.0000       10.2002       10.2002       6.259501       0.17277
  43    0.2613        3.9407        0.0000       10.1993       10.1993       6.258616       0.16690
  42    0.3336        3.9407        0.0000       10.1979       10.1979       6.257183       0.16702
  41    0.4307        3.9407        0.0000       10.1960       10.1960       6.255343       0.16002
  40    0.5894        3.9407        0.0000       10.1932       10.1932       6.252469       0.15283
  39     1.339        3.9407        0.0000       10.1816       10.1816       6.240877       0.13050
  38     1.782        3.9407        0.0000       10.1760       10.1760       6.235348       0.10526
  37     2.292        3.9407        0.0000       10.1706       10.1706       6.229891       0.09038
  36     2.964        3.9407        0.0000       10.1646       10.1647       6.223967       0.07436
  35     3.853        3.9407        0.0000       10.1584       10.1584       6.217752       0.05898
  34     5.035        3.9407        0.0000       10.1521       10.1521       6.211415       0.04527
  33     6.613        3.9407        0.0000       10.1456       10.1456       6.204955       0.03454
  32     8.786        3.9407        0.0001       10.1386       10.1386       6.197939       0.02725
  31     11.80        3.9407        0.0001       10.1295       10.1296       6.188889       0.02534
  30     15.07        3.9407        0.0001       10.1196       10.1197       6.178996       0.02554
  29     18.79        3.9407        0.0001       10.1076       10.1077       6.166969       0.02727
  28     23.16        3.9408        0.0002       10.0923       10.0924       6.151637       0.02965
  27     28.12        3.9408        0.0002       10.0731       10.0733       6.132504       0.03252
  26     33.73        3.9409        0.0002       10.0500       10.0503       6.109358       0.03480
  25     40.54        3.9410        0.0003       10.0201       10.0204       6.079380       0.03719
  24     48.69        3.9412        0.0003        9.9820        9.9823       6.041100       0.03961
  23     57.69        3.9414        0.0004        9.9384        9.9388       5.997423       0.04094
  22     68.43        3.9417        0.0005        9.8858        9.8862       5.944496       0.04161
  21     81.20        3.9422        0.0005        9.8234        9.8240       5.881835       0.04141
  20     96.49        3.9428        0.0006        9.7518        9.7524       5.809641       0.03985
  19     114.6        3.9436        0.0008        9.6719        9.6727       5.729070       0.03762
  18     136.5        3.9448        0.0009        9.5858        9.5867       5.641910       0.03351
  17     162.9        3.9464        0.0011        9.4940        9.4951       5.548673       0.02980
  16     196.4        3.9490        0.0013        9.3883        9.3896       5.440578       0.02721
  15     218.7        3.9510        0.0014        9.3229        9.3243       5.373344       0.02553
  14     243.0        3.9536        0.0016        9.2520        9.2535       5.299926       0.02546
  13     269.0        3.9572        0.0017        9.1717        9.1734       5.216220       0.02715
  12     297.5        3.9621        0.0019        9.0763        9.0782       5.116015       0.02972
  11     328.5        3.9687        0.0021        8.9650        8.9670       4.998360       0.03199
  10     361.9        3.9771        0.0022        8.8349        8.8372       4.860070       0.03499
   9     398.1        3.9880        0.0024        8.6820        8.6845       4.696414       0.03813
   8     437.6        4.0023        0.0026        8.5028        8.5054       4.503161       0.04132
   7     480.5        4.0208        0.0028        8.2948        8.2977       4.276875       0.04444
   6     533.0        4.0490        0.0031        8.0209        8.0240       3.974990       0.04856
   5     589.8        4.0881        0.0033        7.7063        7.7096       3.621529       0.05247
   4     651.6        4.1458        0.0035        7.3412        7.3448       3.198907       0.05779
   3     718.7        4.2327        0.0037        6.9387        6.9424       2.709727       0.06148
   2     792.3        4.3697        0.0039        6.5066        6.5105       2.140812       0.06525
   1     891.5        2.8277        3.0700        1.2700        4.3400       1.512317       0.05348
   0    1013.0        3.0453        2.8094        1.1345        3.9439       0.898548       0.04262



 Wavenumbers:  5150. -  6150. cm-1, ATM      1
 LEVEL PRESSURE   UPWARD FLUX   DIFDOWN FLUX  DIRDOWN FLUX  DOWNWARD FLUX   NET FLUX    HEATING RATE
          mb          W/m2          W/m2          W/m2        W/m2          W/m2       degree/day
  51    .06700        9.7296        0.0000       25.5798       25.5798      15.850186       0.00000
  50    .07753        9.7296        0.0000       25.5798       25.5798      15.850147       0.03161
  49    .09103        9.7296        0.0000       25.5797       25.5797      15.850095       0.03209
  48    0.1069        9.7296        0.0000       25.5797       25.5797      15.850034       0.03260
  47    0.1255        9.7296        0.0000       25.5796       25.5796      15.849961       0.03310
  46    0.1487        9.7296        0.0000       25.5795       25.5795      15.849866       0.03487
  45    0.1794        9.7296        0.0000       25.5794       25.5794      15.849730       0.03712
  44    0.2165        9.7296        0.0000       25.5792       25.5792      15.849565       0.03768
  43    0.2613        9.7296        0.0000       25.5790       25.5790      15.849362       0.03826
  42    0.3336        9.7296        0.0000       25.5786       25.5786      15.849015       0.04042
  41    0.4307        9.7296        0.0000       25.5782       25.5782      15.848544       0.04096
  40    0.5894        9.7296        0.0000       25.5774       25.5774      15.847755       0.04197
  39     1.339        9.7296        0.0000       25.5735       25.5736      15.843952       0.04281
  38     1.782        9.7296        0.0001       25.5713       25.5714      15.841738       0.04215
  37     2.292        9.7296        0.0001       25.5688       25.5688      15.839232       0.04151
  36     2.964        9.7296        0.0001       25.5656       25.5657      15.836048       0.03997
  35     3.853        9.7296        0.0001       25.5615       25.5616      15.832000       0.03841
  34     5.035        9.7296        0.0002       25.5562       25.5564      15.826787       0.03724
  33     6.613        9.7296        0.0002       25.5494       25.5496      15.820023       0.03616
  32     8.786        9.7296        0.0003       25.5406       25.5409      15.811257       0.03405
  31     11.80        9.7296        0.0004       25.5287       25.5290      15.799398       0.03320
  30     15.07        9.7297        0.0005       25.5167       25.5172      15.787502       0.03071
  29     18.79        9.7297        0.0006       25.5042       25.5048      15.775061       0.02821
  28     23.16        9.7297        0.0007       25.4907       25.4914      15.761655       0.02592
  27     28.12        9.7298        0.0009       25.4764       25.4773      15.747513       0.02404
  26     33.73        9.7299        0.0010       25.4620       25.4631      15.733170       0.02157
  25     40.54        9.7300        0.0013       25.4463       25.4475      15.717468       0.01948
  24     48.69        9.7302        0.0015       25.4294       25.4309      15.700631       0.01742
  23     57.69        9.7305        0.0018       25.4126       25.4144      15.683890       0.01569
  22     68.43        9.7309        0.0021       25.3944       25.3966      15.665687       0.01431
  21     81.20        9.7313        0.0025       25.3744       25.3769      15.645629       0.01325
  20     96.49        9.7319        0.0030       25.3519       25.3549      15.623061       0.01246
  19     114.6        9.7326        0.0036       25.3262       25.3297      15.597158       0.01210
  18     136.5        9.7334        0.0042       25.2962       25.3004      15.566985       0.01160
  17     162.9        9.7345        0.0050       25.2521       25.2571      15.522604       0.01419
  16     196.4        9.7360        0.0060       25.1593       25.1653      15.429329       0.02348
  15     218.7        9.7371        0.0067       25.0159       25.0226      15.285542       0.05459
  14     243.0        9.7384        0.0074       24.7089       24.7163      14.977877       0.10671
  13     269.0        9.7401        0.0080       24.1619       24.1699      14.429786       0.17780
  12     297.5        9.7424        0.0087       23.4544       23.4631      13.720691       0.21031
  11     328.5        9.7453        0.0094       22.7355       22.7448      12.999492       0.19609
  10     361.9        9.7492        0.0100       21.9224       21.9325      12.183271       0.20651
   9     398.1        9.7543        0.0107       20.9939       21.0046      11.250303       0.21736
   8     437.6        9.7613        0.0113       19.9833       19.9947      10.233362       0.21743
   7     480.5        9.7708        0.0119       18.9483       18.9602       9.189421       0.20503
   6     533.0        9.7867        0.0126       17.7796       17.7922       8.005531       0.19045
   5     589.8        9.8120        0.0134       16.6726       16.6859       6.873911       0.16797
   4     651.6        9.8575        0.0141       15.6343       15.6484       5.790837       0.14811
   3     718.7        9.9397        0.0149       14.7738       14.7887       4.848957       0.11837
   2     792.3       10.1004        0.0158       14.0291       14.0449       3.944487       0.10373
   1     891.5        6.8437        7.0300        2.7989        9.8290       2.985298       0.08162
   0    1013.0        7.1124        6.6283        2.5756        9.2039       2.091495       0.06206



 Wavenumbers:  6150. -  7700. cm-1, ATM      1
 LEVEL PRESSURE   UPWARD FLUX   DIFDOWN FLUX  DIRDOWN FLUX  DOWNWARD FLUX   NET FLUX    HEATING RATE
          mb          W/m2          W/m2          W/m2        W/m2          W/m2       degree/day
  51    .06700       14.9355        0.0000       47.3109       47.3109      32.375395       0.00000
  50    .07753       14.9355        0.0000       47.3108       47.3108      32.375339       0.04553
  49    .09103       14.9355        0.0000       47.3107       47.3107      32.375265       0.04583
  48    0.1069       14.9355        0.0000       47.3106       47.3106      32.375179       0.04614
  47    0.1255       14.9355        0.0000       47.3105       47.3105      32.375076       0.04645
  46    0.1487       14.9355        0.0000       47.3104       47.3104      32.374943       0.04852
  45    0.1794       14.9355        0.0000       47.3102       47.3102      32.374756       0.05127
  44    0.2165       14.9355        0.0000       47.3100       47.3100      32.374529       0.05167
  43    0.2613       14.9354        0.0000       47.3097       47.3097      32.374253       0.05210
  42    0.3336       14.9354        0.0000       47.3092       47.3092      32.373784       0.05471
  41    0.4307       14.9354        0.0000       47.3085       47.3086      32.373149       0.05521
  40    0.5894       14.9354        0.0001       47.3074       47.3075      32.372089       0.05633
  39     1.339       14.9354        0.0002       47.3022       47.3024      32.366997       0.05733
  38     1.782       14.9353        0.0002       47.2991       47.2994      32.364027       0.05655
  37     2.292       14.9353        0.0003       47.2956       47.2959      32.360651       0.05591
  36     2.964       14.9352        0.0004       47.2912       47.2916      32.356333       0.05421
  35     3.853       14.9352        0.0005       47.2855       47.2860      32.350798       0.05252
  34     5.035       14.9351        0.0006       47.2780       47.2787      32.343618       0.05129
  33     6.613       14.9349        0.0008       47.2683       47.2692      32.334230       0.05019
  32     8.786       14.9348        0.0011       47.2556       47.2567      32.321931       0.04777
  31     11.80       14.9345        0.0015       47.2380       47.2395      32.305027       0.04732
  30     15.07       14.9342        0.0019       47.2201       47.2220      32.287739       0.04463
  29     18.79       14.9339        0.0024       47.2008       47.2032      32.269260       0.04190
  28     23.16       14.9336        0.0029       47.1795       47.1825      32.248869       0.03943
  27     28.12       14.9332        0.0036       47.1565       47.1601      32.226875       0.03739
  26     33.73       14.9327        0.0043       47.1324       47.1367      32.203954       0.03446
  25     40.54       14.9322        0.0051       47.1054       47.1105      32.178317       0.03181
  24     48.69       14.9315        0.0062       47.0754       47.0816      32.150063       0.02924
  23     57.69       14.9308        0.0073       47.0449       47.0523      32.121441       0.02683
  22     68.43       14.9300        0.0087       47.0110       47.0197      32.089703       0.02495
  21     81.20       14.9289        0.0103       46.9729       46.9831      32.054209       0.02345
  20     96.49       14.9277        0.0122       46.9294       46.9416      32.013867       0.02227
  19     114.6       14.9263        0.0145       46.8790       46.8935      31.967233       0.02177
  18     136.5       14.9246        0.0172       46.8200       46.8372      31.912608       0.02100
  17     162.9       14.9226        0.0204       46.7361       46.7566      31.833985       0.02513
  16     196.4       14.9201        0.0246       46.5703       46.5949      31.674783       0.04007
  15     218.7       14.9186        0.0273       46.3473       46.3746      31.456020       0.08306
  14     243.0       14.9172        0.0301       45.9299       45.9600      31.042786       0.14332
  13     269.0       14.9162        0.0329       45.1708       45.2037      30.287492       0.24501
  12     297.5       14.9162        0.0357       44.0115       44.0472      29.130991       0.34301
  11     328.5       14.9174        0.0385       42.7242       42.7628      27.845374       0.34956
  10     361.9       14.9204        0.0414       41.3539       41.3953      26.474890       0.34675
   9     398.1       14.9264        0.0442       39.7953       39.8395      24.913038       0.36388
   8     437.6       14.9371        0.0468       37.9948       38.0416      23.104463       0.38668
   7     480.5       14.9547        0.0493       36.0647       36.1141      21.159315       0.38202
   6     533.0       14.9884        0.0520       33.7773       33.8293      18.840901       0.37296
   5     589.8       15.0477        0.0545       31.4082       31.4627      16.414960       0.36009
   4     651.6       15.1622        0.0565       28.8834       28.9399      13.777672       0.36066
   3     718.7       15.3786        0.0583       26.4104       26.4687      11.090091       0.33775
   2     792.3       15.8238        0.0598       24.0056       24.0654       8.241602       0.32669
   1     891.5       10.1331       11.0549        4.5430       15.5980       5.464871       0.23629
   0    1013.0       10.8290       10.0368        3.9824       14.0192       3.190224       0.15794



 Wavenumbers:  7700. -  8050. cm-1, ATM      1
 LEVEL PRESSURE   UPWARD FLUX   DIFDOWN FLUX  DIRDOWN FLUX  DOWNWARD FLUX   NET FLUX    HEATING RATE
          mb          W/m2          W/m2          W/m2        W/m2          W/m2       degree/day
  51    .06700        7.3944        0.0000       11.1810       11.1810       3.786523       0.00000
  50    .07753        7.3944        0.0000       11.1809       11.1809       3.786501       0.01826
  49    .09103        7.3945        0.0000       11.1809       11.1809       3.786472       0.01790
  48    0.1069        7.3945        0.0000       11.1809       11.1809       3.786439       0.01752
  47    0.1255        7.3945        0.0000       11.1809       11.1809       3.786401       0.01715
  46    0.1487        7.3945        0.0000       11.1808       11.1808       3.786353       0.01740
  45    0.1794        7.3945        0.0000       11.1808       11.1808       3.786288       0.01790
  44    0.2165        7.3945        0.0000       11.1807       11.1807       3.786211       0.01756
  43    0.2613        7.3945        0.0000       11.1806       11.1806       3.786120       0.01723
  42    0.3336        7.3946        0.0000       11.1805       11.1805       3.785968       0.01763
  41    0.4307        7.3946        0.0000       11.1803       11.1804       3.785768       0.01744
  40    0.5894        7.3947        0.0000       11.1801       11.1801       3.785440       0.01742
  39     1.339        7.3950        0.0001       11.1788       11.1789       3.783890       0.01745
  38     1.782        7.3952        0.0001       11.1781       11.1782       3.782980       0.01733
  37     2.292        7.3954        0.0001       11.1772       11.1773       3.781926       0.01745
  36     2.964        7.3957        0.0002       11.1761       11.1762       3.780542       0.01737
  35     3.853        7.3961        0.0002       11.1746       11.1748       3.778714       0.01735
  34     5.035        7.3966        0.0003       11.1726       11.1729       3.776286       0.01735
  33     6.613        7.3973        0.0004       11.1700       11.1703       3.773042       0.01734
  32     8.786        7.3982        0.0005       11.1664       11.1669       3.768672       0.01697
  31     11.80        7.3996        0.0007       11.1613       11.1620       3.762424       0.01749
  30     15.07        7.4010        0.0009       11.1558       11.1567       3.755720       0.01731
  29     18.79        7.4026        0.0011       11.1497       11.1508       3.748153       0.01716
  28     23.16        7.4045        0.0014       11.1425       11.1439       3.739325       0.01707
  27     28.12        7.4067        0.0016       11.1343       11.1360       3.729242       0.01714
  26     33.73        7.4092        0.0020       11.1252       11.1272       3.717977       0.01694
  25     40.54        7.4122        0.0024       11.1142       11.1166       3.704395       0.01685
  24     48.69        7.4158        0.0028       11.1010       11.1039       3.688062       0.01690
  23     57.69        7.4198        0.0034       11.0866       11.0900       3.670175       0.01677
  22     68.43        7.4246        0.0040       11.0695       11.0735       3.648946       0.01669
  21     81.20        7.4303        0.0047       11.0494       11.0541       3.623761       0.01664
  20     96.49        7.4373        0.0056       11.0255       11.0312       3.593903       0.01648
  19     114.6        7.4455        0.0067       10.9975       11.0042       3.558661       0.01646
  18     136.5        7.4555        0.0079       10.9648       10.9727       3.517178       0.01595
  17     162.9        7.4675        0.0094       10.9263       10.9357       3.468162       0.01567
  16     196.4        7.4834        0.0113       10.8773       10.8886       3.405176       0.01585
  15     218.7        7.4940        0.0126       10.8455       10.8581       3.364111       0.01559
  14     243.0        7.5057        0.0139       10.8114       10.8254       3.319676       0.01541
  13     269.0        7.5186        0.0154       10.7749       10.7903       3.271671       0.01557
  12     297.5        7.5329        0.0170       10.7357       10.7527       3.219825       0.01538
  11     328.5        7.5487        0.0187       10.6937       10.7124       3.163772       0.01524
  10     361.9        7.5662        0.0206       10.6489       10.6694       3.103228       0.01532
   9     398.1        7.5857        0.0226       10.6008       10.6233       3.037611       0.01529
   8     437.6        7.6076        0.0247       10.5491       10.5738       2.966197       0.01527
   7     480.5        7.6321        0.0270       10.4934       10.5204       2.888304       0.01530
   6     533.0        7.6641        0.0298       10.4243       10.4541       2.789967       0.01582
   5     589.8        7.7014        0.0328       10.3479       10.3807       2.679298       0.01643
   4     651.6        7.7462        0.0361       10.2613       10.2974       2.551235       0.01751
   3     718.7        7.8010        0.0395       10.1618       10.2013       2.400274       0.01897
   2     792.3        7.8706        0.0432       10.0439       10.0871       2.216466       0.02108
   1     891.5        5.6173        5.4844        2.1105        7.5949       1.977611       0.02033
   0    1013.0        5.7377        5.3663        2.0565        7.4229       1.685202       0.02030



 Wavenumbers:  8050. - 12850. cm-1, ATM      1
 LEVEL PRESSURE   UPWARD FLUX   DIFDOWN FLUX  DIRDOWN FLUX  DOWNWARD FLUX   NET FLUX    HEATING RATE
          mb          W/m2          W/m2          W/m2        W/m2          W/m2       degree/day
  51    .06700       93.1106        0.0000      156.5418      156.5418      63.431138       0.00000
  50    .07753       93.1106        0.0000      156.5417      156.5417      63.431138      -0.00000
  49    .09103       93.1106        0.0001      156.5417      156.5417      63.431138      -0.00000
  48    0.1069       93.1106        0.0001      156.5416      156.5417      63.431138       0.00000
  47    0.1255       93.1105        0.0002      156.5415      156.5417      63.431138      -0.00000
  46    0.1487       93.1105        0.0002      156.5414      156.5417      63.431138       0.00000
  45    0.1794       93.1105        0.0003      156.5413      156.5416      63.431138       0.00000
  44    0.2165       93.1104        0.0004      156.5412      156.5416      63.431138      -0.00000
  43    0.2613       93.1104        0.0006      156.5410      156.5415      63.431138       0.00000
  42    0.3336       93.1103        0.0008      156.5407      156.5415      63.431138       0.00000
  41    0.4307       93.1102        0.0010      156.5403      156.5413      63.431138      -0.00000
  40    0.5894       93.1100        0.0015      156.5397      156.5412      63.431138       0.00000
  39     1.339       93.1092        0.0036      156.5367      156.5403      63.431138      -0.00000
  38     1.782       93.1087        0.0048      156.5350      156.5398      63.431138      -0.00000
  37     2.292       93.1081        0.0063      156.5330      156.5393      63.431138      -0.00000
  36     2.964       93.1074        0.0082      156.5303      156.5385      63.431138       0.00000
  35     3.853       93.1064        0.0107      156.5268      156.5375      63.431138       0.00000
  34     5.035       93.1051        0.0140      156.5222      156.5362      63.431138       0.00000
  33     6.613       93.1033        0.0184      156.5160      156.5344      63.431138      -0.00000
  32     8.786       93.1009        0.0244      156.5076      156.5321      63.431138       0.00000
  31     11.80       93.0975        0.0330      156.4957      156.5287      63.431138       0.00000
  30     15.07       93.0939        0.0422      156.4828      156.5250      63.431138       0.00000
  29     18.79       93.0898        0.0527      156.4682      156.5209      63.431138       0.00000
  28     23.16       93.0849        0.0649      156.4512      156.5161      63.431138      -0.00000
  27     28.12       93.0794        0.0788      156.4317      156.5105      63.431138       0.00000
  26     33.73       93.0732        0.0945      156.4099      156.5043      63.431138       0.00000
  25     40.54       93.0657        0.1134      156.3834      156.4968      63.431138       0.00000
  24     48.69       93.0566        0.1363      156.3515      156.4878      63.431138       0.00000
  23     57.69       93.0467        0.1614      156.3164      156.4778      63.431138      -0.00000
  22     68.43       93.0348        0.1914      156.2746      156.4659      63.431138      -0.00000
  21     81.20       93.0206        0.2272      156.2246      156.4518      63.431138      -0.00000
  20     96.49       93.0037        0.2699      156.1649      156.4348      63.431138       0.00000
  19     114.6       92.9837        0.3207      156.0879      156.4086      63.424910       0.00291
  18     136.5       92.9600        0.3810      155.9962      156.3772      63.417185       0.00297
  17     162.9       92.9318        0.4531      155.8831      156.3361      63.404367       0.00410
  16     196.4       92.8951        0.5467      155.7199      156.2667      63.371520       0.00827
  15     218.7       92.8713        0.6083      155.5733      156.1816      63.310273       0.02325
  14     243.0       92.8462        0.6752      155.3367      156.0119      63.165708       0.05014
  13     269.0       92.8208        0.7476      154.9514      155.6990      62.878247       0.09325
  12     297.5       92.7969        0.8256      154.3896      155.2152      62.418257       0.13643
  11     328.5       92.7757        0.9096      153.7151      154.6247      61.849003       0.15478
  10     361.9       92.7596        0.9998      152.9087      153.9085      61.148961       0.17712
   9     398.1       92.7526        1.0962      151.8986      152.9948      60.242257       0.21124
   8     437.6       92.7618        1.1988      150.6031      151.8019      59.040168       0.25701
   7     480.5       92.7956        1.3072      149.0014      150.3086      57.512963       0.29994
   6     533.0       92.8828        1.4383      146.7375      148.1759      55.293032       0.35712
   5     589.8       93.0612        1.5756      143.8730      145.4486      52.387415       0.43129
   4     651.6       93.4330        1.7164      140.0955      141.8119      48.378892       0.54818
   3     718.7       94.1448        1.8591      135.5278      137.3869      43.242052       0.64556
   2     792.3       95.5549        2.0003      130.0690      132.0694      36.514416       0.77158
   1     891.5       65.1171       67.2859       26.1362       93.4221      28.304996       0.69858
   0    1013.0       67.9145       63.6727       24.1727       87.8454      19.930858       0.58146



 Wavenumbers: 12850. - 16000. cm-1, ATM      1
 LEVEL PRESSURE   UPWARD FLUX   DIFDOWN FLUX  DIRDOWN FLUX  DOWNWARD FLUX   NET FLUX    HEATING RATE
          mb          W/m2          W/m2          W/m2        W/m2          W/m2       degree/day
  51    .06700       76.0221        0.0000       98.0872       98.0872      22.065136       0.00000
  50    .07753       76.0221        0.0001       98.0864       98.0864      22.064345       0.63417
  49    .09103       76.0221        0.0002       98.0853       98.0854      22.063351       0.62105
  48    0.1069       76.0221        0.0003       98.0841       98.0843      22.062209       0.60767
  47    0.1255       76.0221        0.0004       98.0826       98.0830      22.060898       0.59458
  46    0.1487       76.0221        0.0005       98.0809       98.0814      22.059243       0.60328
  45    0.1794       76.0222        0.0007       98.0784       98.0792      22.056992       0.61802
  44    0.2165       76.0222        0.0010       98.0756       98.0766      22.054344       0.60234
  43    0.2613       76.0223        0.0012       98.0723       98.0736      22.051230       0.58688
  42    0.3336       76.0226        0.0017       98.0670       98.0687      22.046149       0.59237
  41    0.4307       76.0229        0.0023       98.0602       98.0625      22.039580       0.57115
  40    0.5894       76.0237        0.0033       98.0496       98.0529      22.029233       0.55029
  39     1.339       76.0300        0.0081       98.0043       98.0124      21.982402       0.52723
  38     1.782       76.0358        0.0108       97.9793       97.9901      21.954325       0.53453
  37     2.292       76.0445        0.0141       97.9498       97.9638      21.919382       0.57875
  36     2.964       76.0588        0.0183       97.9088       97.9271      21.868302       0.64121
  35     3.853       76.0820        0.0239       97.8503       97.8742      21.792265       0.72161
  34     5.035       76.1168        0.0313       97.7680       97.7993      21.682459       0.78440
  33     6.613       76.1655        0.0412       97.6562       97.6974      21.531871       0.80505
  32     8.786       76.2289        0.0545       97.5107       97.5652      21.336295       0.75955
  31     11.80       76.3114        0.0736       97.3179       97.3914      21.080017       0.71750
  30     15.07       76.3905        0.0940       97.1283       97.2223      20.831850       0.64072
  29     18.79       76.4712        0.1171       96.9300       97.0471      20.575852       0.58043
  28     23.16       76.5557        0.1440       96.7166       96.8606      20.304872       0.52399
  27     28.12       76.6407        0.1748       96.4935       96.6682      20.027525       0.47147
  26     33.73       76.7194        0.2092       96.2731       96.4823      19.762907       0.39786
  25     40.54       76.7953        0.2508       96.0408       96.2915      19.496279       0.33078
  24     48.69       76.8682        0.3009       95.7946       96.0955      19.227278       0.27837
  23     57.69       76.9303        0.3560       95.5573       95.9133      18.982932       0.22904
  22     68.43       76.9849        0.4216       95.3106       95.7322      18.747376       0.18518
  21     81.20       77.0232        0.4999       95.0643       95.5643      18.541127       0.13629
  20     96.49       77.0441        0.5934       94.8153       95.4086      18.364520       0.09747
  19     114.6       77.0690        0.7054       94.5411       95.2464      18.177407       0.08737
  18     136.5       77.0876        0.8382       94.2320       95.0702      17.982569       0.07492
  17     162.9       77.0998        0.9963       93.8753       94.8716      17.771803       0.06737
  16     196.4       77.0943        1.2013       93.4347       94.6360      17.541689       0.05792
  15     218.7       77.0831        1.3360       93.1513       94.4872      17.404137       0.05222
  14     243.0       77.0678        1.4823       92.8439       94.3263      17.258447       0.05053
  13     269.0       77.0484        1.6409       92.5111       94.1520      17.103657       0.05021
  12     297.5       77.0253        1.8122       92.1495       93.9617      16.936385       0.04961
  11     328.5       77.0007        1.9974       91.7554       93.7528      16.752047       0.05012
  10     361.9       76.9755        2.1967       91.3262       93.5229      16.547428       0.05177
   9     398.1       76.9510        2.4111       90.8575       93.2687      16.317632       0.05354
   8     437.6       76.9304        2.6413       90.3418       92.9831      16.052667       0.05665
   7     480.5       76.9166        2.8878       89.7728       92.6606      15.744017       0.06062
   6     533.0       76.9156        3.1909       89.0428       92.2337      15.318075       0.06852
   5     589.8       76.9445        3.5165       88.2038       91.7203      14.775841       0.08049
   4     651.6       77.0367        3.8644       87.1979       91.0624      14.025685       0.10259
   3     718.7       77.2167        4.2330       86.0161       90.2491      13.032450       0.12482
   2     792.3       77.5597        4.6184       84.5970       89.2155      11.655804       0.15789
   1     891.5       62.1284       54.1878       17.6392       71.8270       9.698561       0.16655
   0    1013.0       63.1436       53.2853       17.0360       70.3213       7.177675       0.17504



 Wavenumbers: 16000. - 22650. cm-1, ATM      1
 LEVEL PRESSURE   UPWARD FLUX   DIFDOWN FLUX  DIRDOWN FLUX  DOWNWARD FLUX   NET FLUX    HEATING RATE
          mb          W/m2          W/m2          W/m2        W/m2          W/m2       degree/day
  51    .06700      140.4296        0.0000      156.3892      156.3892      15.959640       0.00000
  50    .07753      140.4296        0.0004      156.3887      156.3891      15.959493       0.11805
  49    .09103      140.4296        0.0009      156.3879      156.3888      15.959279       0.13389
  48    0.1069      140.4296        0.0015      156.3871      156.3885      15.958992       0.15268
  47    0.1255      140.4296        0.0021      156.3861      156.3882      15.958608       0.17404
  46    0.1487      140.4296        0.0030      156.3847      156.3877      15.958042       0.20623
  45    0.1794      140.4297        0.0041      156.3828      156.3869      15.957157       0.24282
  44    0.2165      140.4300        0.0054      156.3805      156.3859      15.955958       0.27291
  43    0.2613      140.4303        0.0070      156.3776      156.3846      15.954330       0.30681
  42    0.3336      140.4310        0.0096      156.3726      156.3823      15.951235       0.36081
  41    0.4307      140.4323        0.0131      156.3657      156.3788      15.946571       0.40559
  40    0.5894      140.4348        0.0188      156.3537      156.3725      15.937674       0.47310
  39     1.339      140.4573        0.0458      156.2834      156.3292      15.871947       0.73997
  38     1.782      140.4780        0.0616      156.2324      156.2940      15.815955       1.06599
  37     2.292      140.5091        0.0799      156.1641      156.2440      15.734907       1.34238
  36     2.964      140.5608        0.1040      156.0605      156.1644      15.603607       1.64820
  35     3.853      140.6445        0.1357      155.9041      156.0398      15.395268       1.97718
  34     5.035      140.7707        0.1778      155.6774      155.8552      15.084444       2.22040
  33     6.613      140.9471        0.2340      155.3656      155.5996      14.652491       2.30922
  32     8.786      141.1768        0.3096      154.9577      155.2673      14.090428       2.18285
  31     11.80      141.4758        0.4177      154.4153      154.8329      13.357090       2.05312
  30     15.07      141.7622        0.5335      153.8804      154.4139      12.651652       1.82130
  29     18.79      142.0545        0.6641      153.3191      153.9832      11.928653       1.63926
  28     23.16      142.3600        0.8165      152.7126      153.5290      11.168979       1.46896
  27     28.12      142.6674        0.9904      152.0755      153.0659      10.398554       1.30967
  26     33.73      142.9509        1.1849      151.4409      152.6258       9.674905       1.08803
  25     40.54      143.2237        1.4197      150.7637      152.1834       8.959691       0.88730
  24     48.69      143.4846        1.7024      150.0338      151.7363       8.251630       0.73273
  23     57.69      143.7057        2.0126      149.3151      151.3278       7.622102       0.59009
  22     68.43      143.8981        2.3817      148.5476      150.9293       7.031151       0.46457
  21     81.20      144.0304        2.8211      147.7517      150.5727       6.542304       0.32302
  20     96.49      144.0981        3.3441      146.9127      150.2568       6.158688       0.21173
  19     114.6      144.1322        3.9633      145.9763      149.9396       5.807459       0.16400
  18     136.5      144.1413        4.6945      144.9088      149.6033       5.461946       0.13286
  17     162.9      144.1238        5.5611      143.6785      149.2397       5.115847       0.11063
  16     196.4      144.0398        6.6793      142.1651      148.8444       4.804572       0.07835
  15     218.7      143.9621        7.4100      141.2033      148.6133       4.651225       0.05822
  14     243.0      143.8674        8.2008      140.1753      148.3762       4.508798       0.04940
  13     269.0      143.7540        9.0540      139.0797      148.1337       4.379701       0.04188
  12     297.5      143.6213        9.9716      137.9141      147.8856       4.264308       0.03422
  11     328.5      143.4733       10.9578      136.6676      147.6254       4.152003       0.03054
  10     361.9      143.3098       12.0135      135.3392      147.3527       4.042920       0.02760
   9     398.1      143.1302       13.1429      133.9235      147.0664       3.936164       0.02487
   8     437.6      142.9356       14.3479      132.4163      146.7642       3.828587       0.02300
   7     480.5      142.7255       15.6307      130.8147      146.4453       3.719888       0.02135
   6     533.0      142.4670       17.1973      128.8599      146.0573       3.590272       0.02085
   5     589.8      142.1925       18.8712      126.7679      145.6392       3.446688       0.02131
   4     651.6      141.9085       20.6540      124.5274      145.1814       3.272964       0.02376
   3     718.7      141.6212       22.5473      122.1285      144.6757       3.054547       0.02745
   2     792.3      141.3478       24.5490      119.5548      144.1038       2.755998       0.03424
   1     891.5      125.1458      102.5876       24.8288      127.4164       2.270655       0.04130
   0    1013.0      125.3302      102.9719       23.9268      126.8987       1.568545       0.04875



 Wavenumbers: 22650. - 29000. cm-1, ATM      1
 LEVEL PRESSURE   UPWARD FLUX   DIFDOWN FLUX  DIRDOWN FLUX  DOWNWARD FLUX   NET FLUX    HEATING RATE
          mb          W/m2          W/m2          W/m2        W/m2          W/m2       degree/day
  51    .06700       58.3907        0.0000       59.0156       59.0156       0.624883       0.00000
  50    .07753       58.3906        0.0005       59.0151       59.0155       0.624883      -0.00000
  49    .09103       58.3905        0.0010       59.0144       59.0154       0.624883       0.00000
  48    0.1069       58.3904        0.0017       59.0136       59.0153       0.624883      -0.00000
  47    0.1255       58.3902        0.0025       59.0127       59.0151       0.624883       0.00000
  46    0.1487       58.3901        0.0034       59.0115       59.0149       0.624883      -0.00000
  45    0.1794       58.3898        0.0048       59.0099       59.0147       0.624883      -0.00000
  44    0.2165       58.3895        0.0063       59.0080       59.0144       0.624883       0.00000
  43    0.2613       58.3891        0.0082       59.0058       59.0140       0.624883      -0.00000
  42    0.3336       58.3885        0.0113       59.0022       59.0134       0.624883       0.00000
  41    0.4307       58.3877        0.0153       58.9973       59.0126       0.624883      -0.00000
  40    0.5894       58.3864        0.0220       58.9894       59.0113       0.624883       0.00000
  39     1.339       58.3803        0.0534       58.9518       59.0052       0.624883       0.00000
  38     1.782       58.3767        0.0719       58.9297       59.0016       0.624883       0.00000
  37     2.292       58.3725        0.0933       58.9042       58.9974       0.624883       0.00000
  36     2.964       58.3671        0.1213       58.8706       58.9920       0.624883      -0.00000
  35     3.853       58.3599        0.1584       58.8264       58.9847       0.624883       0.00000
  34     5.035       58.3503        0.2076       58.7676       58.9752       0.624883       0.00000
  33     6.613       58.3375        0.2733       58.6891       58.9623       0.624883      -0.00000
  32     8.786       58.3202        0.3617       58.5834       58.9451       0.624883       0.00000
  31     11.80       58.2956        0.4880       58.4324       58.9205       0.624883       0.00000
  30     15.07       58.2692        0.6234       58.2706       58.8941       0.624883      -0.00000
  29     18.79       58.2394        0.7761       58.0882       58.8643       0.624883       0.00000
  28     23.16       58.2047        0.9539       57.8757       58.8296       0.624883      -0.00000
  27     28.12       58.1652        1.1567       57.6333       58.7901       0.624883       0.00000
  26     33.73       58.1211        1.3829       57.3631       58.7460       0.624883       0.00000
  25     40.54       58.0680        1.6550       57.0379       58.6929       0.624883       0.00000
  24     48.69       58.0043        1.9813       56.6479       58.6292       0.624883       0.00000
  23     57.69       57.9348        2.3376       56.2221       58.5597       0.624883      -0.00000
  22     68.43       57.8526        2.7589       55.7186       58.4775       0.624883       0.00000
  21     81.20       57.7554        3.2564       55.1239       58.3803       0.624883       0.00000
  20     96.49       57.6408        3.8429       54.4228       58.2657       0.624883      -0.00000
  19     114.6       57.5065        4.5304       53.6010       58.1314       0.624883       0.00000
  18     136.5       57.3496        5.3327       52.6418       57.9745       0.624883       0.00000
  17     162.9       57.1661        6.2707       51.5203       57.7910       0.624883       0.00000
  16     196.4       56.9334        7.4589       50.0994       57.5583       0.624883      -0.00000
  15     218.7       56.7838        8.2224       49.1863       57.4087       0.624883       0.00000
  14     243.0       56.6240        9.0376       48.2113       57.2488       0.624883      -0.00000
  13     269.0       56.4540        9.9039       47.1749       57.0788       0.624883       0.00000
  12     297.5       56.2739       10.8205       46.0783       56.8988       0.624883      -0.00000
  11     328.5       56.0836       11.7889       44.9195       56.7084       0.624883       0.00000
  10     361.9       55.8833       12.8064       43.7018       56.5082       0.624883       0.00000
   9     398.1       55.6732       13.8730       42.4250       56.2981       0.624883       0.00000
   8     437.6       55.4535       14.9868       41.0916       56.0784       0.624883      -0.00000
   7     480.5       55.2247       16.1451       39.7045       55.8496       0.624883       0.00000
   6     533.0       54.9521       17.5227       38.0543       55.5770       0.624883       0.00000
   5     589.8       54.6690       18.9508       36.3431       55.2939       0.624883      -0.00000
   4     651.6       54.3766       20.4220       34.5795       55.0015       0.624883       0.00000
   3     718.7       54.0760       21.9307       32.7702       54.7009       0.624883       0.00000
   2     792.3       53.7688       23.4681       30.9256       54.3937       0.624883      -0.00000
   1     891.5       49.4655       43.9757        6.1146       50.0903       0.624737       0.00001
   0    1013.0       49.3546       44.4235        5.5558       49.9793       0.624737       0.00000



 Wavenumbers: 29000. - 38000. cm-1, ATM      1
 LEVEL PRESSURE   UPWARD FLUX   DIFDOWN FLUX  DIRDOWN FLUX  DOWNWARD FLUX   NET FLUX    HEATING RATE
          mb          W/m2          W/m2          W/m2        W/m2          W/m2       degree/day
  51    .06700        8.7390        0.0000       20.8114       20.8114      12.072361       0.00000
  50    .07753        8.7388        0.0003       20.8070       20.8074      12.068553       3.05152
  49    .09103        8.7386        0.0007       20.8009       20.8016      12.063016       3.46082
  48    0.1069        8.7383        0.0012       20.7928       20.7939      12.055607       3.94425
  47    0.1255        8.7380        0.0017       20.7820       20.7837      12.045702       4.49030
  46    0.1487        8.7377        0.0024       20.7665       20.7688      12.031139       5.30839
  45    0.1794        8.7372        0.0033       20.7424       20.7457      12.008474       6.22198
  44    0.2165        8.7367        0.0044       20.7103       20.7147      11.977952       6.94333
  43    0.2613        8.7361        0.0056       20.6675       20.6731      11.936957       7.72725
  42    0.3336        8.7352        0.0077       20.5880       20.5956      11.860397       8.92616
  41    0.4307        8.7342        0.0104       20.4722       20.4826      11.748446       9.73392
  40    0.5894        8.7326        0.0147       20.2637       20.2784      11.545765      10.77834
  39     1.339        8.7292        0.0331       19.0984       19.1315      10.402306      12.87327
  38     1.782        8.7296        0.0427       18.4394       18.4820       9.752397      12.37322
  37     2.292        8.7323        0.0530       17.7714       17.8244       9.092074      10.93667
  36     2.964        8.7388        0.0657       17.0421       17.1078       8.368984       9.07696
  35     3.853        8.7515        0.0816       16.2678       16.3494       7.597859       7.31812
  34     5.035        8.7726        0.1017       15.4803       15.5820       6.809444       5.63211
  33     6.613        8.8032        0.1275       14.7157       14.8432       6.039971       4.11360
  32     8.786        8.8436        0.1612       13.9936       14.1548       5.311165       2.83042
  31     11.80        8.8964        0.2082       13.2835       13.4918       4.595389       2.00395
  30     15.07        8.9473        0.2570       12.7394       12.9964       4.049096       1.41042
  29     18.79        8.9998        0.3111       12.2666       12.5777       3.577836       1.06849
  28     23.16        9.0556        0.3725       11.8300       12.2025       3.146894       0.83330
  27     28.12        9.1128        0.4414       11.4279       11.8692       2.756403       0.66381
  26     33.73        9.1656        0.5172       11.0695       11.5867       2.421089       0.50415
  25     40.54        9.2156        0.6079       10.7209       11.3287       2.113113       0.38208
  24     48.69        9.2628        0.7154       10.3742       11.0896       1.826749       0.29634
  23     57.69        9.3015        0.8318       10.0549       10.8867       1.585162       0.22645
  22     68.43        9.3328        0.9683        9.7327       10.7011       1.368289       0.17049
  21     81.20        9.3476        1.1295        9.4134       10.5430       1.195360       0.11427
  20     96.49        9.3441        1.3191        9.0887       10.4078       1.063725       0.07265
  19     114.6        9.3302        1.5380        8.7388       10.2768       0.946558       0.05471
  18     136.5        9.3091        1.7883        8.3549       10.1432       0.834137       0.04323
  17     162.9        9.2807        2.0737        7.9311       10.0048       0.724069       0.03518
  16     196.4        9.2332        2.4271        7.4333        9.8604       0.627192       0.02439
  15     218.7        9.1990        2.6494        7.1295        9.7789       0.579945       0.01794
  14     243.0        9.1615        2.8817        6.8161        9.6978       0.536319       0.01513
  13     269.0        9.1205        3.1233        6.4943        9.6176       0.497147       0.01271
  12     297.5        9.0761        3.3730        6.1657        9.5387       0.462618       0.01024
  11     328.5        9.0298        3.6299        5.8295        9.4593       0.429560       0.00899
  10     361.9        8.9819        3.8914        5.4886        9.3801       0.398123       0.00795
   9     398.1        8.9327        4.1571        5.1440        9.3010       0.368331       0.00694
   8     437.6        8.8826        4.4253        4.7969        9.2222       0.339614       0.00614
   7     480.5        8.8320        4.6940        4.4504        9.1444       0.312357       0.00535
   6     533.0        8.7739        5.0003        4.0563        9.0565       0.282645       0.00478
   5     589.8        8.7166        5.3022        3.6682        8.9704       0.253879       0.00427
   4     651.6        8.6609        5.5962        3.2905        8.8867       0.225738       0.00385
   3     718.7        8.6075        5.8804        2.9252        8.8056       0.198178       0.00346
   2     792.3        8.5570        6.1517        2.5764        8.7282       0.171204       0.00309
   1     891.5        8.1450        7.8205        0.4634        8.2839       0.138945       0.00275
   0    1013.0        8.1393        7.8683        0.3750        8.2433       0.104015       0.00243



 Wavenumbers: 38000. - 50000. cm-1, ATM      1
 LEVEL PRESSURE   UPWARD FLUX   DIFDOWN FLUX  DIRDOWN FLUX  DOWNWARD FLUX   NET FLUX    HEATING RATE
          mb          W/m2          W/m2          W/m2        W/m2          W/m2       degree/day
  51    .06700        0.0061        0.0000        1.2836        1.2836       1.277518       0.00000
  50    .07753        0.0061        0.0001        1.2812        1.2812       1.275183       1.87150
  49    .09103        0.0060        0.0002        1.2777        1.2778       1.271851       2.08247
  48    0.1069        0.0059        0.0002        1.2731        1.2734       1.267473       2.33059
  47    0.1255        0.0058        0.0004        1.2672        1.2675       1.261717       2.60908
  46    0.1487        0.0057        0.0005        1.2586        1.2591       1.253391       3.03499
  45    0.1794        0.0055        0.0007        1.2455        1.2462       1.240623       3.50520
  44    0.2165        0.0054        0.0009        1.2282        1.2291       1.223697       3.85037
  43    0.2613        0.0052        0.0011        1.2054        1.2065       1.201348       4.21261
  42    0.3336        0.0049        0.0015        1.1639        1.1654       1.160524       4.75970
  41    0.4307        0.0045        0.0020        1.1051        1.1070       1.102565       5.03943
  40    0.5894        0.0039        0.0026        1.0039        1.0064       1.002524       5.32007
  39     1.339        0.0022        0.0035        0.5438        0.5473       0.545104       5.14971
  38     1.782        0.0016        0.0032        0.3635        0.3666       0.365006       3.42879
  37     2.292        0.0012        0.0027        0.2356        0.2383       0.237058       2.11916
  36     2.964        0.0009        0.0022        0.1455        0.1477       0.146786       1.13318
  35     3.853        0.0006        0.0017        0.0858        0.0875       0.086906       0.56828
  34     5.035        0.0004        0.0013        0.0488        0.0501       0.049701       0.26578
  33     6.613        0.0003        0.0010        0.0273        0.0282       0.027974       0.11615
  32     8.786        0.0002        0.0007        0.0144        0.0151       0.014928       0.05067
  31     11.80        0.0001        0.0004        0.0065        0.0070       0.006903       0.02247
  30     15.07        0.0000        0.0003        0.0031        0.0034       0.003329       0.00923
  29     18.79        0.0000        0.0002        0.0014        0.0016       0.001583       0.00396
  28     23.16        0.0000        0.0001        0.0006        0.0007       0.000720       0.00167
  27     28.12        0.0000        0.0001        0.0003        0.0003       0.000317       0.00069
  26     33.73        0.0000        0.0000        0.0001        0.0001       0.000140       0.00027
  25     40.54        0.0000        0.0000        0.0000        0.0001       0.000057       0.00010
  24     48.69        0.0000        0.0000        0.0000        0.0000       0.000021       0.00004
  23     57.69        0.0000        0.0000        0.0000        0.0000       0.000008       0.00001
  22     68.43        0.0000        0.0000        0.0000        0.0000       0.000003       0.00000
  21     81.20        0.0000        0.0000        0.0000        0.0000       0.000001       0.00000
  20     96.49        0.0000        0.0000        0.0000        0.0000       0.000000       0.00000
  19     114.6        0.0000        0.0000        0.0000        0.0000       0.000000       0.00000
  18     136.5        0.0000        0.0000        0.0000        0.0000       0.000000       0.00000
  17     162.9        0.0000        0.0000        0.0000        0.0000       0.000000       0.00000
  16     196.4        0.0000        0.0000        0.0000        0.0000       0.000000       0.00000
  15     218.7        0.0000        0.0000        0.0000        0.0000       0.000000       0.00000
  14     243.0        0.0000        0.0000        0.0000        0.0000       0.000000       0.00000
  13     269.0        0.0000        0.0000        0.0000        0.0000       0.000000       0.00000
  12     297.5        0.0000        0.0000        0.0000        0.0000       0.000000       0.00000
  11     328.5        0.0000        0.0000        0.0000        0.0000       0.000000       0.00000
  10     361.9        0.0000        0.0000        0.0000        0.0000       0.000000       0.00000
   9     398.1        0.0000        0.0000        0.0000        0.0000       0.000000       0.00000
   8     437.6        0.0000        0.0000        0.0000        0.0000       0.000000       0.00000
   7     480.5        0.0000        0.0000        0.0000        0.0000       0.000000       0.00000
   6     533.0        0.0000        0.0000        0.0000        0.0000       0.000000       0.00000
   5     589.8        0.0000        0.0000        0.0000        0.0000       0.000000       0.00000
   4     651.6        0.0000        0.0000        0.0000        0.0000       0.000000       0.00000
   3     718.7        0.0000        0.0000        0.0000        0.0000       0.000000       0.00000
   2     792.3        0.0000        0.0000        0.0000        0.0000       0.000000       0.00000
   1     891.5        0.0000        0.0000        0.0000        0.0000       0.000000       0.00000
   0    1013.0        0.0000        0.0000        0.0000        0.0000       0.000000       0.00000



 Wavenumbers:   820. -  2600. cm-1, ATM      1
 LEVEL PRESSURE   UPWARD FLUX   DIFDOWN FLUX  DIRDOWN FLUX  DOWNWARD FLUX   NET FLUX    HEATING RATE
          mb          W/m2          W/m2          W/m2        W/m2          W/m2       degree/day
  51    .06700        1.1344        0.0000        6.0047        6.0047       4.870292       0.00000
  50    .07753        1.1344        0.0000        6.0008        6.0008       4.866439       3.08822
  49    .09103        1.1344        0.0000        5.9999        5.9999       4.865554       0.55359
  48    0.1069        1.1344        0.0000        5.9989        5.9989       4.864564       0.52654
  47    0.1255        1.1344        0.0000        5.9978        5.9978       4.863447       0.50651
  46    0.1487        1.1344        0.0000        5.9964        5.9964       4.862090       0.49458
  45    0.1794        1.1344        0.0000        5.9947        5.9947       4.860371       0.47201
  44    0.2165        1.1344        0.0000        5.9929        5.9929       4.858529       0.41912
  43    0.2613        1.1344        0.0000        5.9909        5.9909       4.856569       0.36935
  42    0.3336        1.1344        0.0000        5.9880        5.9880       4.853691       0.33558
  41    0.4307        1.1344        0.0000        5.9846        5.9846       4.850221       0.30167
  40    0.5894        1.1344        0.0000        5.9791        5.9791       4.844716       0.29278
  39     1.339        1.1344        0.0000        5.9536        5.9536       4.819227       0.28696
  38     1.782        1.1344        0.0000        5.9395        5.9395       4.805087       0.26919
  37     2.292        1.1344        0.0000        5.9237        5.9237       4.789335       0.26090
  36     2.964        1.1344        0.0000        5.9039        5.9039       4.769559       0.24825
  35     3.853        1.1344        0.0000        5.8793        5.8793       4.744901       0.23401
  34     5.035        1.1344        0.0000        5.8487        5.8487       4.714335       0.21835
  33     6.613        1.1344        0.0000        5.8108        5.8108       4.676366       0.20298
  32     8.786        1.1344        0.0000        5.7631        5.7631       4.628736       0.18498
  31     11.80        1.1344        0.0000        5.7039        5.7039       4.569471       0.16593
  30     15.07        1.1344        0.0000        5.6539        5.6539       4.519422       0.12922
  29     18.79        1.1345        0.0000        5.6127        5.6127       4.478274       0.09329
  28     23.16        1.1345        0.0000        5.5794        5.5794       4.444883       0.06457
  27     28.12        1.1345        0.0000        5.5518        5.5518       4.417298       0.04689
  26     33.73        1.1345        0.0000        5.5268        5.5268       4.392224       0.03770
  25     40.54        1.1346        0.0000        5.4993        5.4993       4.364752       0.03408
  24     48.69        1.1346        0.0000        5.4678        5.4678       4.333175       0.03268
  23     57.69        1.1347        0.0000        5.4340        5.4340       4.299347       0.03171
  22     68.43        1.1347        0.0000        5.3947        5.3948       4.260022       0.03091
  21     81.20        1.1348        0.0000        5.3497        5.3497       4.214926       0.02980
  20     96.49        1.1349        0.0000        5.2982        5.2982       4.163334       0.02848
  19     114.6        1.1350        0.0000        5.2389        5.2389       4.103914       0.02774
  18     136.5        1.1351        0.0000        5.1716        5.1717       4.036534       0.02591
  17     162.9        1.1353        0.0000        5.0890        5.0891       3.953726       0.02647
  16     196.4        1.1357        0.0000        4.9668        4.9668       3.831179       0.03085
  15     218.7        1.1360        0.0000        4.8585        4.8585       3.722495       0.04126
  14     243.0        1.1365        0.0000        4.7078        4.7079       3.571358       0.05242
  13     269.0        1.1373        0.0000        4.5343        4.5343       3.396999       0.05656
  12     297.5        1.1385        0.0000        4.3419        4.3420       3.203425       0.05741
  11     328.5        1.1402        0.0000        4.1281        4.1281       2.987912       0.05860
  10     361.9        1.1425        0.0000        3.8786        3.8787       2.736188       0.06369
   9     398.1        1.1454        0.0000        3.6159        3.6160       2.470524       0.06189
   8     437.6        1.1492        0.0000        3.3759        3.3759       2.226644       0.05214
   7     480.5        1.1539        0.0000        3.1957        3.1958       2.041845       0.03629
   6     533.0        1.1611        0.0000        3.0467        3.0467       1.885595       0.02514
   5     589.8        1.1717        0.0000        2.9023        2.9023       1.730584       0.02301
   4     651.6        1.1904        0.0000        2.7183        2.7184       1.527984       0.02771
   3     718.7        1.2226        0.0001        2.5058        2.5059       1.283260       0.03075
   2     792.3        1.2835        0.0001        2.2756        2.2757       0.992158       0.03339
   1     891.5        0.6931        0.9229        0.4198        1.3427       0.649619       0.02915
   0    1013.0        0.8347        0.7519        0.3310        1.0829       0.248199       0.02787

  Modules and versions used in this calculation:

       rrtmg_sw.1col.f90:  $Revision$                    rrtmg_sw_init.f90:  $Revision$        
     rrtmgsw_cldprop.f90:  $Revision$                  rrtmgsw_cldprmc.f90:  NOT USED          
     rrtmg_sw_reftra.f90:  $Revision$                  rrtmg_sw_spcvrt.f90:  NOT USED          
     rrtmg_sw_spcvmc.f90:  NOT USED                    rrtmgsw_setcoef.f90:  NOT USED          
     rrtmg_sw_taumol.f90:  $Revision$                  rrtmg_sw_vrtqdr.f90:  NOT USED          
                rrtatm.f:  NOT USED                             util_xxx.f:  NOT USED          
                 extra.f:  NOT USED                       rrtmg_sw_k_g.f90:  $Revision$        

