

 Wavenumbers:   820. - 50000. cm-1, ATM      1
 LEVEL PRESSURE   UPWARD FLUX   DIFDOWN FLUX  DIRDOWN FLUX  DOWNWARD FLUX   NET FLUX    HEATING RATE
          mb          W/m2          W/m2          W/m2        W/m2          W/m2       degree/day
  51    .06700      426.2867        0.0000      617.8126      617.8126     191.525912       0.00000
  50    .07753      426.2863        0.0013      617.7947      617.7961     191.509772      12.93693
  49    .09103      426.2858        0.0030      617.7778      617.7808     191.494961       9.25684
  48    0.1069      426.2854        0.0050      617.7581      617.7631     191.477699       9.18866
  47    0.1255      426.2848        0.0072      617.7340      617.7412     191.456354       9.67690
  46    0.1487      426.2843        0.0100      617.7009      617.7109     191.426668      10.82091
  45    0.1794      426.2835        0.0139      617.6521      617.6660     191.382437      12.14255
  44    0.2165      426.2828        0.0184      617.5895      617.6079     191.325115      13.03962
  43    0.2613      426.2821        0.0238      617.5089      617.5327     191.250603      14.04528
  42    0.3336      426.2812        0.0326      617.3641      617.3967     191.115519      15.74942
  41    0.4307      426.2805        0.0442      617.1591      617.2034     190.922899      16.74790
  40    0.5894      426.2803        0.0630      616.8005      616.8635     190.583216      18.06392
  39     1.339      426.2974        0.1478      614.9443      615.0921     188.794699      20.13545
  38     1.782      426.3200        0.1955      613.9670      614.1625     187.842539      18.12759
  37     2.292      426.3576        0.2498      613.0059      613.2557     186.898084      15.64265
  36     2.964      426.4242        0.3204      611.9577      612.2781     185.853874      13.10799
  35     3.853      426.5361        0.4130      610.8024      611.2154     184.679298      11.14694
  34     5.035      426.7082        0.5351      609.5327      610.0678     183.359577       9.42754
  33     6.613      426.9508        0.6972      608.1464      608.8436     181.892878       7.84097
  32     8.786      427.2667        0.9147      606.6250      607.5397     180.273046       6.29084
  31     11.80      427.6757        1.2243      604.8486      606.0730     178.397309       5.25147
  30     15.07      428.0648        1.5547      603.2440      604.7987     176.733901       4.29459
  29     18.79      428.4597        1.9265      601.6511      603.5776     175.117950       3.66386
  28     23.16      428.8695        2.3585      599.9927      602.3512     173.481703       3.16397
  27     28.12      429.2778        2.8502      598.2881      601.1382     171.860393       2.75612
  26     33.73      429.6467        3.3983      596.5951      599.9934     170.346742       2.27581
  25     40.54      429.9896        4.0583      594.7727      598.8310     168.841392       1.86756
  24     48.69      430.3035        4.8501      592.7865      597.6366     167.333163       1.56078
  23     57.69      430.5518        5.7158      590.7959      596.5117     165.959886       1.28724
  22     68.43      430.7428        6.7413      588.6191      595.3604     164.617557       1.05525
  21     81.20      430.8249        7.9571      586.2690      594.2261     163.401187       0.80376
  20     96.49      430.7879        9.3967      583.6961      593.0928     162.304938       0.60505
  19     114.6      430.6899       11.0903      580.7708      591.8611     161.171176       0.52939
  18     136.5      430.5296       13.0734      577.4359      590.5093     159.979649       0.45817
  17     162.9      430.3011       15.4006      573.5624      588.9630     158.661956       0.42119
  16     196.4      429.9179       18.3684      568.5907      586.9591     157.041192       0.40797
  15     218.7      429.6381       20.2873      565.0572      585.3445     155.706369       0.50678
  14     243.0      429.3258       22.3454      560.7495      583.0949     153.769040       0.67193
  13     269.0      428.9820       24.5441      555.3947      579.9388     150.956853       0.91226
  12     297.5      428.6110       26.8842      548.9964      575.8805     147.269548       1.09361
  11     328.5      428.2223       29.3720      542.0895      571.4615     143.239202       1.09584
  10     361.9      427.8226       32.0038      534.6242      566.6280     138.805452       1.12178
   9     398.1      427.4206       34.7842      526.4204      561.2046     133.784025       1.16988
   8     437.6      427.0345       37.7117      517.3907      555.1023     128.067842       1.22216
   7     480.5      426.6833       40.7844      507.7216      548.5060     121.822679       1.22653
   6     533.0      426.3678       44.4786      495.9006      540.3792     114.011455       1.25658
   5     589.8      426.2392       48.3550      483.0788      531.4339     105.194629       1.30871
   4     651.6      426.5348       52.4009      468.6907      521.0916      94.556779       1.45475
   3     718.7      427.5749       56.6082      453.2257      509.8339      82.259042       1.54548
   2     792.3      430.1874       60.9549      436.4928      497.4477      67.260338       1.72018
   1     891.5      330.4898      335.6193       45.7395      381.3589      50.869075       1.39482
   0    1013.0      335.8400      328.2986       42.9193      371.2179      35.377816       1.07564



 Wavenumbers:  2600. -  3250. cm-1, ATM      1
 LEVEL PRESSURE   UPWARD FLUX   DIFDOWN FLUX  DIRDOWN FLUX  DOWNWARD FLUX   NET FLUX    HEATING RATE
          mb          W/m2          W/m2          W/m2        W/m2          W/m2       degree/day
  51    .06700        1.6228        0.0000        5.4450        5.4450       3.822254       0.00000
  50    .07753        1.6228        0.0000        5.4450        5.4450       3.822246       0.00640
  49    .09103        1.6228        0.0000        5.4450        5.4450       3.822236       0.00627
  48    0.1069        1.6228        0.0000        5.4450        5.4450       3.822225       0.00613
  47    0.1255        1.6228        0.0000        5.4450        5.4450       3.822212       0.00599
  46    0.1487        1.6228        0.0000        5.4450        5.4450       3.822195       0.00608
  45    0.1794        1.6228        0.0000        5.4450        5.4450       3.822172       0.00625
  44    0.2165        1.6228        0.0000        5.4449        5.4449       3.822145       0.00612
  43    0.2613        1.6228        0.0000        5.4449        5.4449       3.822114       0.00600
  42    0.3336        1.6228        0.0000        5.4448        5.4448       3.822061       0.00617
  41    0.4307        1.6228        0.0000        5.4448        5.4448       3.821989       0.00620
  40    0.5894        1.6228        0.0000        5.4446        5.4446       3.821870       0.00637
  39     1.339        1.6228        0.0000        5.4439        5.4439       3.821162       0.00797
  38     1.782        1.6228        0.0000        5.4434        5.4434       3.820619       0.01034
  37     2.292        1.6228        0.0000        5.4427        5.4427       3.819903       0.01186
  36     2.964        1.6228        0.0000        5.4416        5.4416       3.818864       0.01304
  35     3.853        1.6228        0.0000        5.4402        5.4402       3.817387       0.01402
  34     5.035        1.6228        0.0000        5.4381        5.4381       3.815331       0.01468
  33     6.613        1.6228        0.0000        5.4353        5.4353       3.812550       0.01487
  32     8.786        1.6228        0.0000        5.4317        5.4317       3.808917       0.01411
  31     11.80        1.6228        0.0000        5.4269        5.4269       3.804136       0.01339
  30     15.07        1.6228        0.0000        5.4224        5.4224       3.799607       0.01169
  29     18.79        1.6228        0.0000        5.4180        5.4180       3.795193       0.01001
  28     23.16        1.6228        0.0000        5.4135        5.4135       3.790703       0.00868
  27     28.12        1.6228        0.0000        5.4088        5.4088       3.786050       0.00791
  26     33.73        1.6228        0.0000        5.4036        5.4036       3.780801       0.00789
  25     40.54        1.6228        0.0000        5.3966        5.3967       3.773847       0.00863
  24     48.69        1.6228        0.0000        5.3872        5.3872       3.764350       0.00983
  23     57.69        1.6229        0.0000        5.3754        5.3754       3.752539       0.01107
  22     68.43        1.6229        0.0000        5.3599        5.3599       3.737012       0.01221
  21     81.20        1.6230        0.0000        5.3401        5.3401       3.717123       0.01314
  20     96.49        1.6231        0.0000        5.3155        5.3155       3.692477       0.01360
  19     114.6        1.6232        0.0001        5.2853        5.2854       3.662170       0.01415
  18     136.5        1.6234        0.0001        5.2504        5.2505       3.627108       0.01348
  17     162.9        1.6236        0.0001        5.2111        5.2112       3.587540       0.01265
  16     196.4        1.6240        0.0001        5.1640        5.1641       3.540070       0.01195
  15     218.7        1.6245        0.0001        5.1331        5.1332       3.508718       0.01190
  14     243.0        1.6252        0.0001        5.0962        5.0963       3.471104       0.01305
  13     269.0        1.6263        0.0001        5.0511        5.0512       3.424862       0.01500
  12     297.5        1.6281        0.0001        4.9956        4.9957       3.367677       0.01696
  11     328.5        1.6304        0.0001        4.9304        4.9305       3.300071       0.01838
  10     361.9        1.6337        0.0001        4.8511        4.8512       3.217536       0.02088
   9     398.1        1.6382        0.0002        4.7507        4.7508       3.112624       0.02444
   8     437.6        1.6445        0.0002        4.6220        4.6222       2.977747       0.02884
   7     480.5        1.6531        0.0002        4.4625        4.4627       2.809578       0.03303
   6     533.0        1.6671        0.0002        4.2460        4.2462       2.579141       0.03707
   5     589.8        1.6884        0.0002        3.9954        3.9956       2.307197       0.04037
   4     651.6        1.7235        0.0002        3.7089        3.7091       1.985600       0.04398
   3     718.7        1.7811        0.0002        3.4018        3.4020       1.620938       0.04583
   2     792.3        1.8850        0.0002        3.0564        3.0566       1.171694       0.05152
   1     891.5        0.9386        1.3522        0.2855        1.6377       0.699042       0.04022
   0    1013.0        1.0718        1.1415        0.2304        1.3719       0.300100       0.02770



 Wavenumbers:  3250. -  4000. cm-1, ATM      1
 LEVEL PRESSURE   UPWARD FLUX   DIFDOWN FLUX  DIRDOWN FLUX  DOWNWARD FLUX   NET FLUX    HEATING RATE
          mb          W/m2          W/m2          W/m2        W/m2          W/m2       degree/day
  51    .06700        0.0328        0.0000        9.1795        9.1795       9.146729       0.00000
  50    .07753        0.0328        0.0000        9.1747        9.1747       9.141887       3.88148
  49    .09103        0.0328        0.0000        9.1713        9.1713       9.138499       2.11747
  48    0.1069        0.0328        0.0000        9.1688        9.1688       9.135974       1.34402
  47    0.1255        0.0328        0.0000        9.1665        9.1665       9.133715       1.02422
  46    0.1487        0.0328        0.0000        9.1641        9.1641       9.131273       0.88991
  45    0.1794        0.0328        0.0000        9.1612        9.1612       9.128395       0.79008
  44    0.2165        0.0328        0.0000        9.1583        9.1583       9.125475       0.66430
  43    0.2613        0.0328        0.0000        9.1553        9.1553       9.122502       0.56041
  42    0.3336        0.0328        0.0000        9.1511        9.1511       9.118323       0.48723
  41    0.4307        0.0328        0.0000        9.1464        9.1464       9.113555       0.41459
  40    0.5894        0.0328        0.0000        9.1393        9.1394       9.106549       0.37255
  39     1.339        0.0328        0.0000        9.1127        9.1127       9.079935       0.29962
  38     1.782        0.0328        0.0000        9.1011        9.1011       9.068347       0.22062
  37     2.292        0.0328        0.0000        9.0901        9.0901       9.057281       0.18329
  36     2.964        0.0328        0.0000        9.0776        9.0776       9.044851       0.15603
  35     3.853        0.0328        0.0000        9.0629        9.0629       9.030061       0.14036
  34     5.035        0.0328        0.0000        9.0441        9.0441       9.011322       0.13386
  33     6.613        0.0328        0.0000        9.0191        9.0191       8.986320       0.13366
  32     8.786        0.0328        0.0000        8.9843        8.9843       8.951537       0.13509
  31     11.80        0.0328        0.0000        8.9327        8.9327       8.899920       0.14451
  30     15.07        0.0328        0.0000        8.8758        8.8759       8.843075       0.14676
  29     18.79        0.0328        0.0000        8.8110        8.8110       8.778248       0.14698
  28     23.16        0.0328        0.0000        8.7365        8.7366       8.703803       0.14395
  27     28.12        0.0328        0.0000        8.6554        8.6555       8.622690       0.13789
  26     33.73        0.0328        0.0000        8.5719        8.5719       8.539191       0.12554
  25     40.54        0.0327        0.0001        8.4812        8.4812       8.448467       0.11255
  24     48.69        0.0327        0.0001        8.3838        8.3839       8.351165       0.10069
  23     57.69        0.0327        0.0001        8.2861        8.2862       8.253430       0.09161
  22     68.43        0.0327        0.0001        8.1751        8.1751       8.142434       0.08726
  21     81.20        0.0327        0.0001        8.0457        8.0458       8.013075       0.08548
  20     96.49        0.0327        0.0001        7.8949        7.8950       7.862372       0.08318
  19     114.6        0.0327        0.0001        7.7162        7.7163       7.683662       0.08344
  18     136.5        0.0326        0.0002        7.5193        7.5195       7.486818       0.07569
  17     162.9        0.0326        0.0002        7.2913        7.2915       7.258926       0.07284
  16     196.4        0.0326        0.0002        6.9660        6.9662       6.933651       0.08188
  15     218.7        0.0326        0.0002        6.6648        6.6650       6.632456       0.11435
  14     243.0        0.0325        0.0002        6.2619        6.2622       6.229648       0.13971
  13     269.0        0.0326        0.0003        5.7576        5.7579       5.725316       0.16360
  12     297.5        0.0326        0.0003        5.1719        5.1722       5.139554       0.17373
  11     328.5        0.0327        0.0002        4.5757        4.5760       4.543272       0.16213
  10     361.9        0.0329        0.0002        3.9995        3.9998       3.966892       0.14583
   9     398.1        0.0332        0.0002        3.4655        3.4657       3.432501       0.12450
   8     437.6        0.0338        0.0002        2.9740        2.9743       2.940496       0.10519
   7     480.5        0.0346        0.0002        2.5307        2.5309       2.496222       0.08725
   6     533.0        0.0364        0.0002        2.0614        2.0616       2.025187       0.07577
   5     589.8        0.0395        0.0002        1.6150        1.6151       1.575580       0.06674
   4     651.6        0.0462        0.0001        1.1565        1.1566       1.110397       0.06362
   3     718.7        0.0608        0.0001        0.7390        0.7391       0.678272       0.05431
   2     792.3        0.0998        0.0001        0.3985        0.3985       0.298705       0.04353
   1     891.5        0.0004        0.0411        0.0126        0.0537       0.053298       0.02088
   0    1013.0        0.0041        0.0043        0.0010        0.0053       0.001171       0.00362



 Wavenumbers:  4000. -  4650. cm-1, ATM      1
 LEVEL PRESSURE   UPWARD FLUX   DIFDOWN FLUX  DIRDOWN FLUX  DOWNWARD FLUX   NET FLUX    HEATING RATE
          mb          W/m2          W/m2          W/m2        W/m2          W/m2       degree/day
  51    .06700        5.7333        0.0000       10.7795       10.7795       5.046284       0.00000
  50    .07753        5.7333        0.0000       10.7795       10.7795       5.046283       0.00080
  49    .09103        5.7333        0.0000       10.7795       10.7795       5.046282       0.00078
  48    0.1069        5.7333        0.0000       10.7795       10.7795       5.046281       0.00076
  47    0.1255        5.7333        0.0000       10.7795       10.7795       5.046279       0.00075
  46    0.1487        5.7333        0.0000       10.7795       10.7795       5.046277       0.00076
  45    0.1794        5.7333        0.0000       10.7795       10.7795       5.046274       0.00078
  44    0.2165        5.7333        0.0000       10.7795       10.7795       5.046271       0.00076
  43    0.2613        5.7333        0.0000       10.7795       10.7795       5.046267       0.00075
  42    0.3336        5.7333        0.0000       10.7795       10.7795       5.046260       0.00077
  41    0.4307        5.7333        0.0000       10.7795       10.7795       5.046251       0.00077
  40    0.5894        5.7333        0.0000       10.7795       10.7795       5.046236       0.00080
  39     1.339        5.7333        0.0000       10.7794       10.7794       5.046147       0.00101
  38     1.782        5.7333        0.0000       10.7793       10.7793       5.046077       0.00133
  37     2.292        5.7333        0.0000       10.7792       10.7792       5.045983       0.00156
  36     2.964        5.7333        0.0000       10.7791       10.7791       5.045842       0.00176
  35     3.853        5.7333        0.0000       10.7789       10.7789       5.045634       0.00198
  34     5.035        5.7332        0.0000       10.7786       10.7786       5.045327       0.00220
  33     6.613        5.7332        0.0000       10.7781       10.7781       5.044874       0.00242
  32     8.786        5.7332        0.0000       10.7774       10.7775       5.044206       0.00259
  31     11.80        5.7332        0.0001       10.7763       10.7764       5.043157       0.00294
  30     15.07        5.7332        0.0001       10.7751       10.7752       5.041925       0.00318
  29     18.79        5.7332        0.0001       10.7736       10.7737       5.040435       0.00338
  28     23.16        5.7332        0.0001       10.7717       10.7718       5.038584       0.00358
  27     28.12        5.7332        0.0001       10.7695       10.7696       5.036342       0.00381
  26     33.73        5.7333        0.0002       10.7667       10.7668       5.033577       0.00416
  25     40.54        5.7333        0.0002       10.7629       10.7631       5.029823       0.00466
  24     48.69        5.7333        0.0002       10.7579       10.7581       5.024819       0.00518
  23     57.69        5.7334        0.0003       10.7520       10.7523       5.018882       0.00557
  22     68.43        5.7335        0.0003       10.7446       10.7449       5.011435       0.00585
  21     81.20        5.7336        0.0004       10.7355       10.7359       5.002254       0.00607
  20     96.49        5.7339        0.0005       10.7245       10.7249       4.991070       0.00617
  19     114.6        5.7342        0.0005       10.7107       10.7113       4.977065       0.00654
  18     136.5        5.7347        0.0007       10.6942       10.6948       4.960166       0.00650
  17     162.9        5.7354        0.0008       10.6740       10.6748       4.939406       0.00664
  16     196.4        5.7366        0.0009       10.6464       10.6473       4.910688       0.00723
  15     218.7        5.7377        0.0010       10.6255       10.6265       4.888784       0.00832
  14     243.0        5.7393        0.0011       10.5980       10.5992       4.859859       0.01003
  13     269.0        5.7418        0.0013       10.5611       10.5624       4.820583       0.01274
  12     297.5        5.7454        0.0014       10.5119       10.5133       4.767979       0.01560
  11     328.5        5.7503        0.0015       10.4499       10.4514       4.701113       0.01818
  10     361.9        5.7568        0.0017       10.3702       10.3719       4.615085       0.02177
   9     398.1        5.7649        0.0018       10.2678       10.2696       4.504719       0.02571
   8     437.6        5.7752        0.0020       10.1390       10.1410       4.365766       0.02971
   7     480.5        5.7884        0.0022        9.9877        9.9899       4.201503       0.03226
   6     533.0        5.8085        0.0024        9.7937        9.7961       3.987590       0.03441
   5     589.8        5.8373        0.0026        9.5752        9.5778       3.740423       0.03669
   4     651.6        5.8834        0.0028        9.2958        9.2986       3.415229       0.04447
   3     718.7        5.9598        0.0030        8.9267        8.9297       2.969918       0.05596
   2     792.3        6.1009        0.0032        8.4542        8.4574       2.356556       0.07035
   1     891.5        3.6590        4.4832        0.8614        5.3446       1.685576       0.05710
   0    1013.0        3.8716        4.1687        0.7821        4.9508       1.079218       0.04210



 Wavenumbers:  4650. -  5150. cm-1, ATM      1
 LEVEL PRESSURE   UPWARD FLUX   DIFDOWN FLUX  DIRDOWN FLUX  DOWNWARD FLUX   NET FLUX    HEATING RATE
          mb          W/m2          W/m2          W/m2        W/m2          W/m2       degree/day
  51    .06700        4.0925        0.0000       10.2033       10.2033       6.110839       0.00000
  50    .07753        4.0925        0.0000       10.2031       10.2031       6.110603       0.18901
  49    .09103        4.0925        0.0000       10.2028       10.2028       6.110308       0.18428
  48    0.1069        4.0925        0.0000       10.2025       10.2025       6.109971       0.17931
  47    0.1255        4.0925        0.0000       10.2021       10.2021       6.109587       0.17426
  46    0.1487        4.0925        0.0000       10.2016       10.2016       6.109106       0.17536
  45    0.1794        4.0925        0.0000       10.2010       10.2010       6.108456       0.17850
  44    0.2165        4.0925        0.0000       10.2002       10.2002       6.107696       0.17277
  43    0.2613        4.0925        0.0000       10.1993       10.1993       6.106811       0.16690
  42    0.3336        4.0925        0.0000       10.1979       10.1979       6.105378       0.16702
  41    0.4307        4.0925        0.0000       10.1960       10.1960       6.103538       0.16002
  40    0.5894        4.0925        0.0000       10.1932       10.1932       6.100664       0.15283
  39     1.339        4.0925        0.0000       10.1816       10.1816       6.089072       0.13050
  38     1.782        4.0925        0.0000       10.1760       10.1760       6.083543       0.10526
  37     2.292        4.0925        0.0000       10.1706       10.1706       6.078086       0.09038
  36     2.964        4.0925        0.0000       10.1646       10.1647       6.072162       0.07436
  35     3.853        4.0925        0.0000       10.1584       10.1584       6.065947       0.05899
  34     5.035        4.0925        0.0000       10.1521       10.1521       6.059609       0.04527
  33     6.613        4.0925        0.0000       10.1456       10.1456       6.053148       0.03454
  32     8.786        4.0925        0.0001       10.1386       10.1386       6.046131       0.02725
  31     11.80        4.0925        0.0001       10.1295       10.1296       6.037079       0.02534
  30     15.07        4.0925        0.0001       10.1196       10.1197       6.027184       0.02555
  29     18.79        4.0926        0.0001       10.1076       10.1077       6.015153       0.02728
  28     23.16        4.0926        0.0002       10.0923       10.0924       5.999815       0.02966
  27     28.12        4.0927        0.0002       10.0731       10.0733       5.980674       0.03254
  26     33.73        4.0928        0.0002       10.0500       10.0503       5.957518       0.03482
  25     40.54        4.0929        0.0003       10.0201       10.0204       5.927526       0.03721
  24     48.69        4.0931        0.0003        9.9820        9.9823       5.889226       0.03963
  23     57.69        4.0933        0.0004        9.9384        9.9388       5.845523       0.04097
  22     68.43        4.0937        0.0005        9.8858        9.8862       5.792561       0.04163
  21     81.20        4.0941        0.0006        9.8234        9.8240       5.729852       0.04144
  20     96.49        4.0948        0.0007        9.7518        9.7524       5.657592       0.03988
  19     114.6        4.0958        0.0008        9.6719        9.6727       5.576929       0.03766
  18     136.5        4.0971        0.0009        9.5858        9.5867       5.489644       0.03356
  17     162.9        4.0989        0.0011        9.4940        9.4951       5.396235       0.02986
  16     196.4        4.1017        0.0013        9.3883        9.3896       5.287876       0.02728
  15     218.7        4.1039        0.0014        9.3229        9.3243       5.220437       0.02560
  14     243.0        4.1068        0.0016        9.2520        9.2535       5.146759       0.02555
  13     269.0        4.1107        0.0017        9.1717        9.1734       5.062708       0.02727
  12     297.5        4.1161        0.0019        9.0763        9.0782       4.962031       0.02986
  11     328.5        4.1233        0.0021        8.9650        8.9670       4.843765       0.03216
  10     361.9        4.1325        0.0023        8.8349        8.8372       4.704689       0.03519
   9     398.1        4.1445        0.0025        8.6820        8.6845       4.540010       0.03837
   8     437.6        4.1600        0.0027        8.5028        8.5055       4.345423       0.04160
   7     480.5        4.1803        0.0029        8.2948        8.2977       4.117391       0.04478
   6     533.0        4.2112        0.0031        8.0209        8.0240       3.812820       0.04900
   5     589.8        4.2541        0.0033        7.7063        7.7097       3.455583       0.05303
   4     651.6        4.3175        0.0036        7.3412        7.3448       3.027277       0.05857
   3     718.7        4.4132        0.0038        6.9387        6.9424       2.529265       0.06259
   2     792.3        4.5650        0.0039        6.5066        6.5105       1.945581       0.06694
   1     891.5        2.6581        3.3458        0.6560        4.0019       1.343752       0.05121
   0    1013.0        2.8564        3.0675        0.5860        3.6535       0.797104       0.03796



 Wavenumbers:  5150. -  6150. cm-1, ATM      1
 LEVEL PRESSURE   UPWARD FLUX   DIFDOWN FLUX  DIRDOWN FLUX  DOWNWARD FLUX   NET FLUX    HEATING RATE
          mb          W/m2          W/m2          W/m2        W/m2          W/m2       degree/day
  51    .06700       10.0406        0.0000       25.5798       25.5798      15.539202       0.00000
  50    .07753       10.0406        0.0000       25.5798       25.5798      15.539163       0.03161
  49    .09103       10.0406        0.0000       25.5797       25.5797      15.539112       0.03210
  48    0.1069       10.0406        0.0000       25.5797       25.5797      15.539050       0.03260
  47    0.1255       10.0406        0.0000       25.5796       25.5796      15.538977       0.03310
  46    0.1487       10.0406        0.0000       25.5795       25.5795      15.538882       0.03488
  45    0.1794       10.0406        0.0000       25.5794       25.5794      15.538747       0.03712
  44    0.2165       10.0406        0.0000       25.5792       25.5792      15.538581       0.03768
  43    0.2613       10.0406        0.0000       25.5790       25.5790      15.538378       0.03826
  42    0.3336       10.0406        0.0000       25.5786       25.5786      15.538031       0.04042
  41    0.4307       10.0406        0.0000       25.5782       25.5782      15.537560       0.04097
  40    0.5894       10.0406        0.0000       25.5774       25.5774      15.536771       0.04198
  39     1.339       10.0406        0.0000       25.5735       25.5736      15.532968       0.04281
  38     1.782       10.0406        0.0001       25.5713       25.5714      15.530753       0.04216
  37     2.292       10.0406        0.0001       25.5688       25.5688      15.528247       0.04151
  36     2.964       10.0406        0.0001       25.5656       25.5657      15.525062       0.03998
  35     3.853       10.0406        0.0001       25.5615       25.5616      15.521014       0.03842
  34     5.035       10.0406        0.0002       25.5562       25.5564      15.515799       0.03725
  33     6.613       10.0406        0.0002       25.5494       25.5496      15.509033       0.03617
  32     8.786       10.0406        0.0003       25.5406       25.5409      15.500264       0.03406
  31     11.80       10.0406        0.0004       25.5287       25.5290      15.488400       0.03321
  30     15.07       10.0407        0.0005       25.5167       25.5172      15.476499       0.03073
  29     18.79       10.0407        0.0006       25.5042       25.5048      15.464052       0.02822
  28     23.16       10.0408        0.0007       25.4907       25.4914      15.450637       0.02594
  27     28.12       10.0408        0.0009       25.4764       25.4773      15.436484       0.02406
  26     33.73       10.0409        0.0011       25.4620       25.4631      15.422129       0.02158
  25     40.54       10.0411        0.0013       25.4463       25.4475      15.406410       0.01950
  24     48.69       10.0413        0.0015       25.4294       25.4309      15.389550       0.01745
  23     57.69       10.0416        0.0018       25.4126       25.4144      15.372781       0.01572
  22     68.43       10.0420        0.0021       25.3944       25.3966      15.354542       0.01434
  21     81.20       10.0425        0.0025       25.3744       25.3770      15.334440       0.01328
  20     96.49       10.0431        0.0030       25.3519       25.3550      15.311818       0.01249
  19     114.6       10.0439        0.0036       25.3262       25.3297      15.285848       0.01213
  18     136.5       10.0449        0.0042       25.2962       25.3004      15.255593       0.01163
  17     162.9       10.0460        0.0050       25.2521       25.2571      15.211110       0.01422
  16     196.4       10.0477        0.0061       25.1593       25.1654      15.117697       0.02351
  15     218.7       10.0489        0.0067       25.0159       25.0227      14.973809       0.05463
  14     243.0       10.0503        0.0074       24.7089       24.7163      14.666020       0.10675
  13     269.0       10.0522        0.0081       24.1619       24.1699      14.117770       0.17785
  12     297.5       10.0547        0.0087       23.4544       23.4631      13.408454       0.21038
  11     328.5       10.0579        0.0094       22.7355       22.7449      12.686960       0.19617
  10     361.9       10.0622        0.0101       21.9224       21.9325      11.870340       0.20661
   9     398.1       10.0679        0.0108       20.9939       21.0047      10.936820       0.21749
   8     437.6       10.0757        0.0114       19.9833       19.9947       9.919090       0.21760
   7     480.5       10.0863        0.0120       18.9483       18.9603       8.874024       0.20525
   6     533.0       10.1042        0.0127       17.7796       17.7923       7.688167       0.19077
   5     589.8       10.1328        0.0135       16.6726       16.6860       6.553265       0.16846
   4     651.6       10.1845        0.0142       15.6343       15.6485       5.464006       0.14896
   3     718.7       10.2783        0.0150       14.7738       14.7888       4.510463       0.11983
   2     792.3       10.4632        0.0159       14.0291       14.0450       3.581811       0.10651
   1     891.5        6.4928        7.7072        1.4456        9.1528       2.660008       0.07844
   0    1013.0        6.7366        7.2813        1.3302        8.6115       1.874930       0.05451



 Wavenumbers:  6150. -  7700. cm-1, ATM      1
 LEVEL PRESSURE   UPWARD FLUX   DIFDOWN FLUX  DIRDOWN FLUX  DOWNWARD FLUX   NET FLUX    HEATING RATE
          mb          W/m2          W/m2          W/m2        W/m2          W/m2       degree/day
  51    .06700       15.5324        0.0000       47.3109       47.3109      31.778433       0.00000
  50    .07753       15.5324        0.0000       47.3108       47.3108      31.778376       0.04553
  49    .09103       15.5324        0.0000       47.3107       47.3107      31.778303       0.04583
  48    0.1069       15.5324        0.0000       47.3106       47.3106      31.778216       0.04614
  47    0.1255       15.5324        0.0000       47.3105       47.3105      31.778114       0.04645
  46    0.1487       15.5324        0.0000       47.3104       47.3104      31.777981       0.04852
  45    0.1794       15.5324        0.0000       47.3102       47.3102      31.777794       0.05127
  44    0.2165       15.5324        0.0000       47.3100       47.3100      31.777567       0.05167
  43    0.2613       15.5324        0.0000       47.3097       47.3097      31.777290       0.05210
  42    0.3336       15.5324        0.0000       47.3092       47.3092      31.776821       0.05471
  41    0.4307       15.5324        0.0000       47.3085       47.3086      31.776186       0.05521
  40    0.5894       15.5324        0.0001       47.3074       47.3075      31.775127       0.05633
  39     1.339       15.5323        0.0002       47.3022       47.3024      31.770035       0.05733
  38     1.782       15.5323        0.0002       47.2991       47.2994      31.767064       0.05655
  37     2.292       15.5322        0.0003       47.2956       47.2959      31.763689       0.05591
  36     2.964       15.5322        0.0004       47.2912       47.2916      31.759370       0.05421
  35     3.853       15.5321        0.0005       47.2855       47.2860      31.753836       0.05252
  34     5.035       15.5320        0.0006       47.2780       47.2787      31.746655       0.05129
  33     6.613       15.5319        0.0008       47.2683       47.2692      31.737267       0.05019
  32     8.786       15.5317        0.0011       47.2556       47.2567      31.724968       0.04777
  31     11.80       15.5315        0.0015       47.2380       47.2395      31.708064       0.04733
  30     15.07       15.5312        0.0019       47.2201       47.2220      31.690777       0.04463
  29     18.79       15.5309        0.0024       47.2008       47.2032      31.672297       0.04190
  28     23.16       15.5306        0.0030       47.1795       47.1825      31.651906       0.03943
  27     28.12       15.5302        0.0036       47.1565       47.1601      31.629912       0.03739
  26     33.73       15.5297        0.0043       47.1324       47.1367      31.606990       0.03446
  25     40.54       15.5292        0.0052       47.1054       47.1105      31.581353       0.03181
  24     48.69       15.5285        0.0062       47.0754       47.0816      31.553098       0.02924
  23     57.69       15.5278        0.0074       47.0449       47.0523      31.524475       0.02683
  22     68.43       15.5270        0.0087       47.0110       47.0197      31.492736       0.02495
  21     81.20       15.5260        0.0103       46.9729       46.9832      31.457240       0.02346
  20     96.49       15.5248        0.0123       46.9294       46.9417      31.416896       0.02227
  19     114.6       15.5234        0.0146       46.8790       46.8936      31.370259       0.02178
  18     136.5       15.5217        0.0173       46.8200       46.8373      31.315629       0.02101
  17     162.9       15.5197        0.0206       46.7361       46.7567      31.236998       0.02513
  16     196.4       15.5173        0.0248       46.5703       46.5950      31.077774       0.04008
  15     218.7       15.5158        0.0275       46.3473       46.3748      30.858983       0.08307
  14     243.0       15.5145        0.0303       45.9299       45.9602      30.445692       0.14334
  13     269.0       15.5137        0.0332       45.1708       45.2040      29.690275       0.24505
  12     297.5       15.5139        0.0360       44.0115       44.0474      28.533527       0.34308
  11     328.5       15.5156        0.0388       42.7242       42.7631      27.247495       0.34967
  10     361.9       15.5193        0.0417       41.3539       41.3957      25.876340       0.34692
   9     398.1       15.5264        0.0446       39.7953       39.8398      24.313422       0.36412
   8     437.6       15.5389        0.0472       37.9948       38.0420      22.503136       0.38705
   7     480.5       15.5592        0.0498       36.0647       36.1145      20.555322       0.38254
   6     533.0       15.5978        0.0525       33.7773       33.8298      18.231974       0.37375
   5     589.8       15.6657        0.0550       31.4082       31.4632      15.797502       0.36136
   4     651.6       15.7968        0.0571       28.8834       28.9405      13.143700       0.36291
   3     718.7       16.0453        0.0589       26.4104       26.4693      10.423956       0.34180
   2     792.3       16.5618        0.0604       24.0056       24.0660       7.504245       0.33486
   1     891.5        9.5677       12.0615        2.3465       14.4079       4.840267       0.22669
   0    1013.0       10.1974       10.9828        2.0570       13.0397       2.842307       0.13873



 Wavenumbers:  7700. -  8050. cm-1, ATM      1
 LEVEL PRESSURE   UPWARD FLUX   DIFDOWN FLUX  DIRDOWN FLUX  DOWNWARD FLUX   NET FLUX    HEATING RATE
          mb          W/m2          W/m2          W/m2        W/m2          W/m2       degree/day
  51    .06700        7.5788        0.0000       11.1810       11.1810       3.602158       0.00000
  50    .07753        7.5788        0.0000       11.1809       11.1809       3.602135       0.01839
  49    .09103        7.5788        0.0000       11.1809       11.1809       3.602107       0.01802
  48    0.1069        7.5788        0.0000       11.1809       11.1809       3.602073       0.01765
  47    0.1255        7.5788        0.0000       11.1809       11.1809       3.602035       0.01727
  46    0.1487        7.5788        0.0000       11.1808       11.1808       3.601987       0.01752
  45    0.1794        7.5789        0.0000       11.1808       11.1808       3.601922       0.01803
  44    0.2165        7.5789        0.0000       11.1807       11.1807       3.601844       0.01769
  43    0.2613        7.5789        0.0000       11.1806       11.1806       3.601752       0.01736
  42    0.3336        7.5789        0.0000       11.1805       11.1805       3.601599       0.01776
  41    0.4307        7.5790        0.0000       11.1803       11.1804       3.601397       0.01756
  40    0.5894        7.5790        0.0000       11.1801       11.1801       3.601067       0.01755
  39     1.339        7.5794        0.0001       11.1788       11.1789       3.599506       0.01757
  38     1.782        7.5796        0.0001       11.1781       11.1782       3.598589       0.01746
  37     2.292        7.5798        0.0001       11.1772       11.1773       3.597528       0.01758
  36     2.964        7.5801        0.0002       11.1761       11.1762       3.596134       0.01750
  35     3.853        7.5805        0.0002       11.1746       11.1748       3.594293       0.01747
  34     5.035        7.5811        0.0003       11.1726       11.1729       3.591847       0.01747
  33     6.613        7.5818        0.0004       11.1700       11.1703       3.588580       0.01747
  32     8.786        7.5827        0.0005       11.1664       11.1669       3.584179       0.01709
  31     11.80        7.5841        0.0007       11.1613       11.1620       3.577885       0.01762
  30     15.07        7.5856        0.0009       11.1558       11.1567       3.571133       0.01743
  29     18.79        7.5873        0.0011       11.1497       11.1508       3.563511       0.01728
  28     23.16        7.5893        0.0014       11.1425       11.1439       3.554617       0.01720
  27     28.12        7.5915        0.0017       11.1343       11.1360       3.544460       0.01727
  26     33.73        7.5941        0.0020       11.1252       11.1272       3.533112       0.01706
  25     40.54        7.5972        0.0024       11.1142       11.1166       3.519429       0.01698
  24     48.69        7.6009        0.0029       11.1010       11.1039       3.502973       0.01703
  23     57.69        7.6050        0.0034       11.0866       11.0900       3.484949       0.01689
  22     68.43        7.6100        0.0040       11.0695       11.0736       3.463557       0.01682
  21     81.20        7.6160        0.0048       11.0494       11.0541       3.438175       0.01677
  20     96.49        7.6231        0.0057       11.0255       11.0312       3.408080       0.01661
  19     114.6        7.6317        0.0067       10.9975       11.0043       3.372554       0.01659
  18     136.5        7.6420        0.0080       10.9648       10.9727       3.330728       0.01608
  17     162.9        7.6545        0.0095       10.9263       10.9358       3.281297       0.01580
  16     196.4        7.6709        0.0114       10.8773       10.8887       3.217762       0.01599
  15     218.7        7.6819        0.0127       10.8455       10.8582       3.176328       0.01573
  14     243.0        7.6940        0.0140       10.8114       10.8255       3.131484       0.01555
  13     269.0        7.7074        0.0155       10.7749       10.7904       3.083028       0.01572
  12     297.5        7.7221        0.0171       10.7357       10.7528       3.030681       0.01553
  11     328.5        7.7385        0.0189       10.6937       10.7126       2.974072       0.01539
  10     361.9        7.7567        0.0207       10.6489       10.6696       2.912909       0.01547
   9     398.1        7.7769        0.0227       10.6008       10.6235       2.846603       0.01545
   8     437.6        7.7995        0.0249       10.5491       10.5740       2.774415       0.01543
   7     480.5        7.8250        0.0272       10.4934       10.5206       2.695651       0.01547
   6     533.0        7.8581        0.0300       10.4243       10.4543       2.596174       0.01600
   5     589.8        7.8968        0.0331       10.3479       10.3810       2.484170       0.01662
   4     651.6        7.9432        0.0364       10.2613       10.2977       2.354495       0.01773
   3     718.7        8.0001        0.0398       10.1618       10.2016       2.201538       0.01922
   2     792.3        8.0723        0.0435       10.0439       10.0874       2.015143       0.02138
   1     891.5        5.3299        6.0249        1.0902        7.1151       1.785230       0.01956
   0    1013.0        5.4435        5.8950        1.0624        6.9574       1.513850       0.01884



 Wavenumbers:  8050. - 12850. cm-1, ATM      1
 LEVEL PRESSURE   UPWARD FLUX   DIFDOWN FLUX  DIRDOWN FLUX  DOWNWARD FLUX   NET FLUX    HEATING RATE
          mb          W/m2          W/m2          W/m2        W/m2          W/m2       degree/day
  51    .06700       96.0580        0.0000      156.5418      156.5418      60.483743       0.00000
  50    .07753       96.0580        0.0000      156.5417      156.5417      60.483743      -0.00000
  49    .09103       96.0580        0.0001      156.5417      156.5417      60.483743       0.00000
  48    0.1069       96.0580        0.0001      156.5416      156.5417      60.483743       0.00000
  47    0.1255       96.0579        0.0002      156.5415      156.5417      60.483743      -0.00000
  46    0.1487       96.0579        0.0002      156.5414      156.5417      60.483743       0.00000
  45    0.1794       96.0579        0.0003      156.5413      156.5416      60.483743       0.00000
  44    0.2165       96.0578        0.0004      156.5412      156.5416      60.483743      -0.00000
  43    0.2613       96.0578        0.0006      156.5410      156.5415      60.483743       0.00000
  42    0.3336       96.0577        0.0008      156.5407      156.5415      60.483743       0.00000
  41    0.4307       96.0576        0.0010      156.5403      156.5414      60.483743       0.00000
  40    0.5894       96.0574        0.0015      156.5397      156.5412      60.483743       0.00000
  39     1.339       96.0566        0.0036      156.5367      156.5404      60.483743      -0.00000
  38     1.782       96.0561        0.0049      156.5350      156.5399      60.483743      -0.00000
  37     2.292       96.0556        0.0063      156.5330      156.5393      60.483743       0.00000
  36     2.964       96.0548        0.0082      156.5303      156.5386      60.483743       0.00000
  35     3.853       96.0539        0.0108      156.5268      156.5376      60.483743       0.00000
  34     5.035       96.0526        0.0141      156.5222      156.5363      60.483743      -0.00000
  33     6.613       96.0509        0.0186      156.5160      156.5346      60.483743      -0.00000
  32     8.786       96.0486        0.0247      156.5076      156.5323      60.483743       0.00000
  31     11.80       96.0452        0.0333      156.4957      156.5290      60.483743       0.00000
  30     15.07       96.0417        0.0426      156.4828      156.5254      60.483743      -0.00000
  29     18.79       96.0376        0.0531      156.4682      156.5214      60.483743      -0.00000
  28     23.16       96.0329        0.0655      156.4512      156.5166      60.483743       0.00000
  27     28.12       96.0275        0.0795      156.4317      156.5112      60.483743      -0.00000
  26     33.73       96.0214        0.0953      156.4099      156.5052      60.483743       0.00000
  25     40.54       96.0141        0.1144      156.3834      156.4979      60.483743       0.00000
  24     48.69       96.0053        0.1375      156.3515      156.4890      60.483743      -0.00000
  23     57.69       95.9955        0.1628      156.3164      156.4793      60.483743       0.00000
  22     68.43       95.9839        0.1931      156.2746      156.4677      60.483743      -0.00000
  21     81.20       95.9701        0.2292      156.2246      156.4538      60.483743      -0.00000
  20     96.49       95.9535        0.2723      156.1649      156.4372      60.483743       0.00000
  19     114.6       95.9340        0.3236      156.0879      156.4115      60.477505       0.00291
  18     136.5       95.9109        0.3845      155.9962      156.3806      60.469769       0.00297
  17     162.9       95.8833        0.4572      155.8831      156.3402      60.456934       0.00410
  16     196.4       95.8475        0.5517      155.7199      156.2716      60.424056       0.00828
  15     218.7       95.8243        0.6138      155.5733      156.1871      60.362755       0.02327
  14     243.0       95.8000        0.6813      155.3367      156.0180      60.218046       0.05019
  13     269.0       95.7756        0.7544      154.9514      155.7058      59.930229       0.09337
  12     297.5       95.7532        0.8331      154.3896      155.2227      59.469474       0.13666
  11     328.5       95.7341        0.9179      153.7151      154.6330      58.898906       0.15514
  10     361.9       95.7209        1.0089      152.9087      153.9176      58.196733       0.17766
   9     398.1       95.7182        1.1062      151.8986      153.0048      57.286623       0.21204
   8     437.6       95.7338        1.2098      150.6031      151.8129      56.079069       0.25818
   7     480.5       95.7772        1.3192      149.0014      150.3206      54.543382       0.30160
   6     533.0       95.8812        1.4516      146.7375      148.1892      52.307995       0.35960
   5     589.8       96.0870        1.5903      143.8730      145.4633      49.376253       0.43517
   4     651.6       96.5090        1.7325      140.0955      141.8280      45.318912       0.55485
   3     718.7       97.3129        1.8767      135.5278      137.4044      40.091486       0.65694
   2     792.3       98.9078        2.0193      130.0690      132.0883      33.180539       0.79261
   1     891.5       61.6905       73.5016       13.4960       86.9976      25.307099       0.66999
   0    1013.0       64.2477       69.6279       12.4819       82.1097      17.861976       0.51695



 Wavenumbers: 12850. - 16000. cm-1, ATM      1
 LEVEL PRESSURE   UPWARD FLUX   DIFDOWN FLUX  DIRDOWN FLUX  DOWNWARD FLUX   NET FLUX    HEATING RATE
          mb          W/m2          W/m2          W/m2        W/m2          W/m2       degree/day
  51    .06700       76.7703        0.0000       98.0872       98.0872      21.316990       0.00000
  50    .07753       76.7702        0.0001       98.0864       98.0864      21.316198       0.63437
  49    .09103       76.7702        0.0002       98.0853       98.0854      21.315204       0.62128
  48    0.1069       76.7702        0.0003       98.0841       98.0843      21.314062       0.60793
  47    0.1255       76.7703        0.0004       98.0826       98.0830      21.312750       0.59488
  46    0.1487       76.7703        0.0005       98.0809       98.0814      21.311094       0.60363
  45    0.1794       76.7703        0.0007       98.0784       98.0792      21.308841       0.61843
  44    0.2165       76.7704        0.0010       98.0756       98.0766      21.306192       0.60281
  43    0.2613       76.7705        0.0012       98.0723       98.0736      21.303075       0.58740
  42    0.3336       76.7707        0.0017       98.0670       98.0687      21.297989       0.59298
  41    0.4307       76.7711        0.0023       98.0602       98.0625      21.291412       0.57184
  40    0.5894       76.7719        0.0033       98.0496       98.0529      21.281050       0.55109
  39     1.339       76.7783        0.0081       98.0043       98.0124      21.234107       0.52849
  38     1.782       76.7842        0.0109       97.9793       97.9902      21.205935       0.53634
  37     2.292       76.7930        0.0141       97.9498       97.9639      21.170855       0.58103
  36     2.964       76.8076        0.0184       97.9088       97.9272      21.119552       0.64401
  35     3.853       76.8311        0.0240       97.8503       97.8743      21.043160       0.72497
  34     5.035       76.8666        0.0314       97.7680       97.7994      20.932826       0.78818
  33     6.613       76.9160        0.0413       97.6562       97.6975      20.781501       0.80899
  32     8.786       76.9804        0.0547       97.5107       97.5654      20.584964       0.76328
  31     11.80       77.0643        0.0738       97.3179       97.3917      20.327426       0.72103
  30     15.07       77.1446        0.0944       97.1283       97.2227      20.078042       0.64386
  29     18.79       77.2267        0.1175       96.9300       97.0475      19.820790       0.58327
  28     23.16       77.3126        0.1445       96.7166       96.8611      19.548486       0.52655
  27     28.12       77.3991        0.1754       96.4935       96.6689      19.269789       0.47377
  26     33.73       77.4791        0.2099       96.2731       96.4830      19.003896       0.39978
  25     40.54       77.5565        0.2517       96.0408       96.2925      18.735998       0.33236
  24     48.69       77.6309        0.3020       95.7946       96.0966      18.465728       0.27969
  23     57.69       77.6944        0.3573       95.5573       95.9146      18.220235       0.23011
  22     68.43       77.7502        0.4232       95.3106       95.7338      17.983578       0.18604
  21     81.20       77.7898        0.5018       95.0643       95.5662      17.776383       0.13691
  20     96.49       77.8119        0.5956       94.8153       95.4109      17.598981       0.09791
  19     114.6       77.8379        0.7080       94.5411       95.2491      17.411216       0.08767
  18     136.5       77.8577        0.8413       94.2320       95.0734      17.215669       0.07519
  17     162.9       77.8712        1.0000       93.8753       94.8753      17.004098       0.06763
  16     196.4       77.8674        1.2058       93.4347       94.6405      16.773051       0.05816
  15     218.7       77.8574        1.3410       93.1513       94.4923      16.634903       0.05245
  14     243.0       77.8433        1.4879       92.8439       94.3318      16.488538       0.05076
  13     269.0       77.8252        1.6471       92.5111       94.1582      16.332968       0.05047
  12     297.5       77.8038        1.8191       92.1495       93.9685      16.164761       0.04989
  11     328.5       77.7810        2.0049       91.7554       93.7603      15.979282       0.05043
  10     361.9       77.7579        2.2050       91.3262       93.5312      15.773249       0.05213
   9     398.1       77.7361        2.4202       90.8575       93.2778      15.541672       0.05395
   8     437.6       77.7187        2.6513       90.3418       92.9931      15.274405       0.05714
   7     480.5       77.7088        2.8987       89.7728       92.6715      14.962756       0.06121
   6     533.0       77.7136        3.2029       89.0428       92.2457      14.532178       0.06927
   5     589.8       77.7503        3.5298       88.2038       91.7336      13.983301       0.08147
   4     651.6       77.8541        3.8790       87.1979       91.0769      13.222811       0.10400
   3     718.7       78.0512        4.2489       86.0161       90.2650      12.213853       0.12680
   2     792.3       78.4212        4.6358       84.5970       89.2328      10.811554       0.16083
   1     891.5       59.8305       59.6526        9.1098       68.7624       8.931831       0.15996
   0    1013.0       60.7922       58.6007        8.7983       67.3991       6.606834       0.16144



 Wavenumbers: 16000. - 22650. cm-1, ATM      1
 LEVEL PRESSURE   UPWARD FLUX   DIFDOWN FLUX  DIRDOWN FLUX  DOWNWARD FLUX   NET FLUX    HEATING RATE
          mb          W/m2          W/m2          W/m2        W/m2          W/m2       degree/day
  51    .06700      140.4768        0.0000      156.3892      156.3892      15.912453       0.00000
  50    .07753      140.4768        0.0004      156.3887      156.3891      15.912306       0.11808
  49    .09103      140.4767        0.0009      156.3879      156.3888      15.912092       0.13393
  48    0.1069      140.4767        0.0015      156.3871      156.3885      15.911805       0.15273
  47    0.1255      140.4768        0.0021      156.3861      156.3882      15.911421       0.17409
  46    0.1487      140.4768        0.0030      156.3847      156.3877      15.910855       0.20629
  45    0.1794      140.4769        0.0041      156.3828      156.3869      15.909970       0.24289
  44    0.2165      140.4771        0.0054      156.3805      156.3859      15.908770       0.27299
  43    0.2613      140.4775        0.0070      156.3776      156.3846      15.907142       0.30690
  42    0.3336      140.4782        0.0096      156.3726      156.3823      15.904046       0.36091
  41    0.4307      140.4795        0.0131      156.3657      156.3788      15.899380       0.40570
  40    0.5894      140.4820        0.0188      156.3537      156.3725      15.890481       0.47323
  39     1.339      140.5045        0.0458      156.2834      156.3292      15.824735       0.74019
  38     1.782      140.5252        0.0616      156.2324      156.2940      15.768727       1.06630
  37     2.292      140.5564        0.0799      156.1641      156.2440      15.687655       1.34277
  36     2.964      140.6081        0.1040      156.0605      156.1645      15.556317       1.64868
  35     3.853      140.6919        0.1357      155.9041      156.0398      15.347917       1.97775
  34     5.035      140.8182        0.1778      155.6774      155.8552      15.037002       2.22105
  33     6.613      140.9947        0.2340      155.3656      155.5996      14.604923       2.30990
  32     8.786      141.2246        0.3096      154.9577      155.2673      14.042695       2.18349
  31     11.80      141.5238        0.4177      154.4153      154.8329      13.309140       2.05372
  30     15.07      141.8104        0.5335      153.8804      154.4139      12.603492       1.82185
  29     18.79      142.1030        0.6642      153.3191      153.9833      11.880277       1.63975
  28     23.16      142.4087        0.8165      152.7126      153.5291      11.120374       1.46941
  27     28.12      142.7163        0.9905      152.0755      153.0660      10.349716       1.31007
  26     33.73      143.0001        1.1850      151.4409      152.6260       9.625847       1.08836
  25     40.54      143.2731        1.4198      150.7637      152.1835       8.910413       0.88758
  24     48.69      143.5343        1.7026      150.0338      151.7364       8.202132       0.73296
  23     57.69      143.7555        2.0128      149.3151      151.3280       7.572409       0.59027
  22     68.43      143.9482        2.3819      148.5476      150.9295       6.981273       0.46471
  21     81.20      144.0807        2.8213      147.7517      150.5730       6.492272       0.32312
  20     96.49      144.1485        3.3444      146.9127      150.2571       6.108535       0.21180
  19     114.6      144.1828        3.9637      145.9763      149.9400       5.757212       0.16404
  18     136.5      144.1921        4.6950      144.9088      149.6037       5.411605       0.13289
  17     162.9      144.1748        5.5617      143.6785      149.2402       5.065413       0.11066
  16     196.4      144.0910        6.6800      142.1651      148.8450       4.754053       0.07837
  15     218.7      144.0134        7.4107      141.2033      148.6141       4.600663       0.05824
  14     243.0      143.9188        8.2017      140.1753      148.3770       4.458194       0.04941
  13     269.0      143.8056        9.0549      139.0797      148.1346       4.329054       0.04189
  12     297.5      143.6730        9.9726      137.9141      147.8866       4.213614       0.03424
  11     328.5      143.5252       10.9589      136.6676      147.6265       4.101253       0.03055
  10     361.9      143.3619       12.0148      135.3392      147.3540       3.992102       0.02762
   9     398.1      143.1825       13.1443      133.9235      147.0677       3.885261       0.02489
   8     437.6      142.9881       14.3494      132.4163      146.7656       3.777574       0.02302
   7     480.5      142.7782       15.6323      130.8147      146.4470       3.668730       0.02138
   6     533.0      142.5202       17.1991      128.8599      146.0591       3.538890       0.02089
   5     589.8      142.2462       18.8732      126.7679      145.6412       3.394982       0.02136
   4     651.6      141.9629       20.6562      124.5274      145.1836       3.220746       0.02383
   3     718.7      141.6766       22.5497      122.1285      144.6781       3.001536       0.02755
   2     792.3      141.4047       24.5516      119.5548      144.1064       2.701732       0.03438
   1     891.5      122.7507      112.1589       12.8221      124.9811       2.230351       0.04011
   0    1013.0      122.9852      112.1883       12.3563      124.5447       1.559476       0.04658



 Wavenumbers: 22650. - 29000. cm-1, ATM      1
 LEVEL PRESSURE   UPWARD FLUX   DIFDOWN FLUX  DIRDOWN FLUX  DOWNWARD FLUX   NET FLUX    HEATING RATE
          mb          W/m2          W/m2          W/m2        W/m2          W/m2       degree/day
  51    .06700       58.3930        0.0000       59.0156       59.0156       0.622581       0.00000
  50    .07753       58.3929        0.0005       59.0151       59.0155       0.622581       0.00000
  49    .09103       58.3928        0.0010       59.0144       59.0154       0.622581      -0.00000
  48    0.1069       58.3927        0.0017       59.0136       59.0153       0.622581      -0.00000
  47    0.1255       58.3925        0.0025       59.0127       59.0151       0.622581       0.00000
  46    0.1487       58.3924        0.0034       59.0115       59.0149       0.622581       0.00000
  45    0.1794       58.3921        0.0048       59.0099       59.0147       0.622581      -0.00000
  44    0.2165       58.3918        0.0063       59.0080       59.0144       0.622581      -0.00000
  43    0.2613       58.3914        0.0082       59.0058       59.0140       0.622581       0.00000
  42    0.3336       58.3908        0.0113       59.0022       59.0134       0.622581       0.00000
  41    0.4307       58.3900        0.0153       58.9973       59.0126       0.622581      -0.00000
  40    0.5894       58.3887        0.0220       58.9894       59.0113       0.622581       0.00000
  39     1.339       58.3826        0.0534       58.9518       59.0052       0.622581       0.00000
  38     1.782       58.3790        0.0719       58.9297       59.0016       0.622581      -0.00000
  37     2.292       58.3749        0.0933       58.9042       58.9974       0.622581       0.00000
  36     2.964       58.3694        0.1213       58.8706       58.9920       0.622581      -0.00000
  35     3.853       58.3622        0.1584       58.8264       58.9847       0.622581       0.00000
  34     5.035       58.3526        0.2076       58.7676       58.9752       0.622581       0.00000
  33     6.613       58.3398        0.2733       58.6891       58.9624       0.622581      -0.00000
  32     8.786       58.3225        0.3617       58.5834       58.9451       0.622581      -0.00000
  31     11.80       58.2979        0.4880       58.4324       58.9205       0.622581       0.00000
  30     15.07       58.2715        0.6234       58.2706       58.8941       0.622581      -0.00000
  29     18.79       58.2417        0.7761       58.0882       58.8643       0.622581       0.00000
  28     23.16       58.2071        0.9540       57.8757       58.8296       0.622581       0.00000
  27     28.12       58.1675        1.1568       57.6333       58.7901       0.622581      -0.00000
  26     33.73       58.1234        1.3829       57.3631       58.7460       0.622581       0.00000
  25     40.54       58.0703        1.6550       57.0379       58.6929       0.622581       0.00000
  24     48.69       58.0067        1.9814       56.6479       58.6292       0.622581      -0.00000
  23     57.69       57.9371        2.3376       56.2221       58.5597       0.622581       0.00000
  22     68.43       57.8549        2.7589       55.7186       58.4775       0.622581      -0.00000
  21     81.20       57.7578        3.2564       55.1239       58.3804       0.622581       0.00000
  20     96.49       57.6432        3.8430       54.4228       58.2658       0.622581      -0.00000
  19     114.6       57.5089        4.5305       53.6010       58.1315       0.622581       0.00000
  18     136.5       57.3520        5.3328       52.6418       57.9746       0.622581       0.00000
  17     162.9       57.1685        6.2708       51.5203       57.7911       0.622581       0.00000
  16     196.4       56.9359        7.4590       50.0994       57.5585       0.622581      -0.00000
  15     218.7       56.7863        8.2226       49.1863       57.4088       0.622581       0.00000
  14     243.0       56.6264        9.0377       48.2113       57.2490       0.622581       0.00000
  13     269.0       56.4564        9.9041       47.1749       57.0790       0.622581      -0.00000
  12     297.5       56.2764       10.8207       46.0783       56.8990       0.622581       0.00000
  11     328.5       56.0861       11.7891       44.9195       56.7087       0.622581       0.00000
  10     361.9       55.8859       12.8066       43.7018       56.5084       0.622581      -0.00000
   9     398.1       55.6757       13.8733       42.4250       56.2983       0.622581       0.00000
   8     437.6       55.4561       14.9870       41.0916       56.0787       0.622581       0.00000
   7     480.5       55.2273       16.1454       39.7045       55.8499       0.622581       0.00000
   6     533.0       54.9548       17.5231       38.0543       55.5773       0.622581       0.00000
   5     589.8       54.6717       18.9512       36.3431       55.2942       0.622581      -0.00000
   4     651.6       54.3794       20.4224       34.5795       55.0019       0.622581       0.00000
   3     718.7       54.0788       21.9312       32.7702       54.7014       0.622581      -0.00000
   2     792.3       53.7716       23.4686       30.9256       54.3942       0.622581       0.00000
   1     891.5       48.8579       46.3227        3.1576       49.4803       0.622376       0.00002
   0    1013.0       48.7902       46.5435        2.8691       49.4126       0.622376       0.00000



 Wavenumbers: 29000. - 38000. cm-1, ATM      1
 LEVEL PRESSURE   UPWARD FLUX   DIFDOWN FLUX  DIRDOWN FLUX  DOWNWARD FLUX   NET FLUX    HEATING RATE
          mb          W/m2          W/m2          W/m2        W/m2          W/m2       degree/day
  51    .06700        8.7397        0.0000       20.8114       20.8114      12.071639       0.00000
  50    .07753        8.7395        0.0003       20.8070       20.8074      12.067832       3.05153
  49    .09103        8.7393        0.0007       20.8009       20.8016      12.062295       3.46082
  48    0.1069        8.7391        0.0012       20.7928       20.7939      12.054885       3.94426
  47    0.1255        8.7388        0.0017       20.7820       20.7837      12.044981       4.49030
  46    0.1487        8.7384        0.0024       20.7665       20.7688      12.030418       5.30839
  45    0.1794        8.7380        0.0033       20.7424       20.7457      12.007753       6.22198
  44    0.2165        8.7374        0.0044       20.7103       20.7147      11.977230       6.94334
  43    0.2613        8.7369        0.0056       20.6675       20.6731      11.936236       7.72725
  42    0.3336        8.7360        0.0077       20.5880       20.5956      11.859676       8.92616
  41    0.4307        8.7349        0.0104       20.4722       20.4826      11.747724       9.73393
  40    0.5894        8.7333        0.0147       20.2637       20.2784      11.545043      10.77834
  39     1.339        8.7299        0.0331       19.0984       19.1315      10.401583      12.87329
  38     1.782        8.7304        0.0427       18.4394       18.4820       9.751673      12.37324
  37     2.292        8.7330        0.0530       17.7714       17.8244       9.091348      10.93670
  36     2.964        8.7395        0.0657       17.0421       17.1078       8.368256       9.07699
  35     3.853        8.7523        0.0816       16.2678       16.3494       7.597127       7.31816
  34     5.035        8.7733        0.1017       15.4803       15.5820       6.808706       5.63215
  33     6.613        8.8039        0.1275       14.7157       14.8432       6.039225       4.11365
  32     8.786        8.8444        0.1612       13.9936       14.1548       5.310408       2.83046
  31     11.80        8.8972        0.2082       13.2835       13.4918       4.594617       2.00399
  30     15.07        8.9481        0.2570       12.7394       12.9964       4.048308       1.41046
  29     18.79        9.0006        0.3111       12.2666       12.5777       3.577032       1.06853
  28     23.16        9.0565        0.3725       11.8300       12.2025       3.146071       0.83334
  27     28.12        9.1137        0.4414       11.4279       11.8692       2.755559       0.66384
  26     33.73        9.1665        0.5172       11.0695       11.5867       2.420225       0.50418
  25     40.54        9.2165        0.6079       10.7209       11.3288       2.112227       0.38211
  24     48.69        9.2638        0.7154       10.3742       11.0896       1.825839       0.29637
  23     57.69        9.3025        0.8318       10.0549       10.8867       1.584229       0.22647
  22     68.43        9.3338        0.9683        9.7327       10.7011       1.367332       0.17051
  21     81.20        9.3486        1.1296        9.4134       10.5430       1.194383       0.11428
  20     96.49        9.3451        1.3191        9.0887       10.4078       1.062731       0.07266
  19     114.6        9.3313        1.5381        8.7388       10.2769       0.945547       0.05472
  18     136.5        9.3102        1.7884        8.3549       10.1433       0.833108       0.04324
  17     162.9        9.2819        2.0738        7.9311       10.0049       0.723021       0.03519
  16     196.4        9.2344        2.4272        7.4333        9.8605       0.626125       0.02439
  15     218.7        9.2002        2.6495        7.1295        9.7790       0.578869       0.01794
  14     243.0        9.1627        2.8819        6.8161        9.6979       0.535233       0.01513
  13     269.0        9.1217        3.1235        6.4943        9.6178       0.496053       0.01271
  12     297.5        9.0774        3.3732        6.1657        9.5389       0.461515       0.01024
  11     328.5        9.0311        3.6301        5.8295        9.4595       0.428449       0.00899
  10     361.9        8.9833        3.8917        5.4886        9.3803       0.397003       0.00796
   9     398.1        8.9341        4.1573        5.1440        9.3013       0.367203       0.00694
   8     437.6        8.8840        4.4256        4.7969        9.2225       0.338477       0.00614
   7     480.5        8.8335        4.6943        4.4504        9.1447       0.311210       0.00536
   6     533.0        8.7754        5.0006        4.0563        9.0569       0.281488       0.00478
   5     589.8        8.7181        5.3026        3.6682        8.9708       0.252712       0.00427
   4     651.6        8.6625        5.5966        3.2905        8.8871       0.224560       0.00385
   3     718.7        8.6091        5.8809        2.9252        8.8061       0.196988       0.00346
   2     792.3        8.5587        6.1523        2.5764        8.7287       0.170001       0.00310
   1     891.5        8.0769        7.9757        0.2393        8.2150       0.138074       0.00272
   0    1013.0        8.0778        7.9877        0.1937        8.1814       0.103555       0.00240



 Wavenumbers: 38000. - 50000. cm-1, ATM      1
 LEVEL PRESSURE   UPWARD FLUX   DIFDOWN FLUX  DIRDOWN FLUX  DOWNWARD FLUX   NET FLUX    HEATING RATE
          mb          W/m2          W/m2          W/m2        W/m2          W/m2       degree/day
  51    .06700        0.0061        0.0000        1.2836        1.2836       1.277518       0.00000
  50    .07753        0.0061        0.0001        1.2812        1.2812       1.275183       1.87150
  49    .09103        0.0060        0.0002        1.2777        1.2778       1.271851       2.08247
  48    0.1069        0.0059        0.0002        1.2731        1.2734       1.267473       2.33059
  47    0.1255        0.0058        0.0004        1.2672        1.2675       1.261717       2.60908
  46    0.1487        0.0057        0.0005        1.2586        1.2591       1.253391       3.03499
  45    0.1794        0.0055        0.0007        1.2455        1.2462       1.240623       3.50520
  44    0.2165        0.0054        0.0009        1.2282        1.2291       1.223697       3.85037
  43    0.2613        0.0052        0.0011        1.2054        1.2065       1.201348       4.21261
  42    0.3336        0.0049        0.0015        1.1639        1.1654       1.160524       4.75970
  41    0.4307        0.0045        0.0020        1.1051        1.1070       1.102565       5.03943
  40    0.5894        0.0039        0.0026        1.0039        1.0064       1.002524       5.32007
  39     1.339        0.0022        0.0035        0.5438        0.5473       0.545104       5.14971
  38     1.782        0.0016        0.0032        0.3635        0.3666       0.365006       3.42879
  37     2.292        0.0012        0.0027        0.2356        0.2383       0.237058       2.11916
  36     2.964        0.0009        0.0022        0.1455        0.1477       0.146786       1.13318
  35     3.853        0.0006        0.0017        0.0858        0.0875       0.086906       0.56828
  34     5.035        0.0004        0.0013        0.0488        0.0501       0.049701       0.26578
  33     6.613        0.0003        0.0010        0.0273        0.0282       0.027974       0.11615
  32     8.786        0.0002        0.0007        0.0144        0.0151       0.014928       0.05067
  31     11.80        0.0001        0.0004        0.0065        0.0070       0.006903       0.02247
  30     15.07        0.0000        0.0003        0.0031        0.0034       0.003329       0.00923
  29     18.79        0.0000        0.0002        0.0014        0.0016       0.001583       0.00396
  28     23.16        0.0000        0.0001        0.0006        0.0007       0.000720       0.00167
  27     28.12        0.0000        0.0001        0.0003        0.0003       0.000317       0.00069
  26     33.73        0.0000        0.0000        0.0001        0.0001       0.000140       0.00027
  25     40.54        0.0000        0.0000        0.0000        0.0001       0.000057       0.00010
  24     48.69        0.0000        0.0000        0.0000        0.0000       0.000021       0.00004
  23     57.69        0.0000        0.0000        0.0000        0.0000       0.000008       0.00001
  22     68.43        0.0000        0.0000        0.0000        0.0000       0.000003       0.00000
  21     81.20        0.0000        0.0000        0.0000        0.0000       0.000001       0.00000
  20     96.49        0.0000        0.0000        0.0000        0.0000       0.000000       0.00000
  19     114.6        0.0000        0.0000        0.0000        0.0000       0.000000       0.00000
  18     136.5        0.0000        0.0000        0.0000        0.0000       0.000000       0.00000
  17     162.9        0.0000        0.0000        0.0000        0.0000       0.000000       0.00000
  16     196.4        0.0000        0.0000        0.0000        0.0000       0.000000       0.00000
  15     218.7        0.0000        0.0000        0.0000        0.0000       0.000000       0.00000
  14     243.0        0.0000        0.0000        0.0000        0.0000       0.000000       0.00000
  13     269.0        0.0000        0.0000        0.0000        0.0000       0.000000       0.00000
  12     297.5        0.0000        0.0000        0.0000        0.0000       0.000000       0.00000
  11     328.5        0.0000        0.0000        0.0000        0.0000       0.000000       0.00000
  10     361.9        0.0000        0.0000        0.0000        0.0000       0.000000       0.00000
   9     398.1        0.0000        0.0000        0.0000        0.0000       0.000000       0.00000
   8     437.6        0.0000        0.0000        0.0000        0.0000       0.000000       0.00000
   7     480.5        0.0000        0.0000        0.0000        0.0000       0.000000       0.00000
   6     533.0        0.0000        0.0000        0.0000        0.0000       0.000000       0.00000
   5     589.8        0.0000        0.0000        0.0000        0.0000       0.000000       0.00000
   4     651.6        0.0000        0.0000        0.0000        0.0000       0.000000       0.00000
   3     718.7        0.0000        0.0000        0.0000        0.0000       0.000000       0.00000
   2     792.3        0.0000        0.0000        0.0000        0.0000       0.000000       0.00000
   1     891.5        0.0000        0.0000        0.0000        0.0000       0.000000       0.00000
   0    1013.0        0.0000        0.0000        0.0000        0.0000       0.000000       0.00000



 Wavenumbers:   820. -  2600. cm-1, ATM      1
 LEVEL PRESSURE   UPWARD FLUX   DIFDOWN FLUX  DIRDOWN FLUX  DOWNWARD FLUX   NET FLUX    HEATING RATE
          mb          W/m2          W/m2          W/m2        W/m2          W/m2       degree/day
  51    .06700        1.2096        0.0000        6.0047        6.0047       4.795087       0.00000
  50    .07753        1.2096        0.0000        6.0008        6.0008       4.791234       3.08823
  49    .09103        1.2096        0.0000        5.9999        5.9999       4.790348       0.55360
  48    0.1069        1.2096        0.0000        5.9989        5.9989       4.789359       0.52654
  47    0.1255        1.2096        0.0000        5.9978        5.9978       4.788242       0.50652
  46    0.1487        1.2096        0.0000        5.9964        5.9964       4.786885       0.49459
  45    0.1794        1.2096        0.0000        5.9947        5.9947       4.785166       0.47202
  44    0.2165        1.2096        0.0000        5.9929        5.9929       4.783323       0.41912
  43    0.2613        1.2096        0.0000        5.9909        5.9909       4.781364       0.36935
  42    0.3336        1.2096        0.0000        5.9880        5.9880       4.778486       0.33558
  41    0.4307        1.2096        0.0000        5.9846        5.9846       4.775016       0.30167
  40    0.5894        1.2096        0.0000        5.9791        5.9791       4.769510       0.29279
  39     1.339        1.2096        0.0000        5.9536        5.9536       4.744021       0.28697
  38     1.782        1.2096        0.0000        5.9395        5.9395       4.729881       0.26920
  37     2.292        1.2096        0.0000        5.9237        5.9237       4.714128       0.26091
  36     2.964        1.2096        0.0000        5.9039        5.9039       4.694352       0.24825
  35     3.853        1.2096        0.0000        5.8793        5.8793       4.669693       0.23402
  34     5.035        1.2096        0.0000        5.8487        5.8487       4.639126       0.21836
  33     6.613        1.2096        0.0000        5.8108        5.8108       4.601156       0.20299
  32     8.786        1.2096        0.0000        5.7631        5.7631       4.553525       0.18498
  31     11.80        1.2096        0.0000        5.7039        5.7039       4.494257       0.16593
  30     15.07        1.2097        0.0000        5.6539        5.6539       4.444206       0.12922
  29     18.79        1.2097        0.0000        5.6127        5.6127       4.403056       0.09330
  28     23.16        1.2097        0.0000        5.5794        5.5794       4.369662       0.06457
  27     28.12        1.2097        0.0000        5.5518        5.5518       4.342074       0.04690
  26     33.73        1.2098        0.0000        5.5268        5.5268       4.316995       0.03771
  25     40.54        1.2098        0.0000        5.4993        5.4993       4.289519       0.03409
  24     48.69        1.2099        0.0000        5.4678        5.4678       4.257937       0.03268
  23     57.69        1.2099        0.0000        5.4340        5.4340       4.224102       0.03172
  22     68.43        1.2100        0.0000        5.3947        5.3948       4.184770       0.03092
  21     81.20        1.2101        0.0000        5.3497        5.3497       4.139665       0.02980
  20     96.49        1.2102        0.0000        5.2982        5.2982       4.088061       0.02848
  19     114.6        1.2103        0.0000        5.2389        5.2389       4.028628       0.02775
  18     136.5        1.2104        0.0000        5.1716        5.1717       3.961230       0.02592
  17     162.9        1.2107        0.0000        5.0890        5.0891       3.878397       0.02648
  16     196.4        1.2110        0.0000        4.9668        4.9668       3.755808       0.03086
  15     218.7        1.2114        0.0000        4.8585        4.8585       3.647084       0.04128
  14     243.0        1.2120        0.0000        4.7078        4.7079       3.495881       0.05244
  13     269.0        1.2129        0.0000        4.5343        4.5343       3.321426       0.05659
  12     297.5        1.2143        0.0000        4.3419        4.3420       3.127700       0.05746
  11     328.5        1.2162        0.0000        4.1281        4.1281       2.911984       0.05865
  10     361.9        1.2187        0.0000        3.8786        3.8787       2.659992       0.06376
   9     398.1        1.2220        0.0000        3.6159        3.6160       2.393986       0.06197
   8     437.6        1.2262        0.0000        3.3759        3.3759       2.149665       0.05224
   7     480.5        1.2315        0.0000        3.1957        3.1958       1.964328       0.03640
   6     533.0        1.2394        0.0000        3.0467        3.0467       1.807271       0.02527
   5     589.8        1.2512        0.0000        2.9023        2.9023       1.651080       0.02318
   4     651.6        1.2719        0.0001        2.7183        2.7184       1.446465       0.02798
   3     718.7        1.3076        0.0001        2.5058        2.5059       1.198247       0.03119
   2     792.3        1.3755        0.0001        2.2756        2.2757       0.900198       0.03418
   1     891.5        0.6366        0.9919        0.2169        1.2088       0.572172       0.02791
   0    1013.0        0.7654        0.8093        0.1710        0.9803       0.214919       0.02481

  Modules and versions used in this calculation:

       rrtmg_sw.1col.f90:  $Revision$                    rrtmg_sw_init.f90:  $Revision$        
     rrtmgsw_cldprop.f90:  $Revision$                  rrtmgsw_cldprmc.f90:  NOT USED          
     rrtmg_sw_reftra.f90:  $Revision$                  rrtmg_sw_spcvrt.f90:  NOT USED          
     rrtmg_sw_spcvmc.f90:  NOT USED                    rrtmgsw_setcoef.f90:  NOT USED          
     rrtmg_sw_taumol.f90:  $Revision$                  rrtmg_sw_vrtqdr.f90:  NOT USED          
                rrtatm.f:  NOT USED                             util_xxx.f:  NOT USED          
                 extra.f:  NOT USED                       rrtmg_sw_k_g.f90:  $Revision$        

