

 Wavenumbers:   820. - 50000. cm-1, ATM      1
 LEVEL PRESSURE   UPWARD FLUX   DIFDOWN FLUX  DIRDOWN FLUX  DOWNWARD FLUX   NET FLUX    HEATING RATE
          mb          W/m2          W/m2          W/m2        W/m2          W/m2       degree/day
  51    .06700      451.2053        0.0000      617.8126      617.8126     166.607258       0.00000
  50    .07753      451.2050        0.0014      617.7947      617.7961     166.591115      12.93880
  49    .09103      451.2045        0.0030      617.7778      617.7808     166.576301       9.25887
  48    0.1069      451.2040        0.0050      617.7581      617.7631     166.559035       9.19087
  47    0.1255      451.2035        0.0072      617.7340      617.7412     166.537685       9.67932
  46    0.1487      451.2030        0.0101      617.7009      617.7109     166.507991      10.82368
  45    0.1794      451.2023        0.0139      617.6521      617.6660     166.463748      12.14572
  44    0.2165      451.2015        0.0185      617.5895      617.6080     166.406411      13.04309
  43    0.2613      451.2009        0.0238      617.5089      617.5327     166.331879      14.04909
  42    0.3336      451.2000        0.0327      617.3641      617.3968     166.196757      15.75382
  41    0.4307      451.1994        0.0443      617.1591      617.2035     166.004081      16.75276
  40    0.5894      451.1993        0.0631      616.8005      616.8636     165.664293      18.06949
  39     1.339      451.2174        0.1481      614.9443      615.0924     163.875033      20.14382
  38     1.782      451.2408        0.1960      613.9670      614.1630     162.922254      18.13938
  37     2.292      451.2794        0.2504      613.0059      613.2563     161.976911      15.65734
  36     2.964      451.3476        0.3212      611.9577      612.2788     160.931276      13.12588
  35     3.853      451.4619        0.4140      610.8024      611.2164     159.754449      11.16830
  34     5.035      451.6377        0.5364      609.5327      610.0691     158.431373       9.45150
  33     6.613      451.8854        0.6989      608.1464      608.8454     156.960004       7.86594
  32     8.786      452.2080        0.9170      606.6250      607.5420     155.334065       6.31456
  31     11.80      452.6258        1.2274      604.8486      606.0761     153.450291       5.27397
  30     15.07      453.0236        1.5587      603.2440      604.8027     151.779072       4.31476
  29     18.79      453.4276        1.9315      601.6511      603.5826     150.155029       3.68220
  28     23.16      453.8472        2.3646      599.9927      602.3573     148.510176       3.18062
  27     28.12      454.2657        2.8576      598.2881      601.1457     146.880010       2.77117
  26     33.73      454.6445        3.4073      596.5951      600.0024     145.357875       2.28857
  25     40.54      454.9978        4.0690      594.7727      598.8417     143.843920       1.87823
  24     48.69      455.3227        4.8631      592.7865      597.6496     142.326896       1.56988
  23     57.69      455.5816        5.7312      590.7959      596.5270     140.945458       1.29489
  22     68.43      455.7836        6.7595      588.6191      595.3786     139.595020       1.06163
  21     81.20      455.8766        7.9788      586.2690      594.2478     138.371221       0.80867
  20     96.49      455.8505        9.4225      583.6961      593.1186     137.268144       0.60882
  19     114.6      455.7636       11.1210      580.7708      591.8918     136.128228       0.53226
  18     136.5      455.6161       13.1098      577.4359      590.5457     134.929623       0.46089
  17     162.9      455.4029       15.4439      573.5624      589.0064     133.603483       0.42389
  16     196.4      455.0396       18.4208      568.5907      587.0115     131.971897       0.41069
  15     218.7      454.7733       20.3455      565.0572      585.4027     130.629405       0.50969
  14     243.0      454.4772       22.4101      560.7495      583.1596     128.682404       0.67528
  13     269.0      454.1533       24.6159      555.3947      580.0106     125.857209       0.91648
  12     297.5      453.8086       26.9635      548.9964      575.9599     122.151288       1.09914
  11     328.5      453.4539       29.4596      542.0895      571.5491     118.095256       1.10282
  10     361.9      453.0985       32.1003      534.6242      566.7245     113.625956       1.13078
   9     398.1      452.7560       34.8902      526.4204      561.3106     108.554640       1.18150
   8     437.6      452.4520       37.8280      517.3907      555.2186     102.766601       1.23752
   7     480.5      452.2148       40.9117      507.7216      548.6332      96.418410       1.24676
   6     533.0      452.0891       44.6193      495.9006      540.5199      88.430785       1.28495
   5     589.8      452.2583       48.5100      483.0788      531.5888      79.330499       1.35078
   4     651.6      453.0771       52.5708      468.6907      521.2615      68.184357       1.52426
   3     718.7      455.0557       56.7935      453.2257      510.0193      54.963549       1.66149
   2     792.3      459.5654       61.1559      436.4928      497.6487      38.083368       1.93597
   1     891.5      259.0716      285.1672        0.0008      285.1680      26.096317       1.02004
   0    1013.0      261.4440      281.3980        0.0007      281.3987      19.954717       0.42644



 Wavenumbers:  2600. -  3250. cm-1, ATM      1
 LEVEL PRESSURE   UPWARD FLUX   DIFDOWN FLUX  DIRDOWN FLUX  DOWNWARD FLUX   NET FLUX    HEATING RATE
          mb          W/m2          W/m2          W/m2        W/m2          W/m2       degree/day
  51    .06700        2.0482        0.0000        5.4450        5.4450       3.396847       0.00000
  50    .07753        2.0482        0.0000        5.4450        5.4450       3.396839       0.00640
  49    .09103        2.0482        0.0000        5.4450        5.4450       3.396829       0.00627
  48    0.1069        2.0482        0.0000        5.4450        5.4450       3.396818       0.00613
  47    0.1255        2.0482        0.0000        5.4450        5.4450       3.396805       0.00599
  46    0.1487        2.0482        0.0000        5.4450        5.4450       3.396788       0.00608
  45    0.1794        2.0482        0.0000        5.4450        5.4450       3.396765       0.00625
  44    0.2165        2.0482        0.0000        5.4449        5.4449       3.396738       0.00612
  43    0.2613        2.0482        0.0000        5.4449        5.4449       3.396707       0.00600
  42    0.3336        2.0482        0.0000        5.4448        5.4448       3.396654       0.00617
  41    0.4307        2.0482        0.0000        5.4448        5.4448       3.396582       0.00620
  40    0.5894        2.0482        0.0000        5.4446        5.4446       3.396463       0.00637
  39     1.339        2.0482        0.0000        5.4439        5.4439       3.395755       0.00797
  38     1.782        2.0482        0.0000        5.4434        5.4434       3.395212       0.01034
  37     2.292        2.0482        0.0000        5.4427        5.4427       3.394496       0.01186
  36     2.964        2.0482        0.0000        5.4416        5.4416       3.393457       0.01304
  35     3.853        2.0482        0.0000        5.4402        5.4402       3.391980       0.01402
  34     5.035        2.0482        0.0000        5.4381        5.4381       3.389924       0.01469
  33     6.613        2.0482        0.0000        5.4353        5.4353       3.387142       0.01487
  32     8.786        2.0482        0.0000        5.4317        5.4317       3.383509       0.01411
  31     11.80        2.0482        0.0000        5.4269        5.4269       3.378727       0.01339
  30     15.07        2.0482        0.0000        5.4224        5.4224       3.374198       0.01169
  29     18.79        2.0482        0.0000        5.4180        5.4180       3.369781       0.01001
  28     23.16        2.0482        0.0000        5.4135        5.4135       3.365289       0.00869
  27     28.12        2.0482        0.0000        5.4088        5.4088       3.360632       0.00792
  26     33.73        2.0482        0.0000        5.4036        5.4036       3.355378       0.00790
  25     40.54        2.0482        0.0000        5.3966        5.3967       3.348416       0.00864
  24     48.69        2.0483        0.0000        5.3872        5.3872       3.338908       0.00984
  23     57.69        2.0483        0.0000        5.3754        5.3754       3.327081       0.01109
  22     68.43        2.0484        0.0000        5.3599        5.3599       3.311531       0.01222
  21     81.20        2.0485        0.0000        5.3401        5.3401       3.291608       0.01316
  20     96.49        2.0486        0.0000        5.3155        5.3155       3.266916       0.01363
  19     114.6        2.0488        0.0001        5.2853        5.2854       3.236546       0.01418
  18     136.5        2.0491        0.0001        5.2504        5.2505       3.201394       0.01352
  17     162.9        2.0495        0.0001        5.2111        5.2112       3.161699       0.01269
  16     196.4        2.0501        0.0001        5.1640        5.1641       3.114022       0.01200
  15     218.7        2.0507        0.0001        5.1331        5.1332       3.082473       0.01198
  14     243.0        2.0518        0.0001        5.0962        5.0963       3.044538       0.01316
  13     269.0        2.0534        0.0001        5.0511        5.0512       2.997800       0.01516
  12     297.5        2.0559        0.0001        4.9956        4.9957       2.939858       0.01718
  11     328.5        2.0593        0.0001        4.9304        4.9305       2.871183       0.01867
  10     361.9        2.0641        0.0002        4.8511        4.8513       2.787162       0.02126
   9     398.1        2.0707        0.0002        4.7507        4.7509       2.680166       0.02493
   8     437.6        2.0799        0.0002        4.6220        4.6222       2.542340       0.02947
   7     480.5        2.0927        0.0002        4.4625        4.4627       2.369997       0.03385
   6     533.0        2.1136        0.0002        4.2460        4.2462       2.132613       0.03819
   5     589.8        2.1458        0.0002        3.9954        3.9956       1.849801       0.04198
   4     651.6        2.1994        0.0002        3.7089        3.7091       1.509640       0.04652
   3     718.7        2.2892        0.0002        3.4018        3.4020       1.112833       0.04987
   2     792.3        2.4555        0.0002        3.0564        3.0567       0.601121       0.05869
   1     891.5        0.4360        0.6967        0.0000        0.6967       0.260618       0.02898
   0    1013.0        0.4855        0.6114        0.0000        0.6114       0.125951       0.00935



 Wavenumbers:  3250. -  4000. cm-1, ATM      1
 LEVEL PRESSURE   UPWARD FLUX   DIFDOWN FLUX  DIRDOWN FLUX  DOWNWARD FLUX   NET FLUX    HEATING RATE
          mb          W/m2          W/m2          W/m2        W/m2          W/m2       degree/day
  51    .06700        0.0715        0.0000        9.1795        9.1795       9.108035       0.00000
  50    .07753        0.0715        0.0000        9.1747        9.1747       9.103192       3.88148
  49    .09103        0.0715        0.0000        9.1713        9.1713       9.099804       2.11747
  48    0.1069        0.0715        0.0000        9.1688        9.1688       9.097279       1.34402
  47    0.1255        0.0715        0.0000        9.1665        9.1665       9.095020       1.02422
  46    0.1487        0.0715        0.0000        9.1641        9.1641       9.092579       0.88991
  45    0.1794        0.0715        0.0000        9.1612        9.1612       9.089701       0.79008
  44    0.2165        0.0715        0.0000        9.1583        9.1583       9.086781       0.66430
  43    0.2613        0.0715        0.0000        9.1553        9.1553       9.083808       0.56041
  42    0.3336        0.0715        0.0000        9.1511        9.1511       9.079629       0.48723
  41    0.4307        0.0715        0.0000        9.1464        9.1464       9.074860       0.41459
  40    0.5894        0.0715        0.0000        9.1393        9.1394       9.067855       0.37255
  39     1.339        0.0715        0.0000        9.1127        9.1127       9.041241       0.29962
  38     1.782        0.0715        0.0000        9.1011        9.1011       9.029653       0.22062
  37     2.292        0.0715        0.0000        9.0901        9.0901       9.018586       0.18329
  36     2.964        0.0715        0.0000        9.0776        9.0776       9.006156       0.15603
  35     3.853        0.0715        0.0000        9.0629        9.0629       8.991366       0.14036
  34     5.035        0.0715        0.0000        9.0441        9.0441       8.972627       0.13386
  33     6.613        0.0715        0.0000        9.0191        9.0191       8.947626       0.13366
  32     8.786        0.0715        0.0000        8.9843        8.9843       8.912842       0.13509
  31     11.80        0.0715        0.0000        8.9327        8.9327       8.861226       0.14451
  30     15.07        0.0715        0.0000        8.8758        8.8759       8.804381       0.14676
  29     18.79        0.0715        0.0000        8.8110        8.8110       8.739554       0.14698
  28     23.16        0.0715        0.0000        8.7365        8.7366       8.665109       0.14395
  27     28.12        0.0715        0.0000        8.6554        8.6555       8.583996       0.13789
  26     33.73        0.0715        0.0000        8.5719        8.5719       8.500496       0.12554
  25     40.54        0.0714        0.0001        8.4812        8.4812       8.409772       0.11255
  24     48.69        0.0714        0.0001        8.3838        8.3839       8.312471       0.10069
  23     57.69        0.0714        0.0001        8.2861        8.2862       8.214735       0.09161
  22     68.43        0.0714        0.0001        8.1751        8.1751       8.103739       0.08726
  21     81.20        0.0714        0.0001        8.0457        8.0458       7.974380       0.08548
  20     96.49        0.0714        0.0001        7.8949        7.8951       7.823676       0.08318
  19     114.6        0.0714        0.0001        7.7162        7.7163       7.644966       0.08344
  18     136.5        0.0713        0.0002        7.5193        7.5195       7.448122       0.07569
  17     162.9        0.0713        0.0002        7.2913        7.2915       7.220229       0.07284
  16     196.4        0.0713        0.0002        6.9660        6.9662       6.894950       0.08188
  15     218.7        0.0713        0.0002        6.6648        6.6650       6.593750       0.11435
  14     243.0        0.0713        0.0002        6.2619        6.2622       6.190925       0.13971
  13     269.0        0.0713        0.0003        5.7576        5.7579       5.686553       0.16362
  12     297.5        0.0715        0.0003        5.1719        5.1722       5.100706       0.17376
  11     328.5        0.0717        0.0002        4.5757        4.5760       4.504276       0.16217
  10     361.9        0.0721        0.0002        3.9995        3.9998       3.927651       0.14589
   9     398.1        0.0729        0.0002        3.4655        3.4657       3.392857       0.12459
   8     437.6        0.0741        0.0002        2.9740        2.9743       2.900185       0.10534
   7     480.5        0.0760        0.0002        2.5307        2.5309       2.454829       0.08747
   6     533.0        0.0799        0.0002        2.0614        2.0616       1.981707       0.07611
   5     589.8        0.0868        0.0002        1.6150        1.6151       1.528286       0.06730
   4     651.6        0.1015        0.0001        1.1565        1.1566       1.055132       0.06471
   3     718.7        0.1337        0.0001        0.7390        0.7391       0.605413       0.05652
   2     792.3        0.2200        0.0001        0.3985        0.3985       0.178549       0.04896
   1     891.5        0.0001        0.0083        0.0000        0.0083       0.008276       0.01449
   0    1013.0        0.0007        0.0009        0.0000        0.0009       0.000178       0.00056



 Wavenumbers:  4000. -  4650. cm-1, ATM      1
 LEVEL PRESSURE   UPWARD FLUX   DIFDOWN FLUX  DIRDOWN FLUX  DOWNWARD FLUX   NET FLUX    HEATING RATE
          mb          W/m2          W/m2          W/m2        W/m2          W/m2       degree/day
  51    .06700        6.6702        0.0000       10.7795       10.7795       4.109354       0.00000
  50    .07753        6.6702        0.0000       10.7795       10.7795       4.109353       0.00080
  49    .09103        6.6702        0.0000       10.7795       10.7795       4.109352       0.00078
  48    0.1069        6.6702        0.0000       10.7795       10.7795       4.109350       0.00077
  47    0.1255        6.6702        0.0000       10.7795       10.7795       4.109349       0.00075
  46    0.1487        6.6702        0.0000       10.7795       10.7795       4.109347       0.00076
  45    0.1794        6.6702        0.0000       10.7795       10.7795       4.109344       0.00078
  44    0.2165        6.6702        0.0000       10.7795       10.7795       4.109340       0.00076
  43    0.2613        6.6702        0.0000       10.7795       10.7795       4.109336       0.00075
  42    0.3336        6.6702        0.0000       10.7795       10.7795       4.109330       0.00077
  41    0.4307        6.6702        0.0000       10.7795       10.7795       4.109321       0.00078
  40    0.5894        6.6702        0.0000       10.7795       10.7795       4.109306       0.00080
  39     1.339        6.6702        0.0000       10.7794       10.7794       4.109216       0.00101
  38     1.782        6.6702        0.0000       10.7793       10.7793       4.109146       0.00133
  37     2.292        6.6702        0.0000       10.7792       10.7792       4.109052       0.00156
  36     2.964        6.6702        0.0000       10.7791       10.7791       4.108911       0.00177
  35     3.853        6.6702        0.0000       10.7789       10.7789       4.108703       0.00198
  34     5.035        6.6702        0.0000       10.7786       10.7786       4.108395       0.00220
  33     6.613        6.6702        0.0000       10.7781       10.7781       4.107942       0.00242
  32     8.786        6.6702        0.0000       10.7774       10.7775       4.107273       0.00260
  31     11.80        6.6702        0.0001       10.7763       10.7764       4.106221       0.00295
  30     15.07        6.6702        0.0001       10.7751       10.7752       4.104986       0.00319
  29     18.79        6.6702        0.0001       10.7736       10.7737       4.103491       0.00339
  28     23.16        6.6702        0.0001       10.7717       10.7718       4.101633       0.00359
  27     28.12        6.6702        0.0001       10.7695       10.7696       4.099382       0.00383
  26     33.73        6.6702        0.0002       10.7667       10.7668       4.096604       0.00418
  25     40.54        6.6703        0.0002       10.7629       10.7631       4.092830       0.00468
  24     48.69        6.6704        0.0002       10.7579       10.7582       4.087795       0.00521
  23     57.69        6.6705        0.0003       10.7520       10.7523       4.081816       0.00560
  22     68.43        6.6706        0.0003       10.7446       10.7449       4.074309       0.00590
  21     81.20        6.6709        0.0004       10.7355       10.7359       4.065043       0.00612
  20     96.49        6.6712        0.0005       10.7245       10.7250       4.053741       0.00624
  19     114.6        6.6717        0.0006       10.7107       10.7113       4.039566       0.00662
  18     136.5        6.6724        0.0007       10.6942       10.6949       4.022432       0.00659
  17     162.9        6.6735        0.0008       10.6740       10.6748       4.001343       0.00674
  16     196.4        6.6752        0.0010       10.6464       10.6473       3.972094       0.00736
  15     218.7        6.6768        0.0011       10.6255       10.6265       3.949741       0.00849
  14     243.0        6.6791        0.0012       10.5980       10.5992       3.920189       0.01025
  13     269.0        6.6824        0.0013       10.5611       10.5624       3.880014       0.01303
  12     297.5        6.6873        0.0015       10.5119       10.5134       3.826125       0.01598
  11     328.5        6.6940        0.0016       10.4499       10.4515       3.757513       0.01866
  10     361.9        6.7027        0.0018       10.3702       10.3719       3.669192       0.02235
   9     398.1        6.7138        0.0019       10.2678       10.2697       3.555896       0.02640
   8     437.6        6.7280        0.0021       10.1390       10.1411       3.413096       0.03053
   7     480.5        6.7463        0.0023        9.9877        9.9900       3.243719       0.03327
   6     533.0        6.7746        0.0025        9.7937        9.7962       3.021607       0.03573
   5     589.8        6.8159        0.0027        9.5752        9.5779       2.762002       0.03853
   4     651.6        6.8833        0.0029        9.2958        9.2987       2.415448       0.04739
   3     718.7        6.9985        0.0031        8.9267        8.9299       1.931356       0.06084
   2     792.3        7.2207        0.0033        8.4542        8.4576       1.236851       0.07965
   1     891.5        1.9673        2.7204        0.0000        2.7204       0.753118       0.04116
   0    1013.0        2.0515        2.5838        0.0000        2.5838       0.532257       0.01534



 Wavenumbers:  4650. -  5150. cm-1, ATM      1
 LEVEL PRESSURE   UPWARD FLUX   DIFDOWN FLUX  DIRDOWN FLUX  DOWNWARD FLUX   NET FLUX    HEATING RATE
          mb          W/m2          W/m2          W/m2        W/m2          W/m2       degree/day
  51    .06700        4.8112        0.0000       10.2033       10.2033       5.392180       0.00000
  50    .07753        4.8112        0.0000       10.2031       10.2031       5.391944       0.18901
  49    .09103        4.8112        0.0000       10.2028       10.2028       5.391649       0.18428
  48    0.1069        4.8112        0.0000       10.2025       10.2025       5.391313       0.17931
  47    0.1255        4.8112        0.0000       10.2021       10.2021       5.390928       0.17426
  46    0.1487        4.8112        0.0000       10.2016       10.2016       5.390447       0.17536
  45    0.1794        4.8112        0.0000       10.2010       10.2010       5.389797       0.17850
  44    0.2165        4.8112        0.0000       10.2002       10.2002       5.389037       0.17277
  43    0.2613        4.8112        0.0000       10.1993       10.1993       5.388152       0.16690
  42    0.3336        4.8112        0.0000       10.1979       10.1979       5.386719       0.16702
  41    0.4307        4.8112        0.0000       10.1960       10.1960       5.384879       0.16002
  40    0.5894        4.8112        0.0000       10.1932       10.1932       5.382005       0.15283
  39     1.339        4.8112        0.0000       10.1816       10.1816       5.370413       0.13051
  38     1.782        4.8112        0.0000       10.1760       10.1760       5.364883       0.10527
  37     2.292        4.8112        0.0000       10.1706       10.1706       5.359426       0.09039
  36     2.964        4.8112        0.0000       10.1646       10.1647       5.353502       0.07437
  35     3.853        4.8112        0.0000       10.1584       10.1584       5.347285       0.05900
  34     5.035        4.8112        0.0000       10.1521       10.1521       5.340945       0.04529
  33     6.613        4.8112        0.0000       10.1456       10.1456       5.334481       0.03456
  32     8.786        4.8112        0.0001       10.1386       10.1386       5.327459       0.02727
  31     11.80        4.8112        0.0001       10.1295       10.1296       5.318396       0.02537
  30     15.07        4.8112        0.0001       10.1196       10.1197       5.308487       0.02558
  29     18.79        4.8113        0.0001       10.1076       10.1077       5.296437       0.02732
  28     23.16        4.8114        0.0002       10.0923       10.0924       5.281071       0.02971
  27     28.12        4.8115        0.0002       10.0731       10.0733       5.261893       0.03260
  26     33.73        4.8116        0.0002       10.0500       10.0503       5.238688       0.03489
  25     40.54        4.8118        0.0003       10.0201       10.0204       5.208626       0.03730
  24     48.69        4.8121        0.0003        9.9820        9.9823       5.170228       0.03974
  23     57.69        4.8125        0.0004        9.9384        9.9389       5.126399       0.04108
  22     68.43        4.8130        0.0005        9.8858        9.8862       5.073266       0.04177
  21     81.20        4.8137        0.0006        9.8234        9.8240       5.010319       0.04159
  20     96.49        4.8147        0.0007        9.7518        9.7524       4.937733       0.04006
  19     114.6        4.8161        0.0008        9.6719        9.6727       4.856624       0.03787
  18     136.5        4.8180        0.0009        9.5858        9.5867       4.768727       0.03380
  17     162.9        4.8207        0.0011        9.4940        9.4952       4.674472       0.03013
  16     196.4        4.8248        0.0013        9.3883        9.3896       4.564824       0.02760
  15     218.7        4.8280        0.0015        9.3229        9.3244       4.496383       0.02598
  14     243.0        4.8322        0.0016        9.2520        9.2536       4.421427       0.02600
  13     269.0        4.8378        0.0018        9.1717        9.1735       4.335691       0.02781
  12     297.5        4.8456        0.0020        9.0763        9.0783       4.232706       0.03054
  11     328.5        4.8557        0.0022        8.9650        8.9671       4.111450       0.03297
  10     361.9        4.8688        0.0024        8.8349        8.8373       3.968522       0.03616
   9     398.1        4.8857        0.0026        8.6820        8.6846       3.798838       0.03953
   8     437.6        4.9079        0.0028        8.5028        8.5056       3.597718       0.04300
   7     480.5        4.9367        0.0030        8.2948        8.2978       3.361132       0.04646
   6     533.0        4.9807        0.0032        8.0209        8.0241       3.043391       0.05111
   5     589.8        5.0422        0.0035        7.7063        7.7098       2.667609       0.05578
   4     651.6        5.1336        0.0037        7.3412        7.3450       2.211318       0.06240
   3     718.7        5.2730        0.0039        6.9387        6.9426       1.669558       0.06808
   2     792.3        5.4990        0.0041        6.5066        6.5107       1.011748       0.07544
   1     891.5        1.3755        1.9515        0.0000        1.9515       0.575967       0.03708
   0    1013.0        1.4525        1.8293        0.0000        1.8293       0.376836       0.01383



 Wavenumbers:  5150. -  6150. cm-1, ATM      1
 LEVEL PRESSURE   UPWARD FLUX   DIFDOWN FLUX  DIRDOWN FLUX  DOWNWARD FLUX   NET FLUX    HEATING RATE
          mb          W/m2          W/m2          W/m2        W/m2          W/m2       degree/day
  51    .06700       11.4616        0.0000       25.5798       25.5798      14.118233       0.00000
  50    .07753       11.4616        0.0000       25.5798       25.5798      14.118193       0.03163
  49    .09103       11.4616        0.0000       25.5797       25.5797      14.118142       0.03211
  48    0.1069       11.4616        0.0000       25.5797       25.5797      14.118080       0.03262
  47    0.1255       11.4616        0.0000       25.5796       25.5796      14.118007       0.03312
  46    0.1487       11.4616        0.0000       25.5795       25.5795      14.117912       0.03489
  45    0.1794       11.4616        0.0000       25.5794       25.5794      14.117776       0.03714
  44    0.2165       11.4616        0.0000       25.5792       25.5792      14.117611       0.03770
  43    0.2613       11.4616        0.0000       25.5790       25.5790      14.117408       0.03827
  42    0.3336       11.4616        0.0000       25.5786       25.5786      14.117061       0.04044
  41    0.4307       11.4616        0.0000       25.5782       25.5782      14.116589       0.04098
  40    0.5894       11.4616        0.0000       25.5774       25.5774      14.115800       0.04199
  39     1.339       11.4616        0.0000       25.5735       25.5736      14.111995       0.04284
  38     1.782       11.4616        0.0001       25.5713       25.5714      14.109779       0.04219
  37     2.292       11.4616        0.0001       25.5688       25.5688      14.107271       0.04155
  36     2.964       11.4616        0.0001       25.5656       25.5657      14.104083       0.04002
  35     3.853       11.4616        0.0001       25.5615       25.5616      14.100030       0.03846
  34     5.035       11.4616        0.0002       25.5562       25.5564      14.094809       0.03730
  33     6.613       11.4616        0.0002       25.5494       25.5496      14.088034       0.03622
  32     8.786       11.4616        0.0003       25.5406       25.5409      14.079250       0.03411
  31     11.80       11.4617        0.0004       25.5287       25.5290      14.067364       0.03328
  30     15.07       11.4617        0.0005       25.5167       25.5172      14.055437       0.03079
  29     18.79       11.4618        0.0006       25.5042       25.5048      14.042957       0.02829
  28     23.16       11.4619        0.0007       25.4907       25.4914      14.029503       0.02602
  27     28.12       11.4620        0.0009       25.4764       25.4774      14.015302       0.02414
  26     33.73       11.4622        0.0011       25.4620       25.4631      14.000886       0.02167
  25     40.54       11.4625        0.0013       25.4463       25.4476      13.985086       0.01960
  24     48.69       11.4628        0.0016       25.4294       25.4309      13.968114       0.01756
  23     57.69       11.4633        0.0019       25.4126       25.4145      13.951212       0.01584
  22     68.43       11.4638        0.0022       25.3944       25.3966      13.932805       0.01447
  21     81.20       11.4645        0.0026       25.3744       25.3770      13.912492       0.01342
  20     96.49       11.4654        0.0031       25.3519       25.3550      13.889609       0.01263
  19     114.6       11.4665        0.0037       25.3262       25.3299      13.863318       0.01228
  18     136.5       11.4679        0.0044       25.2962       25.3006      13.832671       0.01178
  17     162.9       11.4696        0.0052       25.2521       25.2573      13.787705       0.01437
  16     196.4       11.4719        0.0063       25.1593       25.1656      13.693627       0.02368
  15     218.7       11.4736        0.0069       25.0159       25.0229      13.549261       0.05481
  14     243.0       11.4757        0.0076       24.7089       24.7166      13.240879       0.10696
  13     269.0       11.4783        0.0083       24.1619       24.1702      12.691862       0.17810
  12     297.5       11.4819        0.0090       23.4544       23.4634      11.981485       0.21069
  11     328.5       11.4866        0.0097       22.7355       22.7452      11.258577       0.19656
  10     361.9       11.4928        0.0105       21.9224       21.9329      10.440039       0.20710
   9     398.1       11.5012        0.0112       20.9939       21.0051       9.503868       0.21811
   8     437.6       11.5128        0.0118       19.9833       19.9952       8.482339       0.21841
   7     480.5       11.5289        0.0125       18.9483       18.9608       7.431857       0.20631
   6     533.0       11.5563        0.0132       17.7796       17.7928       6.236522       0.19229
   5     589.8       11.6008        0.0140       16.6726       16.6866       5.085787       0.17081
   4     651.6       11.6825        0.0148       15.6343       15.6491       3.966635       0.15305
   3     718.7       11.8330        0.0157       14.7738       14.7895       2.956470       0.12695
   2     792.3       12.1376        0.0166       14.0291       14.0457       1.908111       0.12024
   1     891.5        3.6472        4.8806        0.0000        4.8806       1.233385       0.05742
   0    1013.0        3.7404        4.7108        0.0000        4.7108       0.970421       0.01826



 Wavenumbers:  6150. -  7700. cm-1, ATM      1
 LEVEL PRESSURE   UPWARD FLUX   DIFDOWN FLUX  DIRDOWN FLUX  DOWNWARD FLUX   NET FLUX    HEATING RATE
          mb          W/m2          W/m2          W/m2        W/m2          W/m2       degree/day
  51    .06700       18.3368        0.0000       47.3109       47.3109      28.974012       0.00000
  50    .07753       18.3368        0.0000       47.3108       47.3108      28.973955       0.04553
  49    .09103       18.3368        0.0000       47.3107       47.3107      28.973882       0.04583
  48    0.1069       18.3368        0.0000       47.3106       47.3106      28.973795       0.04614
  47    0.1255       18.3368        0.0000       47.3105       47.3105      28.973693       0.04645
  46    0.1487       18.3368        0.0000       47.3104       47.3104      28.973559       0.04852
  45    0.1794       18.3368        0.0000       47.3102       47.3102      28.973373       0.05127
  44    0.2165       18.3368        0.0000       47.3100       47.3100      28.973146       0.05167
  43    0.2613       18.3368        0.0000       47.3097       47.3097      28.972869       0.05210
  42    0.3336       18.3368        0.0000       47.3092       47.3092      28.972400       0.05471
  41    0.4307       18.3368        0.0000       47.3085       47.3086      28.971765       0.05521
  40    0.5894       18.3368        0.0001       47.3074       47.3075      28.970706       0.05633
  39     1.339       18.3367        0.0002       47.3022       47.3024      28.965613       0.05733
  38     1.782       18.3367        0.0002       47.2991       47.2994      28.962643       0.05655
  37     2.292       18.3367        0.0003       47.2956       47.2959      28.959267       0.05591
  36     2.964       18.3366        0.0004       47.2912       47.2916      28.954949       0.05421
  35     3.853       18.3366        0.0005       47.2855       47.2860      28.949414       0.05252
  34     5.035       18.3365        0.0007       47.2780       47.2787      28.942234       0.05130
  33     6.613       18.3363        0.0009       47.2683       47.2692      28.932846       0.05019
  32     8.786       18.3362        0.0012       47.2556       47.2567      28.920546       0.04777
  31     11.80       18.3360        0.0016       47.2380       47.2396      28.903642       0.04733
  30     15.07       18.3357        0.0020       47.2201       47.2221      28.886354       0.04464
  29     18.79       18.3354        0.0025       47.2008       47.2033      28.867873       0.04190
  28     23.16       18.3351        0.0031       47.1795       47.1826      28.847481       0.03943
  27     28.12       18.3347        0.0037       47.1565       47.1602      28.825486       0.03739
  26     33.73       18.3343        0.0045       47.1324       47.1369      28.802562       0.03447
  25     40.54       18.3338        0.0053       47.1054       47.1107      28.776922       0.03181
  24     48.69       18.3332        0.0064       47.0754       47.0818      28.748664       0.02924
  23     57.69       18.3325        0.0076       47.0449       47.0526      28.720037       0.02683
  22     68.43       18.3317        0.0090       47.0110       47.0200      28.688292       0.02496
  21     81.20       18.3308        0.0107       46.9729       46.9836      28.652788       0.02346
  20     96.49       18.3296        0.0127       46.9294       46.9421      28.612433       0.02227
  19     114.6       18.3283        0.0151       46.8790       46.8941      28.565779       0.02178
  18     136.5       18.3268        0.0179       46.8200       46.8379      28.511127       0.02102
  17     162.9       18.3249        0.0213       46.7361       46.7574      28.432452       0.02515
  16     196.4       18.3227        0.0256       46.5703       46.5959      28.273119       0.04011
  15     218.7       18.3215        0.0284       46.3473       46.3757      28.054189       0.08312
  14     243.0       18.3206        0.0314       45.9299       45.9612      27.640610       0.14344
  13     269.0       18.3205        0.0343       45.1708       45.2051      26.884578       0.24525
  12     297.5       18.3221        0.0372       44.0115       44.0487      25.726583       0.34345
  11     328.5       18.3260        0.0402       42.7242       42.7644      24.438452       0.35024
  10     361.9       18.3333        0.0432       41.3539       41.3972      23.063914       0.34777
   9     398.1       18.3459        0.0462       39.7953       39.8415      21.495607       0.36538
   8     437.6       18.3672        0.0491       37.9948       38.0438      19.676661       0.38890
   7     480.5       18.4012        0.0518       36.0647       36.1165      17.715344       0.38520
   6     533.0       18.4650        0.0547       33.7773       33.8320      15.366970       0.37778
   5     589.8       18.5765        0.0574       31.4082       31.4656      12.889097       0.36780
   4     651.6       18.7923        0.0597       28.8834       28.9431      10.150829       0.37447
   3     718.7       19.2075        0.0617       26.4104       26.4721       7.264628       0.36272
   2     792.3       20.1028        0.0634       24.0056       24.0690       3.966234       0.37829
   1     891.5        5.1880        7.2371        0.0000        7.2372       2.049146       0.16313
   0    1013.0        5.4152        6.8201        0.0000        6.8202       1.404959       0.04473



 Wavenumbers:  7700. -  8050. cm-1, ATM      1
 LEVEL PRESSURE   UPWARD FLUX   DIFDOWN FLUX  DIRDOWN FLUX  DOWNWARD FLUX   NET FLUX    HEATING RATE
          mb          W/m2          W/m2          W/m2        W/m2          W/m2       degree/day
  51    .06700        8.4140        0.0000       11.1810       11.1810       2.766991       0.00000
  50    .07753        8.4140        0.0000       11.1809       11.1809       2.766967       0.01900
  49    .09103        8.4140        0.0000       11.1809       11.1809       2.766937       0.01862
  48    0.1069        8.4140        0.0000       11.1809       11.1809       2.766903       0.01823
  47    0.1255        8.4140        0.0000       11.1809       11.1809       2.766864       0.01784
  46    0.1487        8.4140        0.0000       11.1808       11.1808       2.766814       0.01810
  45    0.1794        8.4140        0.0000       11.1808       11.1808       2.766746       0.01862
  44    0.2165        8.4141        0.0000       11.1807       11.1807       2.766666       0.01827
  43    0.2613        8.4141        0.0000       11.1806       11.1806       2.766571       0.01793
  42    0.3336        8.4141        0.0000       11.1805       11.1805       2.766413       0.01834
  41    0.4307        8.4142        0.0000       11.1803       11.1804       2.766205       0.01814
  40    0.5894        8.4142        0.0000       11.1801       11.1801       2.765864       0.01813
  39     1.339        8.4146        0.0001       11.1788       11.1789       2.764251       0.01815
  38     1.782        8.4149        0.0001       11.1781       11.1782       2.763304       0.01803
  37     2.292        8.4151        0.0001       11.1772       11.1773       2.762208       0.01816
  36     2.964        8.4155        0.0002       11.1761       11.1763       2.760768       0.01807
  35     3.853        8.4160        0.0002       11.1746       11.1748       2.758866       0.01805
  34     5.035        8.4166        0.0003       11.1726       11.1729       2.756339       0.01805
  33     6.613        8.4174        0.0004       11.1700       11.1704       2.752963       0.01805
  32     8.786        8.4185        0.0005       11.1664       11.1669       2.748415       0.01766
  31     11.80        8.4201        0.0007       11.1613       11.1620       2.741911       0.01821
  30     15.07        8.4218        0.0009       11.1558       11.1568       2.734932       0.01802
  29     18.79        8.4238        0.0012       11.1497       11.1508       2.727053       0.01786
  28     23.16        8.4261        0.0014       11.1425       11.1439       2.717859       0.01778
  27     28.12        8.4287        0.0017       11.1343       11.1360       2.707357       0.01785
  26     33.73        8.4316        0.0021       11.1252       11.1273       2.695620       0.01765
  25     40.54        8.4352        0.0025       11.1142       11.1167       2.681464       0.01756
  24     48.69        8.4395        0.0030       11.1010       11.1040       2.664435       0.01762
  23     57.69        8.4443        0.0035       11.0866       11.0901       2.645779       0.01749
  22     68.43        8.4501        0.0042       11.0695       11.0737       2.623625       0.01742
  21     81.20        8.4570        0.0049       11.0494       11.0543       2.597329       0.01738
  20     96.49        8.4653        0.0059       11.0255       11.0314       2.566132       0.01722
  19     114.6        8.4752        0.0070       10.9975       11.0045       2.529281       0.01721
  18     136.5        8.4872        0.0083       10.9648       10.9730       2.485861       0.01670
  17     162.9        8.5016        0.0098       10.9263       10.9361       2.434498       0.01642
  16     196.4        8.5207        0.0118       10.8773       10.8891       2.368400       0.01664
  15     218.7        8.5334        0.0131       10.8455       10.8586       2.325247       0.01638
  14     243.0        8.5475        0.0145       10.8114       10.8260       2.278500       0.01621
  13     269.0        8.5630        0.0161       10.7749       10.7909       2.227936       0.01640
  12     297.5        8.5802        0.0177       10.7357       10.7534       2.173252       0.01622
  11     328.5        8.5992        0.0195       10.6937       10.7133       2.114047       0.01610
  10     361.9        8.6203        0.0215       10.6489       10.6703       2.049999       0.01620
   9     398.1        8.6438        0.0236       10.6008       10.6243       1.980471       0.01620
   8     437.6        8.6702        0.0258       10.5491       10.5749       1.904668       0.01621
   7     480.5        8.6998        0.0282       10.4934       10.5216       1.821834       0.01627
   6     533.0        8.7384        0.0311       10.4243       10.4554       1.717028       0.01686
   5     589.8        8.7834        0.0343       10.3479       10.3822       1.598785       0.01755
   4     651.6        8.8375        0.0377       10.2613       10.2990       1.461563       0.01877
   3     718.7        8.9038        0.0413       10.1618       10.2031       1.299251       0.02040
   2     792.3        8.9883        0.0452       10.0439       10.0890       1.100712       0.02277
   1     891.5        2.9724        3.8997        0.0000        3.8997       0.927357       0.01475
   0    1013.0        3.0329        3.8197        0.0000        3.8197       0.786863       0.00976



 Wavenumbers:  8050. - 12850. cm-1, ATM      1
 LEVEL PRESSURE   UPWARD FLUX   DIFDOWN FLUX  DIRDOWN FLUX  DOWNWARD FLUX   NET FLUX    HEATING RATE
          mb          W/m2          W/m2          W/m2        W/m2          W/m2       degree/day
  51    .06700      109.7178        0.0000      156.5418      156.5418      46.823960       0.00000
  50    .07753      109.7178        0.0000      156.5417      156.5417      46.823960      -0.00000
  49    .09103      109.7178        0.0001      156.5417      156.5417      46.823960       0.00000
  48    0.1069      109.7178        0.0001      156.5416      156.5417      46.823960      -0.00000
  47    0.1255      109.7177        0.0002      156.5415      156.5417      46.823960       0.00000
  46    0.1487      109.7177        0.0002      156.5414      156.5417      46.823960       0.00000
  45    0.1794      109.7177        0.0003      156.5413      156.5416      46.823960       0.00000
  44    0.2165      109.7176        0.0004      156.5412      156.5416      46.823960      -0.00000
  43    0.2613      109.7176        0.0006      156.5410      156.5416      46.823960      -0.00000
  42    0.3336      109.7175        0.0008      156.5407      156.5415      46.823960       0.00000
  41    0.4307      109.7174        0.0011      156.5403      156.5414      46.823960      -0.00000
  40    0.5894      109.7173        0.0016      156.5397      156.5412      46.823960       0.00000
  39     1.339      109.7165        0.0038      156.5367      156.5405      46.823960       0.00000
  38     1.782      109.7161        0.0051      156.5350      156.5401      46.823960      -0.00000
  37     2.292      109.7156        0.0066      156.5330      156.5396      46.823960      -0.00000
  36     2.964      109.7150        0.0086      156.5303      156.5389      46.823960       0.00000
  35     3.853      109.7141        0.0112      156.5268      156.5381      46.823960       0.00000
  34     5.035      109.7130        0.0147      156.5222      156.5369      46.823960      -0.00000
  33     6.613      109.7114        0.0194      156.5160      156.5354      46.823960       0.00000
  32     8.786      109.7093        0.0257      156.5076      156.5333      46.823960      -0.00000
  31     11.80      109.7064        0.0347      156.4957      156.5303      46.823960      -0.00000
  30     15.07      109.7032        0.0444      156.4828      156.5272      46.823960       0.00000
  29     18.79      109.6996        0.0553      156.4682      156.5236      46.823960      -0.00000
  28     23.16      109.6954        0.0681      156.4512      156.5193      46.823960       0.00000
  27     28.12      109.6906        0.0828      156.4317      156.5145      46.823960       0.00000
  26     33.73      109.6851        0.0992      156.4099      156.5091      46.823960       0.00000
  25     40.54      109.6786        0.1191      156.3834      156.5026      46.823960       0.00000
  24     48.69      109.6707        0.1431      156.3515      156.4947      46.823960       0.00000
  23     57.69      109.6620        0.1695      156.3164      156.4860      46.823960       0.00000
  22     68.43      109.6516        0.2010      156.2746      156.4756      46.823960       0.00000
  21     81.20      109.6393        0.2386      156.2246      156.4632      46.823960      -0.00000
  20     96.49      109.6245        0.2835      156.1649      156.4485      46.823960       0.00000
  19     114.6      109.6072        0.3369      156.0879      156.4248      46.817676       0.00293
  18     136.5      109.5866        0.4003      155.9962      156.3965      46.809884       0.00300
  17     162.9      109.5621        0.4760      155.8831      156.3590      46.796970       0.00413
  16     196.4      109.5304        0.5744      155.7199      156.2943      46.763938       0.00831
  15     218.7      109.5100        0.6391      155.5733      156.2124      46.702367       0.02338
  14     243.0      109.4892        0.7095      155.3367      156.0461      46.556943       0.05044
  13     269.0      109.4696        0.7856      154.9514      155.7370      46.267353       0.09394
  12     297.5      109.4544        0.8675      154.3896      155.2571      45.802780       0.13779
  11     328.5      109.4453        0.9559      153.7151      154.6710      45.225670       0.15691
  10     361.9      109.4467        1.0508      152.9087      153.9595      44.512873       0.18034
   9     398.1      109.4651        1.1523      151.8986      153.0509      43.585781       0.21599
   8     437.6      109.5125        1.2603      150.6031      151.8635      42.350989       0.26401
   7     480.5      109.6029        1.3746      149.0014      150.3760      40.773006       0.30991
   6     533.0      109.7899        1.5128      146.7375      148.2504      38.460518       0.37201
   5     589.8      110.1324        1.6577      143.8730      145.5307      35.398332       0.45453
   4     651.6      110.8052        1.8064      140.0955      141.9019      31.096774       0.58825
   3     718.7      112.0707        1.9572      135.5278      137.4850      25.414315       0.71413
   2     792.3      114.6023        2.1064      130.0690      132.1754      17.573120       0.89930
   1     891.5       34.2662       46.1130        0.0002       46.1133      11.847081       0.48726
   0    1013.0       35.2758       44.4278        0.0002       44.4280       9.152181       0.18712



 Wavenumbers: 12850. - 16000. cm-1, ATM      1
 LEVEL PRESSURE   UPWARD FLUX   DIFDOWN FLUX  DIRDOWN FLUX  DOWNWARD FLUX   NET FLUX    HEATING RATE
          mb          W/m2          W/m2          W/m2        W/m2          W/m2       degree/day
  51    .06700       80.1408        0.0000       98.0872       98.0872      17.946426       0.00000
  50    .07753       80.1408        0.0001       98.0864       98.0864      17.945633       0.63536
  49    .09103       80.1408        0.0002       98.0853       98.0855      17.944637       0.62241
  48    0.1069       80.1408        0.0003       98.0841       98.0843      17.943493       0.60922
  47    0.1255       80.1408        0.0004       98.0826       98.0830      17.942177       0.59635
  46    0.1487       80.1409        0.0005       98.0809       98.0814      17.940517       0.60537
  45    0.1794       80.1409        0.0007       98.0784       98.0792      17.938256       0.62048
  44    0.2165       80.1410        0.0010       98.0756       98.0766      17.935596       0.60511
  43    0.2613       80.1411        0.0013       98.0723       98.0736      17.932466       0.58999
  42    0.3336       80.1414        0.0017       98.0670       98.0687      17.927354       0.59603
  41    0.4307       80.1418        0.0024       98.0602       98.0626      17.920738       0.57527
  40    0.5894       80.1427        0.0034       98.0496       98.0530      17.910300       0.55509
  39     1.339       80.1498        0.0082       98.0043       98.0126      17.862801       0.53475
  38     1.782       80.1562        0.0111       97.9793       97.9904      17.834156       0.54536
  37     2.292       80.1657        0.0144       97.9498       97.9641      17.798390       0.59238
  36     2.964       80.1815        0.0187       97.9088       97.9275      17.745975       0.65796
  35     3.853       80.2069        0.0244       97.8503       97.8747      17.667818       0.74172
  34     5.035       80.2451        0.0319       97.7680       97.7999      17.554847       0.80702
  33     6.613       80.2984        0.0420       97.6562       97.6982      17.399848       0.82862
  32     8.786       80.3678        0.0557       97.5107       97.5663      17.198517       0.78190
  31     11.80       80.4583        0.0751       97.3179       97.3930      16.934699       0.73861
  30     15.07       80.5451        0.0960       97.1283       97.2243      16.679245       0.65953
  29     18.79       80.6338        0.1195       96.9300       97.0495      16.415744       0.59744
  28     23.16       80.7267        0.1470       96.7166       96.8636      16.136839       0.53931
  27     28.12       80.8205        0.1784       96.4935       96.6719      15.851410       0.48521
  26     33.73       80.9075        0.2136       96.2731       96.4867      15.579154       0.40934
  25     40.54       80.9919        0.2560       96.0408       96.2968      15.304923       0.34021
  24     48.69       81.0735        0.3073       95.7946       96.1018      15.028318       0.28624
  23     57.69       81.1437        0.3635       95.5573       95.9208      14.777104       0.23548
  22     68.43       81.2062        0.4306       95.3106       95.7412      14.534956       0.19036
  21     81.20       81.2519        0.5106       95.0643       95.5749      14.323036       0.14003
  20     96.49       81.2797        0.6060       94.8153       95.4213      14.141662       0.10011
  19     114.6       81.3105        0.7204       94.5411       95.2615      13.950964       0.08904
  18     136.5       81.3358        0.8560       94.2320       95.0880      13.752190       0.07643
  17     162.9       81.3558        1.0174       93.8753       94.8927      13.536920       0.06881
  16     196.4       81.3599        1.2268       93.4347       94.6614      13.301505       0.05926
  15     218.7       81.3551        1.3643       93.1513       94.5156      13.160516       0.05353
  14     243.0       81.3468        1.5137       92.8439       94.3577      13.010903       0.05189
  13     269.0       81.3353        1.6757       92.5111       94.1868      12.851539       0.05170
  12     297.5       81.3214        1.8507       92.1495       94.0002      12.678737       0.05125
  11     328.5       81.3076        2.0398       91.7554       93.7952      12.487603       0.05197
  10     361.9       81.2950        2.2433       91.3262       93.5695      12.274518       0.05391
   9     398.1       81.2858        2.4623       90.8575       93.3199      12.034007       0.05603
   8     437.6       81.2840        2.6973       90.3418       93.0391      11.755131       0.05963
   7     480.5       81.2935        2.9490       89.7728       92.7218      11.428296       0.06419
   6     533.0       81.3271        3.2584       89.0428       92.3013      10.974139       0.07306
   5     589.8       81.4032        3.5908       88.2038       91.7946      10.391364       0.08650
   4     651.6       81.5656        3.9456       87.1979       91.1435       9.577964       0.11123
   3     718.7       81.8491        4.3214       86.0161       90.3376       8.488450       0.13692
   2     792.3       82.3568        4.7145       84.5970       89.3115       6.954736       0.17590
   1     891.5       41.9953       47.5477        0.0001       47.5478       5.552513       0.11932
   0    1013.0       42.5070       46.8808        0.0001       46.8810       4.374002       0.08183



 Wavenumbers: 16000. - 22650. cm-1, ATM      1
 LEVEL PRESSURE   UPWARD FLUX   DIFDOWN FLUX  DIRDOWN FLUX  DOWNWARD FLUX   NET FLUX    HEATING RATE
          mb          W/m2          W/m2          W/m2        W/m2          W/m2       degree/day
  51    .06700      140.7814        0.0000      156.3892      156.3892      15.607821       0.00000
  50    .07753      140.7814        0.0004      156.3887      156.3891      15.607673       0.11830
  49    .09103      140.7814        0.0009      156.3879      156.3888      15.607458       0.13417
  48    0.1069      140.7814        0.0015      156.3871      156.3885      15.607171       0.15300
  47    0.1255      140.7814        0.0021      156.3861      156.3882      15.606786       0.17440
  46    0.1487      140.7814        0.0030      156.3847      156.3877      15.606219       0.20666
  45    0.1794      140.7816        0.0041      156.3828      156.3869      15.605333       0.24333
  44    0.2165      140.7818        0.0054      156.3805      156.3859      15.604131       0.27348
  43    0.2613      140.7821        0.0070      156.3776      156.3846      15.602500       0.30745
  42    0.3336      140.7829        0.0096      156.3726      156.3823      15.599399       0.36156
  41    0.4307      140.7841        0.0131      156.3657      156.3789      15.594724       0.40643
  40    0.5894      140.7867        0.0188      156.3537      156.3725      15.585809       0.47409
  39     1.339      140.8093        0.0458      156.2834      156.3292      15.519944       0.74152
  38     1.782      140.8302        0.0616      156.2324      156.2940      15.463835       1.06822
  37     2.292      140.8615        0.0800      156.1641      156.2441      15.382617       1.34519
  36     2.964      140.9135        0.1040      156.0605      156.1645      15.251042       1.65166
  35     3.853      140.9976        0.1358      155.9041      156.0399      15.042266       1.98133
  34     5.035      141.1245        0.1779      155.6774      155.8553      14.730787       2.22507
  33     6.613      141.3018        0.2342      155.3656      155.5998      14.297923       2.31409
  32     8.786      141.5328        0.3098      154.9577      155.2675      13.734669       2.18748
  31     11.80      141.8334        0.4179      154.4153      154.8332      12.999768       2.05749
  30     15.07      142.1214        0.5338      153.8804      154.4142      12.292818       1.82521
  29     18.79      142.4154        0.6646      153.3191      153.9837      11.568260       1.64280
  28     23.16      142.7227        0.8170      152.7126      153.5296      10.806937       1.47215
  27     28.12      143.0318        0.9911      152.0755      153.0666      10.034830       1.31253
  26     33.73      143.3171        1.1858      151.4409      152.6267       9.309590       1.09042
  25     40.54      143.5916        1.4207      150.7637      152.1844       8.592793       0.88927
  24     48.69      143.8543        1.7037      150.0338      151.7375       7.883154       0.73436
  23     57.69      144.0770        2.0141      149.3151      151.3292       7.252215       0.59141
  22     68.43      144.2711        2.3834      148.5476      150.9310       6.659931       0.46561
  21     81.20      144.4048        2.8231      147.7517      150.5748       6.169974       0.32376
  20     96.49      144.4737        3.3466      146.9127      150.2592       5.785483       0.21221
  19     114.6      144.5090        3.9663      145.9763      149.9426       5.433572       0.16432
  18     136.5      144.5194        4.6980      144.9088      149.6068       5.087384       0.13312
  17     162.9      144.5033        5.5653      143.6785      149.2439       4.740605       0.11084
  16     196.4      144.4207        6.6844      142.1651      148.8494       4.428713       0.07851
  15     218.7      144.3439        7.4156      141.2033      148.6190       4.275055       0.05834
  14     243.0      144.2501        8.2071      140.1753      148.3825       4.132324       0.04950
  13     269.0      144.1378        9.0610      139.0797      148.1407       4.002913       0.04198
  12     297.5      144.0062        9.9793      137.9141      147.8933       3.887176       0.03433
  11     328.5      143.8594       10.9663      136.6676      147.6339       3.774461       0.03065
  10     361.9      143.6972       12.0229      135.3392      147.3621       3.664884       0.02772
   9     398.1      143.5192       13.1533      133.9235      147.0767       3.557509       0.02502
   8     437.6      143.3264       14.3593      132.4163      146.7755       3.449124       0.02317
   7     480.5      143.1185       15.6431      130.8147      146.4578       3.339368       0.02156
   6     533.0      142.8630       17.2112      128.8599      146.0711       3.208113       0.02111
   5     589.8      142.5923       18.8865      126.7679      145.6545       3.062165       0.02166
   4     651.6      142.3136       20.6708      124.5274      145.1983       2.884692       0.02427
   3     718.7      142.0337       22.5658      122.1285      144.6942       2.660480       0.02818
   2     792.3      141.7712       24.5691      119.5548      144.1240       2.352747       0.03529
   1     891.5      113.2477      115.2062        0.0002      115.2065       1.958745       0.03353
   0    1013.0      113.4719      114.9313        0.0002      114.9315       1.459630       0.03466



 Wavenumbers: 22650. - 29000. cm-1, ATM      1
 LEVEL PRESSURE   UPWARD FLUX   DIFDOWN FLUX  DIRDOWN FLUX  DOWNWARD FLUX   NET FLUX    HEATING RATE
          mb          W/m2          W/m2          W/m2        W/m2          W/m2       degree/day
  51    .06700       58.4207        0.0000       59.0156       59.0156       0.594946       0.00000
  50    .07753       58.4206        0.0005       59.0151       59.0155       0.594946      -0.00000
  49    .09103       58.4205        0.0010       59.0144       59.0154       0.594946       0.00000
  48    0.1069       58.4203        0.0017       59.0136       59.0153       0.594946      -0.00000
  47    0.1255       58.4202        0.0025       59.0127       59.0151       0.594946      -0.00000
  46    0.1487       58.4200        0.0034       59.0115       59.0149       0.594946       0.00000
  45    0.1794       58.4197        0.0048       59.0099       59.0147       0.594946       0.00000
  44    0.2165       58.4194        0.0063       59.0080       59.0144       0.594946      -0.00000
  43    0.2613       58.4191        0.0082       59.0058       59.0140       0.594946      -0.00000
  42    0.3336       58.4185        0.0113       59.0022       59.0134       0.594946      -0.00000
  41    0.4307       58.4177        0.0153       58.9973       59.0126       0.594946       0.00000
  40    0.5894       58.4164        0.0220       58.9894       59.0113       0.594946      -0.00000
  39     1.339       58.4103        0.0534       58.9518       59.0052       0.594946       0.00000
  38     1.782       58.4067        0.0719       58.9297       59.0016       0.594946      -0.00000
  37     2.292       58.4025        0.0933       58.9042       58.9975       0.594946       0.00000
  36     2.964       58.3970        0.1213       58.8706       58.9920       0.594946       0.00000
  35     3.853       58.3898        0.1584       58.8264       58.9848       0.594946      -0.00000
  34     5.035       58.3802        0.2076       58.7676       58.9752       0.594946       0.00000
  33     6.613       58.3675        0.2733       58.6891       58.9624       0.594946      -0.00000
  32     8.786       58.3502        0.3618       58.5834       58.9452       0.594946      -0.00000
  31     11.80       58.3256        0.4881       58.4324       58.9206       0.594946      -0.00000
  30     15.07       58.2993        0.6236       58.2706       58.8942       0.594946       0.00000
  29     18.79       58.2695        0.7762       58.0882       58.8645       0.594946       0.00000
  28     23.16       58.2349        0.9541       57.8757       58.8298       0.594946      -0.00000
  27     28.12       58.1954        1.1570       57.6333       58.7903       0.594946       0.00000
  26     33.73       58.1513        1.3832       57.3631       58.7463       0.594946       0.00000
  25     40.54       58.0983        1.6553       57.0379       58.6932       0.594946       0.00000
  24     48.69       58.0347        1.9818       56.6479       58.6296       0.594946      -0.00000
  23     57.69       57.9652        2.3381       56.2221       58.5602       0.594946       0.00000
  22     68.43       57.8831        2.7595       55.7186       58.4780       0.594946      -0.00000
  21     81.20       57.7861        3.2571       55.1239       58.3810       0.594946       0.00000
  20     96.49       57.6716        3.8438       54.4228       58.2666       0.594946       0.00000
  19     114.6       57.5374        4.5314       53.6010       58.1324       0.594946      -0.00000
  18     136.5       57.3807        5.3339       52.6418       57.9757       0.594946      -0.00000
  17     162.9       57.1974        6.2720       51.5203       57.7924       0.594946       0.00000
  16     196.4       56.9651        7.4606       50.0994       57.5600       0.594946      -0.00000
  15     218.7       56.8156        8.2243       49.1863       57.4106       0.594946       0.00000
  14     243.0       56.6560        9.0397       48.2113       57.2509       0.594946      -0.00000
  13     269.0       56.4862        9.9062       47.1749       57.0811       0.594946       0.00000
  12     297.5       56.3064       10.8231       46.0783       56.9013       0.594946      -0.00000
  11     328.5       56.1163       11.7917       44.9195       56.7112       0.594946      -0.00000
  10     361.9       55.9164       12.8095       43.7018       56.5113       0.594946       0.00000
   9     398.1       55.7065       13.8764       42.4250       56.3015       0.594946      -0.00000
   8     437.6       55.4872       14.9905       41.0916       56.0821       0.594946       0.00000
   7     480.5       55.2587       16.1492       39.7045       55.8537       0.594946       0.00000
   6     533.0       54.9866       17.5273       38.0543       55.5815       0.594946       0.00000
   5     589.8       54.7039       18.9558       36.3431       55.2989       0.594946      -0.00000
   4     651.6       54.4121       20.4275       34.5795       55.0071       0.594946       0.00000
   3     718.7       54.1121       21.9368       32.7702       54.7070       0.594946       0.00000
   2     792.3       53.8055       23.4749       30.9256       54.4004       0.594946       0.00000
   1     891.5       46.1817       46.7755        0.0001       46.7755       0.593786       0.00010
   0    1013.0       46.1610       46.7548        0.0000       46.7548       0.593786       0.00000



 Wavenumbers: 29000. - 38000. cm-1, ATM      1
 LEVEL PRESSURE   UPWARD FLUX   DIFDOWN FLUX  DIRDOWN FLUX  DOWNWARD FLUX   NET FLUX    HEATING RATE
          mb          W/m2          W/m2          W/m2        W/m2          W/m2       degree/day
  51    .06700        8.7473        0.0000       20.8114       20.8114      12.064042       0.00000
  50    .07753        8.7471        0.0003       20.8070       20.8074      12.060234       3.05154
  49    .09103        8.7469        0.0007       20.8009       20.8016      12.054697       3.46084
  48    0.1069        8.7466        0.0012       20.7928       20.7939      12.047287       3.94428
  47    0.1255        8.7464        0.0017       20.7820       20.7837      12.037383       4.49033
  46    0.1487        8.7460        0.0024       20.7665       20.7688      12.022819       5.30843
  45    0.1794        8.7456        0.0033       20.7424       20.7457      12.000155       6.22203
  44    0.2165        8.7450        0.0044       20.7103       20.7147      11.969632       6.94339
  43    0.2613        8.7445        0.0056       20.6675       20.6731      11.928637       7.72731
  42    0.3336        8.7436        0.0077       20.5880       20.5956      11.852077       8.92623
  41    0.4307        8.7425        0.0104       20.4722       20.4826      11.740124       9.73400
  40    0.5894        8.7409        0.0147       20.2637       20.2784      11.537441      10.77843
  39     1.339        8.7375        0.0331       19.0984       19.1315      10.393968      12.87343
  38     1.782        8.7380        0.0427       18.4394       18.4821       9.744047      12.37344
  37     2.292        8.7407        0.0530       17.7714       17.8244       9.083708      10.93695
  36     2.964        8.7472        0.0657       17.0421       17.1078       8.360591       9.07730
  35     3.853        8.7600        0.0816       16.2678       16.3494       7.589422       7.31853
  34     5.035        8.7811        0.1017       15.4803       15.5821       6.800943       5.63257
  33     6.613        8.8118        0.1275       14.7157       14.8432       6.031378       4.11410
  32     8.786        8.8524        0.1613       13.9936       14.1548       5.302448       2.83090
  31     11.80        8.9053        0.2083       13.2835       13.4918       4.586504       2.00442
  30     15.07        8.9564        0.2571       12.7394       12.9964       4.040038       1.41087
  29     18.79        9.0092        0.3111       12.2666       12.5778       3.568590       1.06892
  28     23.16        9.0652        0.3727       11.8300       12.2027       3.137437       0.83371
  27     28.12        9.1227        0.4415       11.4279       11.8694       2.746713       0.66420
  26     33.73        9.1757        0.5174       11.0695       11.5869       2.411163       0.50451
  25     40.54        9.2260        0.6081       10.7209       11.3290       2.102935       0.38239
  24     48.69        9.2735        0.7157       10.3742       11.0898       1.816298       0.29662
  23     57.69        9.3126        0.8321       10.0549       10.8870       1.574449       0.22670
  22     68.43        9.3441        0.9687        9.7327       10.7014       1.357308       0.17070
  21     81.20        9.3593        1.1300        9.4134       10.5434       1.184142       0.11443
  20     96.49        9.3561        1.3196        9.0887       10.4084       1.052308       0.07276
  19     114.6        9.3426        1.5387        8.7388       10.2775       0.934946       0.05480
  18     136.5        9.3218        1.7892        8.3549       10.1441       0.822322       0.04331
  17     162.9        9.2938        2.0747        7.9311       10.0059       0.712034       0.03525
  16     196.4        9.2467        2.4284        7.4333        9.8617       0.614944       0.02444
  15     218.7        9.2128        2.6508        7.1295        9.7804       0.567584       0.01798
  14     243.0        9.1756        2.8834        6.8161        9.6994       0.523848       0.01517
  13     269.0        9.1349        3.1252        6.4943        9.6195       0.484573       0.01274
  12     297.5        9.0909        3.3751        6.1657        9.5408       0.449946       0.01027
  11     328.5        9.0449        3.6322        5.8295        9.4617       0.416790       0.00902
  10     361.9        8.9974        3.8940        5.4886        9.3827       0.385253       0.00798
   9     398.1        8.9486        4.1600        5.1440        9.3039       0.355363       0.00696
   8     437.6        8.8989        4.4285        4.7969        9.2255       0.326544       0.00616
   7     480.5        8.8488        4.6976        4.4504        9.1479       0.299184       0.00537
   6     533.0        8.7912        5.0043        4.0563        9.0606       0.269353       0.00480
   5     589.8        8.7345        5.3067        3.6682        8.9749       0.240463       0.00429
   4     651.6        8.6795        5.6012        3.2905        8.8917       0.212192       0.00387
   3     718.7        8.6268        5.8861        2.9252        8.8112       0.184496       0.00348
   2     792.3        8.5770        6.1580        2.5764        8.7344       0.157377       0.00311
   1     891.5        7.5319        7.6594        0.0000        7.6594       0.127556       0.00254
   0    1013.0        7.5387        7.6357        0.0000        7.6357       0.096974       0.00212



 Wavenumbers: 38000. - 50000. cm-1, ATM      1
 LEVEL PRESSURE   UPWARD FLUX   DIFDOWN FLUX  DIRDOWN FLUX  DOWNWARD FLUX   NET FLUX    HEATING RATE
          mb          W/m2          W/m2          W/m2        W/m2          W/m2       degree/day
  51    .06700        0.0061        0.0000        1.2836        1.2836       1.277518       0.00000
  50    .07753        0.0061        0.0001        1.2812        1.2812       1.275183       1.87150
  49    .09103        0.0060        0.0002        1.2777        1.2778       1.271851       2.08247
  48    0.1069        0.0059        0.0002        1.2731        1.2734       1.267473       2.33059
  47    0.1255        0.0058        0.0004        1.2672        1.2675       1.261717       2.60908
  46    0.1487        0.0057        0.0005        1.2586        1.2591       1.253391       3.03499
  45    0.1794        0.0055        0.0007        1.2455        1.2462       1.240623       3.50520
  44    0.2165        0.0054        0.0009        1.2282        1.2291       1.223697       3.85037
  43    0.2613        0.0052        0.0011        1.2054        1.2065       1.201348       4.21261
  42    0.3336        0.0049        0.0015        1.1639        1.1654       1.160524       4.75970
  41    0.4307        0.0045        0.0020        1.1051        1.1070       1.102565       5.03943
  40    0.5894        0.0039        0.0026        1.0039        1.0064       1.002524       5.32007
  39     1.339        0.0022        0.0035        0.5438        0.5473       0.545104       5.14971
  38     1.782        0.0016        0.0032        0.3635        0.3666       0.365006       3.42879
  37     2.292        0.0012        0.0027        0.2356        0.2383       0.237058       2.11916
  36     2.964        0.0009        0.0022        0.1455        0.1477       0.146786       1.13318
  35     3.853        0.0006        0.0017        0.0858        0.0875       0.086906       0.56828
  34     5.035        0.0004        0.0013        0.0488        0.0501       0.049701       0.26578
  33     6.613        0.0003        0.0010        0.0273        0.0282       0.027974       0.11615
  32     8.786        0.0002        0.0007        0.0144        0.0151       0.014928       0.05067
  31     11.80        0.0001        0.0004        0.0065        0.0070       0.006903       0.02247
  30     15.07        0.0000        0.0003        0.0031        0.0034       0.003329       0.00923
  29     18.79        0.0000        0.0002        0.0014        0.0016       0.001583       0.00396
  28     23.16        0.0000        0.0001        0.0006        0.0007       0.000720       0.00167
  27     28.12        0.0000        0.0001        0.0003        0.0003       0.000317       0.00069
  26     33.73        0.0000        0.0000        0.0001        0.0001       0.000140       0.00027
  25     40.54        0.0000        0.0000        0.0000        0.0001       0.000057       0.00010
  24     48.69        0.0000        0.0000        0.0000        0.0000       0.000021       0.00004
  23     57.69        0.0000        0.0000        0.0000        0.0000       0.000008       0.00001
  22     68.43        0.0000        0.0000        0.0000        0.0000       0.000003       0.00000
  21     81.20        0.0000        0.0000        0.0000        0.0000       0.000001       0.00000
  20     96.49        0.0000        0.0000        0.0000        0.0000       0.000000       0.00000
  19     114.6        0.0000        0.0000        0.0000        0.0000       0.000000       0.00000
  18     136.5        0.0000        0.0000        0.0000        0.0000       0.000000       0.00000
  17     162.9        0.0000        0.0000        0.0000        0.0000       0.000000       0.00000
  16     196.4        0.0000        0.0000        0.0000        0.0000       0.000000       0.00000
  15     218.7        0.0000        0.0000        0.0000        0.0000       0.000000       0.00000
  14     243.0        0.0000        0.0000        0.0000        0.0000       0.000000       0.00000
  13     269.0        0.0000        0.0000        0.0000        0.0000       0.000000       0.00000
  12     297.5        0.0000        0.0000        0.0000        0.0000       0.000000       0.00000
  11     328.5        0.0000        0.0000        0.0000        0.0000       0.000000       0.00000
  10     361.9        0.0000        0.0000        0.0000        0.0000       0.000000       0.00000
   9     398.1        0.0000        0.0000        0.0000        0.0000       0.000000       0.00000
   8     437.6        0.0000        0.0000        0.0000        0.0000       0.000000       0.00000
   7     480.5        0.0000        0.0000        0.0000        0.0000       0.000000       0.00000
   6     533.0        0.0000        0.0000        0.0000        0.0000       0.000000       0.00000
   5     589.8        0.0000        0.0000        0.0000        0.0000       0.000000       0.00000
   4     651.6        0.0000        0.0000        0.0000        0.0000       0.000000       0.00000
   3     718.7        0.0000        0.0000        0.0000        0.0000       0.000000       0.00000
   2     792.3        0.0000        0.0000        0.0000        0.0000       0.000000       0.00000
   1     891.5        0.0000        0.0000        0.0000        0.0000       0.000000       0.00000
   0    1013.0        0.0000        0.0000        0.0000        0.0000       0.000000       0.00000



 Wavenumbers:   820. -  2600. cm-1, ATM      1
 LEVEL PRESSURE   UPWARD FLUX   DIFDOWN FLUX  DIRDOWN FLUX  DOWNWARD FLUX   NET FLUX    HEATING RATE
          mb          W/m2          W/m2          W/m2        W/m2          W/m2       degree/day
  51    .06700        1.5778        0.0000        6.0047        6.0047       4.426895       0.00000
  50    .07753        1.5778        0.0000        6.0008        6.0008       4.423042       3.08825
  49    .09103        1.5778        0.0000        5.9999        5.9999       4.422156       0.55362
  48    0.1069        1.5778        0.0000        5.9989        5.9989       4.421167       0.52656
  47    0.1255        1.5778        0.0000        5.9978        5.9978       4.420050       0.50654
  46    0.1487        1.5778        0.0000        5.9964        5.9964       4.418693       0.49461
  45    0.1794        1.5778        0.0000        5.9947        5.9947       4.416973       0.47205
  44    0.2165        1.5778        0.0000        5.9929        5.9929       4.415131       0.41915
  43    0.2613        1.5778        0.0000        5.9909        5.9909       4.413171       0.36938
  42    0.3336        1.5778        0.0000        5.9880        5.9880       4.410292       0.33561
  41    0.4307        1.5778        0.0000        5.9846        5.9846       4.406823       0.30170
  40    0.5894        1.5778        0.0000        5.9791        5.9791       4.401316       0.29282
  39     1.339        1.5778        0.0000        5.9536        5.9536       4.375824       0.28700
  38     1.782        1.5778        0.0000        5.9395        5.9395       4.361683       0.26923
  37     2.292        1.5778        0.0000        5.9237        5.9237       4.345928       0.26094
  36     2.964        1.5778        0.0000        5.9039        5.9039       4.326149       0.24828
  35     3.853        1.5778        0.0000        5.8793        5.8793       4.301487       0.23405
  34     5.035        1.5778        0.0000        5.8487        5.8487       4.270916       0.21839
  33     6.613        1.5778        0.0000        5.8108        5.8108       4.232941       0.20302
  32     8.786        1.5778        0.0000        5.7631        5.7631       4.185303       0.18501
  31     11.80        1.5779        0.0000        5.7039        5.7039       4.126025       0.16596
  30     15.07        1.5779        0.0000        5.6539        5.6539       4.075963       0.12925
  29     18.79        1.5779        0.0000        5.6127        5.6127       4.034800       0.09333
  28     23.16        1.5780        0.0000        5.5794        5.5794       4.001391       0.06460
  27     28.12        1.5780        0.0000        5.5518        5.5518       3.973786       0.04693
  26     33.73        1.5781        0.0000        5.5268        5.5268       3.948689       0.03773
  25     40.54        1.5781        0.0000        5.4993        5.4993       3.921190       0.03411
  24     48.69        1.5782        0.0000        5.4678        5.4678       3.889582       0.03271
  23     57.69        1.5783        0.0000        5.4340        5.4340       3.855718       0.03174
  22     68.43        1.5784        0.0000        5.3947        5.3948       3.816350       0.03095
  21     81.20        1.5785        0.0000        5.3497        5.3497       3.771202       0.02983
  20     96.49        1.5787        0.0000        5.2982        5.2982       3.719544       0.02851
  19     114.6        1.5789        0.0000        5.2389        5.2389       3.660044       0.02778
  18     136.5        1.5791        0.0000        5.1716        5.1717       3.592563       0.02595
  17     162.9        1.5794        0.0000        5.0890        5.0891       3.509611       0.02651
  16     196.4        1.5800        0.0000        4.9668        4.9668       3.386814       0.03091
  15     218.7        1.5806        0.0000        4.8585        4.8585       3.277892       0.04135
  14     243.0        1.5815        0.0000        4.7078        4.7079       3.126372       0.05255
  13     269.0        1.5828        0.0000        4.5343        4.5343       2.951452       0.05674
  12     297.5        1.5850        0.0000        4.3419        4.3420       2.756987       0.05768
  11     328.5        1.5879        0.0000        4.1281        4.1281       2.540289       0.05892
  10     361.9        1.5917        0.0000        3.8786        3.8787       2.287002       0.06408
   9     398.1        1.5966        0.0000        3.6159        3.6160       2.019331       0.06236
   8     437.6        1.6030        0.0000        3.3759        3.3759       1.772860       0.05270
   7     480.5        1.6109        0.0000        3.1957        3.1958       1.584899       0.03691
   6     533.0        1.6228        0.0000        3.0467        3.0467       1.423879       0.02590
   5     589.8        1.6405        0.0001        2.9023        2.9023       1.261863       0.02405
   4     651.6        1.6711        0.0001        2.7183        2.7184       1.047223       0.02935
   3     718.7        1.7245        0.0001        2.5058        2.5059       0.781353       0.03341
   2     792.3        1.8286        0.0001        2.2756        2.2757       0.447115       0.03833
   1     891.5        0.2623        0.4710        0.0000        0.4710       0.208769       0.02028
   0    1013.0        0.3110        0.3916        0.0000        0.3916       0.080680       0.00889

  Modules and versions used in this calculation:

       rrtmg_sw.1col.f90:  $Revision$                    rrtmg_sw_init.f90:  $Revision$        
     rrtmgsw_cldprop.f90:  $Revision$                  rrtmgsw_cldprmc.f90:  NOT USED          
     rrtmg_sw_reftra.f90:  $Revision$                  rrtmg_sw_spcvrt.f90:  NOT USED          
     rrtmg_sw_spcvmc.f90:  NOT USED                    rrtmgsw_setcoef.f90:  NOT USED          
     rrtmg_sw_taumol.f90:  $Revision$                  rrtmg_sw_vrtqdr.f90:  NOT USED          
                rrtatm.f:  NOT USED                             util_xxx.f:  NOT USED          
                 extra.f:  NOT USED                       rrtmg_sw_k_g.f90:  $Revision$        

