

 Wavenumbers:   820. - 50000. cm-1, ATM      1
 LEVEL PRESSURE   UPWARD FLUX   DIFDOWN FLUX  DIRDOWN FLUX  DOWNWARD FLUX   NET FLUX    HEATING RATE
          mb          W/m2          W/m2          W/m2        W/m2          W/m2       degree/day
  51    .06700      475.4546        0.0000      617.8126      617.8126     142.358009       0.00000
  50    .07753      475.4542        0.0014      617.7947      617.7961     142.341863      12.94115
  49    .09103      475.4538        0.0031      617.7778      617.7808     142.327045       9.26145
  48    0.1069      475.4533        0.0050      617.7581      617.7631     142.309773       9.19373
  47    0.1255      475.4528        0.0073      617.7340      617.7412     142.288416       9.68249
  46    0.1487      475.4523        0.0101      617.7009      617.7110     142.258712      10.82735
  45    0.1794      475.4516        0.0140      617.6521      617.6661     142.214454      12.14997
  44    0.2165      475.4509        0.0185      617.5895      617.6080     142.157096      13.04780
  43    0.2613      475.4503        0.0239      617.5089      617.5328     142.082536      14.05431
  42    0.3336      475.4495        0.0328      617.3641      617.3969     141.947363      15.75987
  41    0.4307      475.4490        0.0445      617.1591      617.2036     141.754609      16.75950
  40    0.5894      475.4492        0.0634      616.8005      616.8638     141.414675      18.07728
  39     1.339      475.4686        0.1487      614.9443      615.0929     139.624357      20.15573
  38     1.782      475.4930        0.1967      613.9670      614.1637     138.670689      18.15629
  37     2.292      475.5332        0.2514      613.0059      613.2572     137.724069      15.67850
  36     2.964      475.6037        0.3224      611.9577      612.2801     136.676375      13.15173
  35     3.853      475.7217        0.4156      610.8024      611.2180     135.496290      11.19922
  34     5.035      475.9029        0.5385      609.5327      610.0712     134.168356       9.48621
  33     6.613      476.1579        0.7017      608.1464      608.8482     132.690219       7.90212
  32     8.786      476.4903        0.9207      606.6250      607.5457     131.055429       6.34893
  31     11.80      476.9211        1.2324      604.8486      606.0811     129.160017       5.30656
  30     15.07      477.3316        1.5651      603.2440      604.8091     127.477493       4.34395
  29     18.79      477.7488        1.9394      601.6511      603.5906     125.841746       3.70874
  28     23.16      478.1827        2.3744      599.9927      602.3671     124.184452       3.20467
  27     28.12      478.6161        2.8696      598.2881      601.1576     122.541499       2.79291
  26     33.73      479.0095        3.4216      596.5951      600.0167     121.007150       2.30694
  25     40.54      479.3780        4.0862      594.7727      598.8589     119.480874       1.89352
  24     48.69      479.7189        4.8838      592.7865      597.6703     117.951352       1.58282
  23     57.69      479.9931        5.7557      590.7959      596.5516     116.558462       1.30562
  22     68.43      480.2109        6.7887      588.6191      595.4078     115.196853       1.07041
  21     81.20      480.3193        8.0135      586.2690      594.2825     113.963196       0.81518
  20     96.49      480.3084        9.4639      583.6961      593.1600     112.851564       0.61354
  19     114.6      480.2374       11.1702      580.7708      591.9410     111.703650       0.53600
  18     136.5      480.1080       13.1684      577.4359      590.6043     110.496356       0.46423
  17     162.9      479.9158       15.5138      573.5624      589.0762     109.160444       0.42701
  16     196.4      479.5784       18.5053      568.5907      587.0960     107.517579       0.41353
  15     218.7      479.3292       20.4397      565.0572      585.4970     106.167746       0.51248
  14     243.0      479.0524       22.5149      560.7495      583.2644     104.212001       0.67832
  13     269.0      478.7511       24.7321      555.3947      580.1268     101.375695       0.92008
  12     297.5      478.4340       27.0922      548.9964      576.0886      97.654607       1.10363
  11     328.5      478.1132       29.6018      542.0895      571.6914      93.578145       1.10838
  10     361.9      477.8003       32.2571      534.6242      566.8814      89.081063       1.13781
   9     398.1      477.5120       35.0628      526.4204      561.4832      83.971243       1.19047
   8     437.6      477.2800       38.0176      517.3907      555.4083      78.128213       1.24928
   7     480.5      477.1396       41.1196      507.7216      548.8412      71.701595       1.26216
   6     533.0      477.1703       44.8497      495.9006      540.7504      63.580112       1.30649
   5     589.8      477.5787       48.7648      483.0788      531.8436      54.264845       1.38269
   4     651.6      478.8100       52.8514      468.6907      521.5421      42.732099       1.57713
   3     718.7      481.5248       57.1017      453.2257      510.3274      28.802683       1.75054
   2     792.3      487.5490       61.4931      436.4928      497.9860      10.436942       2.10634
   1     891.5      113.8020      118.3066        0.0000      118.3066       4.504580       0.50482
   0    1013.0      114.0246      117.9674        0.0000      117.9674       3.942853       0.03900



 Wavenumbers:  2600. -  3250. cm-1, ATM      1
 LEVEL PRESSURE   UPWARD FLUX   DIFDOWN FLUX  DIRDOWN FLUX  DOWNWARD FLUX   NET FLUX    HEATING RATE
          mb          W/m2          W/m2          W/m2        W/m2          W/m2       degree/day
  51    .06700        2.3666        0.0000        5.4450        5.4450       3.078472       0.00000
  50    .07753        2.3666        0.0000        5.4450        5.4450       3.078464       0.00640
  49    .09103        2.3666        0.0000        5.4450        5.4450       3.078454       0.00627
  48    0.1069        2.3666        0.0000        5.4450        5.4450       3.078442       0.00613
  47    0.1255        2.3666        0.0000        5.4450        5.4450       3.078429       0.00599
  46    0.1487        2.3666        0.0000        5.4450        5.4450       3.078412       0.00608
  45    0.1794        2.3666        0.0000        5.4450        5.4450       3.078390       0.00625
  44    0.2165        2.3666        0.0000        5.4449        5.4449       3.078363       0.00612
  43    0.2613        2.3666        0.0000        5.4449        5.4449       3.078331       0.00600
  42    0.3336        2.3666        0.0000        5.4448        5.4448       3.078278       0.00617
  41    0.4307        2.3666        0.0000        5.4448        5.4448       3.078207       0.00620
  40    0.5894        2.3666        0.0000        5.4446        5.4446       3.078087       0.00637
  39     1.339        2.3666        0.0000        5.4439        5.4439       3.077379       0.00797
  38     1.782        2.3666        0.0000        5.4434        5.4434       3.076836       0.01034
  37     2.292        2.3666        0.0000        5.4427        5.4427       3.076120       0.01186
  36     2.964        2.3666        0.0000        5.4416        5.4416       3.075082       0.01304
  35     3.853        2.3666        0.0000        5.4402        5.4402       3.073604       0.01402
  34     5.035        2.3666        0.0000        5.4381        5.4381       3.071548       0.01469
  33     6.613        2.3666        0.0000        5.4353        5.4353       3.068766       0.01487
  32     8.786        2.3666        0.0000        5.4317        5.4317       3.065133       0.01411
  31     11.80        2.3666        0.0000        5.4269        5.4269       3.060350       0.01339
  30     15.07        2.3666        0.0000        5.4224        5.4224       3.055820       0.01170
  29     18.79        2.3666        0.0000        5.4180        5.4180       3.051402       0.01002
  28     23.16        2.3666        0.0000        5.4135        5.4135       3.046908       0.00869
  27     28.12        2.3666        0.0000        5.4088        5.4088       3.042248       0.00792
  26     33.73        2.3666        0.0000        5.4036        5.4036       3.036991       0.00790
  25     40.54        2.3666        0.0000        5.3966        5.3967       3.030023       0.00864
  24     48.69        2.3667        0.0000        5.3872        5.3872       3.020506       0.00985
  23     57.69        2.3667        0.0000        5.3754        5.3754       3.008667       0.01110
  22     68.43        2.3668        0.0000        5.3599        5.3599       2.993100       0.01224
  21     81.20        2.3669        0.0000        5.3401        5.3401       2.973153       0.01318
  20     96.49        2.3671        0.0000        5.3155        5.3155       2.948426       0.01365
  19     114.6        2.3673        0.0001        5.2853        5.2854       2.918009       0.01420
  18     136.5        2.3677        0.0001        5.2504        5.2505       2.882793       0.01354
  17     162.9        2.3682        0.0001        5.2111        5.2112       2.843005       0.01272
  16     196.4        2.3689        0.0001        5.1640        5.1641       2.795176       0.01204
  15     218.7        2.3697        0.0001        5.1331        5.1332       2.763482       0.01203
  14     243.0        2.3710        0.0001        5.0962        5.0963       2.725311       0.01324
  13     269.0        2.3730        0.0001        5.0511        5.0512       2.678208       0.01528
  12     297.5        2.3760        0.0001        4.9956        4.9957       2.619707       0.01735
  11     328.5        2.3803        0.0001        4.9304        4.9305       2.550244       0.01889
  10     361.9        2.3861        0.0002        4.8511        4.8513       2.465125       0.02154
   9     398.1        2.3943        0.0002        4.7507        4.7509       2.356590       0.02529
   8     437.6        2.4056        0.0002        4.6220        4.6222       2.216582       0.02993
   7     480.5        2.4215        0.0002        4.4625        4.4627       2.041148       0.03445
   6     533.0        2.4476        0.0002        4.2460        4.2463       1.798611       0.03902
   5     589.8        2.4879        0.0002        3.9954        3.9956       1.507708       0.04318
   4     651.6        2.5554        0.0002        3.7089        3.7091       1.153655       0.04842
   3     718.7        2.6695        0.0002        3.4018        3.4021       0.732598       0.05292
   2     792.3        2.8836        0.0002        3.0564        3.0567       0.173033       0.06418
   1     891.5        0.0349        0.0503        0.0000        0.0503       0.015372       0.01342
   0    1013.0        0.0373        0.0470        0.0000        0.0470       0.009677       0.00040



 Wavenumbers:  3250. -  4000. cm-1, ATM      1
 LEVEL PRESSURE   UPWARD FLUX   DIFDOWN FLUX  DIRDOWN FLUX  DOWNWARD FLUX   NET FLUX    HEATING RATE
          mb          W/m2          W/m2          W/m2        W/m2          W/m2       degree/day
  51    .06700        0.1079        0.0000        9.1795        9.1795       9.071665       0.00000
  50    .07753        0.1079        0.0000        9.1747        9.1747       9.066823       3.88148
  49    .09103        0.1079        0.0000        9.1713        9.1713       9.063435       2.11747
  48    0.1069        0.1079        0.0000        9.1688        9.1688       9.060910       1.34402
  47    0.1255        0.1079        0.0000        9.1665        9.1665       9.058651       1.02422
  46    0.1487        0.1079        0.0000        9.1641        9.1641       9.056209       0.88991
  45    0.1794        0.1079        0.0000        9.1612        9.1612       9.053331       0.79008
  44    0.2165        0.1079        0.0000        9.1583        9.1583       9.050411       0.66430
  43    0.2613        0.1079        0.0000        9.1553        9.1553       9.047438       0.56041
  42    0.3336        0.1079        0.0000        9.1511        9.1511       9.043259       0.48723
  41    0.4307        0.1079        0.0000        9.1464        9.1464       9.038491       0.41459
  40    0.5894        0.1079        0.0000        9.1393        9.1394       9.031485       0.37255
  39     1.339        0.1079        0.0000        9.1127        9.1127       9.004872       0.29962
  38     1.782        0.1079        0.0000        9.1011        9.1011       8.993283       0.22062
  37     2.292        0.1079        0.0000        9.0901        9.0901       8.982217       0.18329
  36     2.964        0.1079        0.0000        9.0776        9.0776       8.969787       0.15603
  35     3.853        0.1079        0.0000        9.0629        9.0629       8.954997       0.14036
  34     5.035        0.1079        0.0000        9.0441        9.0441       8.936258       0.13386
  33     6.613        0.1079        0.0000        9.0191        9.0191       8.911256       0.13366
  32     8.786        0.1079        0.0000        8.9843        8.9843       8.876473       0.13509
  31     11.80        0.1078        0.0000        8.9327        8.9327       8.824856       0.14451
  30     15.07        0.1078        0.0000        8.8758        8.8759       8.768011       0.14676
  29     18.79        0.1078        0.0000        8.8110        8.8110       8.703184       0.14698
  28     23.16        0.1078        0.0000        8.7365        8.7366       8.628739       0.14395
  27     28.12        0.1078        0.0000        8.6554        8.6555       8.547626       0.13789
  26     33.73        0.1078        0.0000        8.5719        8.5719       8.464126       0.12554
  25     40.54        0.1078        0.0001        8.4812        8.4812       8.373403       0.11255
  24     48.69        0.1078        0.0001        8.3838        8.3839       8.276101       0.10069
  23     57.69        0.1078        0.0001        8.2861        8.2862       8.178366       0.09161
  22     68.43        0.1078        0.0001        8.1751        8.1751       8.067369       0.08726
  21     81.20        0.1078        0.0001        8.0457        8.0458       7.938010       0.08548
  20     96.49        0.1077        0.0001        7.8949        7.8951       7.787306       0.08318
  19     114.6        0.1077        0.0001        7.7162        7.7163       7.608596       0.08345
  18     136.5        0.1077        0.0002        7.5193        7.5195       7.411751       0.07569
  17     162.9        0.1077        0.0002        7.2913        7.2915       7.183857       0.07284
  16     196.4        0.1076        0.0002        6.9660        6.9662       6.858576       0.08188
  15     218.7        0.1076        0.0002        6.6648        6.6650       6.557369       0.11436
  14     243.0        0.1077        0.0002        6.2619        6.2622       6.154529       0.13972
  13     269.0        0.1078        0.0003        5.7576        5.7579       5.650119       0.16363
  12     297.5        0.1080        0.0003        5.1719        5.1722       5.064193       0.17378
  11     328.5        0.1084        0.0003        4.5757        4.5760       4.467623       0.16221
  10     361.9        0.1090        0.0002        3.9995        3.9998       3.890767       0.14595
   9     398.1        0.1101        0.0002        3.4655        3.4657       3.355595       0.12468
   8     437.6        0.1120        0.0002        2.9740        2.9743       2.862294       0.10547
   7     480.5        0.1149        0.0002        2.5307        2.5309       2.415920       0.08767
   6     533.0        0.1207        0.0002        2.0614        2.0616       1.940834       0.07643
   5     589.8        0.1313        0.0002        1.6150        1.6151       1.483823       0.06784
   4     651.6        0.1534        0.0001        1.1565        1.1566       1.003157       0.06573
   3     718.7        0.2023        0.0001        0.7390        0.7391       0.536806       0.05861
   2     792.3        0.3340        0.0001        0.3985        0.3985       0.064476       0.05417
   1     891.5        0.0000        0.0000        0.0000        0.0000       0.000002       0.00549
   0    1013.0        0.0000        0.0000        0.0000        0.0000       0.000000       0.00000



 Wavenumbers:  4000. -  4650. cm-1, ATM      1
 LEVEL PRESSURE   UPWARD FLUX   DIFDOWN FLUX  DIRDOWN FLUX  DOWNWARD FLUX   NET FLUX    HEATING RATE
          mb          W/m2          W/m2          W/m2        W/m2          W/m2       degree/day
  51    .06700        7.4514        0.0000       10.7795       10.7795       3.328192       0.00000
  50    .07753        7.4514        0.0000       10.7795       10.7795       3.328191       0.00080
  49    .09103        7.4514        0.0000       10.7795       10.7795       3.328190       0.00078
  48    0.1069        7.4514        0.0000       10.7795       10.7795       3.328188       0.00077
  47    0.1255        7.4514        0.0000       10.7795       10.7795       3.328187       0.00075
  46    0.1487        7.4514        0.0000       10.7795       10.7795       3.328185       0.00076
  45    0.1794        7.4514        0.0000       10.7795       10.7795       3.328182       0.00078
  44    0.2165        7.4514        0.0000       10.7795       10.7795       3.328178       0.00076
  43    0.2613        7.4514        0.0000       10.7795       10.7795       3.328174       0.00075
  42    0.3336        7.4514        0.0000       10.7795       10.7795       3.328168       0.00077
  41    0.4307        7.4514        0.0000       10.7795       10.7795       3.328159       0.00078
  40    0.5894        7.4513        0.0000       10.7795       10.7795       3.328144       0.00080
  39     1.339        7.4513        0.0000       10.7794       10.7794       3.328054       0.00101
  38     1.782        7.4513        0.0000       10.7793       10.7793       3.327984       0.00134
  37     2.292        7.4513        0.0000       10.7792       10.7792       3.327890       0.00156
  36     2.964        7.4513        0.0000       10.7791       10.7791       3.327749       0.00177
  35     3.853        7.4513        0.0000       10.7789       10.7789       3.327540       0.00198
  34     5.035        7.4513        0.0000       10.7786       10.7786       3.327232       0.00220
  33     6.613        7.4513        0.0000       10.7781       10.7781       3.326778       0.00243
  32     8.786        7.4513        0.0000       10.7774       10.7775       3.326108       0.00260
  31     11.80        7.4513        0.0001       10.7763       10.7764       3.325053       0.00295
  30     15.07        7.4514        0.0001       10.7751       10.7752       3.323816       0.00320
  29     18.79        7.4514        0.0001       10.7736       10.7737       3.322317       0.00340
  28     23.16        7.4514        0.0001       10.7717       10.7718       3.320454       0.00360
  27     28.12        7.4514        0.0001       10.7695       10.7696       3.318196       0.00384
  26     33.73        7.4514        0.0002       10.7667       10.7669       3.315407       0.00419
  25     40.54        7.4515        0.0002       10.7629       10.7631       3.311618       0.00470
  24     48.69        7.4516        0.0003       10.7579       10.7582       3.306559       0.00524
  23     57.69        7.4518        0.0003       10.7520       10.7523       3.300547       0.00564
  22     68.43        7.4520        0.0004       10.7446       10.7450       3.292993       0.00594
  21     81.20        7.4523        0.0004       10.7355       10.7359       3.283662       0.00617
  20     96.49        7.4527        0.0005       10.7245       10.7250       3.272268       0.00629
  19     114.6        7.4533        0.0006       10.7107       10.7113       3.257964       0.00668
  18     136.5        7.4542        0.0007       10.6942       10.6949       3.240653       0.00666
  17     162.9        7.4555        0.0008       10.6740       10.6749       3.219314       0.00682
  16     196.4        7.4577        0.0010       10.6464       10.6474       3.189666       0.00746
  15     218.7        7.4596        0.0011       10.6255       10.6266       3.166975       0.00861
  14     243.0        7.4623        0.0012       10.5980       10.5993       3.136951       0.01041
  13     269.0        7.4664        0.0014       10.5611       10.5625       3.096100       0.01325
  12     297.5        7.4722        0.0015       10.5119       10.5135       3.041246       0.01627
  11     328.5        7.4802        0.0017       10.4499       10.4515       2.971322       0.01901
  10     361.9        7.4907        0.0018       10.3702       10.3720       2.881277       0.02278
   9     398.1        7.5040        0.0020       10.2678       10.2698       2.765775       0.02691
   8     437.6        7.5211        0.0022       10.1390       10.1412       2.620070       0.03115
   7     480.5        7.5432        0.0024        9.9877        9.9901       2.446820       0.03403
   6     533.0        7.5778        0.0026        9.7937        9.7963       2.218473       0.03673
   5     589.8        7.6286        0.0028        9.5752        9.5780       1.949340       0.03995
   4     651.6        7.7126        0.0030        9.2958        9.2988       1.586241       0.04965
   3     718.7        7.8584        0.0033        8.9267        8.9300       1.071600       0.06468
   2     792.3        8.1463        0.0035        8.4542        8.4577       0.311408       0.08719
   1     891.5        0.2477        0.3255        0.0000        0.3255       0.077735       0.01988
   0    1013.0        0.2528        0.3184        0.0000        0.3184       0.065592       0.00084



 Wavenumbers:  4650. -  5150. cm-1, ATM      1
 LEVEL PRESSURE   UPWARD FLUX   DIFDOWN FLUX  DIRDOWN FLUX  DOWNWARD FLUX   NET FLUX    HEATING RATE
          mb          W/m2          W/m2          W/m2        W/m2          W/m2       degree/day
  51    .06700        5.4024        0.0000       10.2033       10.2033       4.800948       0.00000
  50    .07753        5.4024        0.0000       10.2031       10.2031       4.800712       0.18901
  49    .09103        5.4024        0.0000       10.2028       10.2028       4.800418       0.18428
  48    0.1069        5.4024        0.0000       10.2025       10.2025       4.800081       0.17931
  47    0.1255        5.4024        0.0000       10.2021       10.2021       4.799696       0.17426
  46    0.1487        5.4024        0.0000       10.2016       10.2016       4.799215       0.17536
  45    0.1794        5.4024        0.0000       10.2010       10.2010       4.798565       0.17850
  44    0.2165        5.4024        0.0000       10.2002       10.2002       4.797805       0.17277
  43    0.2613        5.4024        0.0000       10.1993       10.1993       4.796920       0.16690
  42    0.3336        5.4024        0.0000       10.1979       10.1979       4.795488       0.16702
  41    0.4307        5.4024        0.0000       10.1960       10.1960       4.793647       0.16003
  40    0.5894        5.4024        0.0000       10.1932       10.1932       4.790773       0.15283
  39     1.339        5.4024        0.0000       10.1816       10.1816       4.779181       0.13051
  38     1.782        5.4024        0.0000       10.1760       10.1760       4.773651       0.10527
  37     2.292        5.4024        0.0000       10.1706       10.1706       4.768193       0.09039
  36     2.964        5.4024        0.0000       10.1646       10.1647       4.762268       0.07438
  35     3.853        5.4024        0.0000       10.1584       10.1584       4.756051       0.05901
  34     5.035        5.4024        0.0000       10.1521       10.1521       4.749710       0.04530
  33     6.613        5.4024        0.0000       10.1456       10.1456       4.743244       0.03457
  32     8.786        5.4024        0.0001       10.1386       10.1386       4.736217       0.02729
  31     11.80        5.4024        0.0001       10.1295       10.1296       4.727147       0.02539
  30     15.07        5.4025        0.0001       10.1196       10.1197       4.717228       0.02561
  29     18.79        5.4026        0.0001       10.1076       10.1077       4.705164       0.02735
  28     23.16        5.4026        0.0002       10.0923       10.0924       4.689780       0.02975
  27     28.12        5.4028        0.0002       10.0731       10.0734       4.670575       0.03265
  26     33.73        5.4030        0.0002       10.0500       10.0503       4.647335       0.03494
  25     40.54        5.4032        0.0003       10.0201       10.0204       4.617224       0.03736
  24     48.69        5.4036        0.0004        9.9820        9.9823       4.578757       0.03981
  23     57.69        5.4040        0.0004        9.9384        9.9389       4.534840       0.04117
  22     68.43        5.4047        0.0005        9.8858        9.8863       4.481585       0.04187
  21     81.20        5.4056        0.0006        9.8234        9.8240       4.418471       0.04170
  20     96.49        5.4068        0.0007        9.7518        9.7525       4.345655       0.04019
  19     114.6        5.4085        0.0008        9.6719        9.6727       4.264231       0.03802
  18     136.5        5.4109        0.0010        9.5858        9.5868       4.175903       0.03396
  17     162.9        5.4141        0.0012        9.4940        9.4952       4.081051       0.03032
  16     196.4        5.4192        0.0014        9.3883        9.3897       3.970492       0.02783
  15     218.7        5.4231        0.0015        9.3229        9.3244       3.901343       0.02625
  14     243.0        5.4282        0.0017        9.2520        9.2537       3.825483       0.02631
  13     269.0        5.4350        0.0019        9.1717        9.1735       3.738553       0.02820
  12     297.5        5.4444        0.0020        9.0763        9.0783       3.633929       0.03103
  11     328.5        5.4567        0.0022        8.9650        8.9672       3.510550       0.03355
  10     361.9        5.4725        0.0024        8.8349        8.8374       3.364887       0.03685
   9     398.1        5.4930        0.0027        8.6820        8.6847       3.191645       0.04036
   8     437.6        5.5198        0.0029        8.5028        8.5057       2.985881       0.04399
   7     480.5        5.5547        0.0031        8.2948        8.2979       2.743209       0.04766
   6     533.0        5.6082        0.0034        8.0209        8.0242       2.416083       0.05262
   5     589.8        5.6829        0.0036        7.7063        7.7099       2.027049       0.05775
   4     651.6        5.7944        0.0039        7.3412        7.3451       1.550650       0.06515
   3     718.7        5.9656        0.0041        6.9387        6.9428       0.977112       0.07208
   2     792.3        6.2468        0.0043        6.5066        6.5109       0.264094       0.08178
   1     891.5        0.1547        0.2061        0.0000        0.2061       0.051387       0.01810
   0    1013.0        0.1590        0.2002        0.0000        0.2002       0.041245       0.00070



 Wavenumbers:  5150. -  6150. cm-1, ATM      1
 LEVEL PRESSURE   UPWARD FLUX   DIFDOWN FLUX  DIRDOWN FLUX  DOWNWARD FLUX   NET FLUX    HEATING RATE
          mb          W/m2          W/m2          W/m2        W/m2          W/m2       degree/day
  51    .06700       12.7228        0.0000       25.5798       25.5798      12.857060       0.00000
  50    .07753       12.7228        0.0000       25.5798       25.5798      12.857021       0.03164
  49    .09103       12.7228        0.0000       25.5797       25.5797      12.856969       0.03212
  48    0.1069       12.7228        0.0000       25.5797       25.5797      12.856908       0.03263
  47    0.1255       12.7228        0.0000       25.5796       25.5796      12.856835       0.03313
  46    0.1487       12.7228        0.0000       25.5795       25.5795      12.856739       0.03490
  45    0.1794       12.7228        0.0000       25.5794       25.5794      12.856604       0.03715
  44    0.2165       12.7228        0.0000       25.5792       25.5792      12.856438       0.03771
  43    0.2613       12.7228        0.0000       25.5790       25.5790      12.856235       0.03829
  42    0.3336       12.7228        0.0000       25.5786       25.5786      12.855888       0.04045
  41    0.4307       12.7228        0.0000       25.5782       25.5782      12.855417       0.04099
  40    0.5894       12.7228        0.0000       25.5774       25.5774      12.854627       0.04201
  39     1.339       12.7228        0.0000       25.5735       25.5736      12.850820       0.04285
  38     1.782       12.7228        0.0001       25.5713       25.5714      12.848603       0.04221
  37     2.292       12.7228        0.0001       25.5688       25.5689      12.846093       0.04157
  36     2.964       12.7228        0.0001       25.5656       25.5657      12.842903       0.04005
  35     3.853       12.7228        0.0001       25.5615       25.5616      12.838847       0.03849
  34     5.035       12.7228        0.0002       25.5562       25.5564      12.833621       0.03733
  33     6.613       12.7228        0.0002       25.5494       25.5496      12.826839       0.03626
  32     8.786       12.7228        0.0003       25.5406       25.5409      12.818044       0.03415
  31     11.80       12.7229        0.0004       25.5287       25.5291      12.806142       0.03332
  30     15.07       12.7230        0.0005       25.5167       25.5172      12.794194       0.03085
  29     18.79       12.7231        0.0006       25.5042       25.5048      12.781691       0.02835
  28     23.16       12.7232        0.0008       25.4907       25.4914      12.768206       0.02607
  27     28.12       12.7234        0.0009       25.4764       25.4774      12.753968       0.02420
  26     33.73       12.7236        0.0011       25.4620       25.4631      12.739507       0.02174
  25     40.54       12.7239        0.0013       25.4463       25.4476      12.723643       0.01968
  24     48.69       12.7244        0.0016       25.4294       25.4310      12.706588       0.01765
  23     57.69       12.7249        0.0019       25.4126       25.4145      12.689584       0.01594
  22     68.43       12.7256        0.0023       25.3944       25.3967      12.671049       0.01457
  21     81.20       12.7265        0.0027       25.3744       25.3771      12.650575       0.01353
  20     96.49       12.7276        0.0032       25.3519       25.3551      12.627494       0.01274
  19     114.6       12.7290        0.0038       25.3262       25.3300      12.600960       0.01239
  18     136.5       12.7307        0.0045       25.2962       25.3007      12.570015       0.01190
  17     162.9       12.7328        0.0053       25.2521       25.2574      12.524680       0.01449
  16     196.4       12.7356        0.0064       25.1593       25.1657      12.430099       0.02381
  15     218.7       12.7377        0.0071       25.0159       25.0230      12.285371       0.05495
  14     243.0       12.7402        0.0078       24.7089       24.7168      11.976543       0.10711
  13     269.0       12.7435        0.0086       24.1619       24.1704      11.426952       0.17828
  12     297.5       12.7479        0.0093       23.4544       23.4637      10.715789       0.21092
  11     328.5       12.7536        0.0100       22.7355       22.7455       9.991837       0.19684
  10     361.9       12.7613        0.0108       21.9224       21.9332       9.171894       0.20745
   9     398.1       12.7716        0.0115       20.9939       21.0054       8.233790       0.21856
   8     437.6       12.7860        0.0122       19.9833       19.9955       7.209509       0.21900
   7     480.5       12.8061        0.0129       18.9483       18.9612       6.155118       0.20708
   6     533.0       12.8403        0.0137       17.7796       17.7933       4.952972       0.19339
   5     589.8       12.8962        0.0145       16.6726       16.6871       3.790889       0.17249
   4     651.6       12.9993        0.0153       15.6343       15.6496       2.650315       0.15598
   3     718.7       13.1908        0.0162       14.7738       14.7900       1.599258       0.13209
   2     792.3       13.5860        0.0172       14.0291       14.0463       0.460307       0.13062
   1     891.5        0.5038        0.6524        0.0000        0.6524       0.148576       0.02653
   0    1013.0        0.5107        0.6431        0.0000        0.6431       0.132486       0.00112



 Wavenumbers:  6150. -  7700. cm-1, ATM      1
 LEVEL PRESSURE   UPWARD FLUX   DIFDOWN FLUX  DIRDOWN FLUX  DOWNWARD FLUX   NET FLUX    HEATING RATE
          mb          W/m2          W/m2          W/m2        W/m2          W/m2       degree/day
  51    .06700       20.6423        0.0000       47.3109       47.3109      26.668556       0.00000
  50    .07753       20.6423        0.0000       47.3108       47.3108      26.668500       0.04553
  49    .09103       20.6423        0.0000       47.3107       47.3107      26.668426       0.04583
  48    0.1069       20.6423        0.0000       47.3106       47.3106      26.668340       0.04614
  47    0.1255       20.6423        0.0000       47.3105       47.3105      26.668237       0.04645
  46    0.1487       20.6423        0.0000       47.3104       47.3104      26.668104       0.04852
  45    0.1794       20.6423        0.0000       47.3102       47.3102      26.667917       0.05127
  44    0.2165       20.6423        0.0000       47.3100       47.3100      26.667690       0.05167
  43    0.2613       20.6423        0.0000       47.3097       47.3097      26.667414       0.05210
  42    0.3336       20.6423        0.0000       47.3092       47.3092      26.666945       0.05471
  41    0.4307       20.6423        0.0001       47.3085       47.3086      26.666310       0.05521
  40    0.5894       20.6423        0.0001       47.3074       47.3075      26.665250       0.05634
  39     1.339       20.6422        0.0002       47.3022       47.3024      26.660158       0.05733
  38     1.782       20.6422        0.0002       47.2991       47.2994      26.657188       0.05655
  37     2.292       20.6421        0.0003       47.2956       47.2960      26.653812       0.05591
  36     2.964       20.6421        0.0004       47.2912       47.2916      26.649494       0.05421
  35     3.853       20.6420        0.0005       47.2855       47.2860      26.643959       0.05253
  34     5.035       20.6419        0.0007       47.2780       47.2787      26.636778       0.05130
  33     6.613       20.6418        0.0009       47.2683       47.2692      26.627390       0.05019
  32     8.786       20.6417        0.0012       47.2556       47.2568      26.615090       0.04777
  31     11.80       20.6415        0.0016       47.2380       47.2396      26.598186       0.04733
  30     15.07       20.6412        0.0020       47.2201       47.2221      26.580897       0.04464
  29     18.79       20.6409        0.0026       47.2008       47.2034      26.562416       0.04190
  28     23.16       20.6406        0.0031       47.1795       47.1827      26.542023       0.03943
  27     28.12       20.6403        0.0038       47.1565       47.1603      26.520027       0.03739
  26     33.73       20.6399        0.0046       47.1324       47.1370      26.497101       0.03447
  25     40.54       20.6394        0.0055       47.1054       47.1109      26.471460       0.03181
  24     48.69       20.6388        0.0066       47.0754       47.0820      26.443199       0.02925
  23     57.69       20.6382        0.0078       47.0449       47.0528      26.414569       0.02684
  22     68.43       20.6374        0.0092       47.0110       47.0202      26.382820       0.02496
  21     81.20       20.6365        0.0110       46.9729       46.9838      26.347310       0.02346
  20     96.49       20.6355        0.0130       46.9294       46.9424      26.306947       0.02228
  19     114.6       20.6342        0.0155       46.8790       46.8945      26.260281       0.02179
  18     136.5       20.6327        0.0184       46.8200       46.8384      26.205610       0.02102
  17     162.9       20.6310        0.0218       46.7361       46.7579      26.126903       0.02516
  16     196.4       20.6291        0.0263       46.5703       46.5965      25.967489       0.04013
  15     218.7       20.6280        0.0292       46.3473       46.3765      25.748454       0.08316
  14     243.0       20.6274        0.0322       45.9299       45.9621      25.334657       0.14352
  13     269.0       20.6279        0.0353       45.1708       45.2060      24.578159       0.24540
  12     297.5       20.6305        0.0383       44.0115       44.0497      23.419218       0.34373
  11     328.5       20.6361        0.0413       42.7242       42.7656      22.129494       0.35067
  10     361.9       20.6461        0.0445       41.3539       41.3984      20.752385       0.34842
   9     398.1       20.6629        0.0476       39.7953       39.8429      19.179976       0.36634
   8     437.6       20.6909        0.0506       37.9948       38.0453      17.354435       0.39031
   7     480.5       20.7353        0.0534       36.0647       36.1181      15.382811       0.38722
   6     533.0       20.8186        0.0566       33.7773       33.8338      13.015277       0.38086
   5     589.8       20.9637        0.0595       31.4082       31.4676      10.503985       0.37276
   4     651.6       21.2453        0.0619       28.8834       28.9453       7.699996       0.38345
   3     718.7       21.7931        0.0641       26.4104       26.4745       4.681366       0.37936
   2     792.3       23.0051        0.0659       24.0056       24.0716       1.066454       0.41459
   1     891.5        0.6896        0.8976        0.0000        0.8976       0.207980       0.07305
   0    1013.0        0.7004        0.8821        0.0000        0.8821       0.181709       0.00182



 Wavenumbers:  7700. -  8050. cm-1, ATM      1
 LEVEL PRESSURE   UPWARD FLUX   DIFDOWN FLUX  DIRDOWN FLUX  DOWNWARD FLUX   NET FLUX    HEATING RATE
          mb          W/m2          W/m2          W/m2        W/m2          W/m2       degree/day
  51    .06700        9.2188        0.0000       11.1810       11.1810       1.962120       0.00000
  50    .07753        9.2188        0.0000       11.1809       11.1809       1.962096       0.01953
  49    .09103        9.2189        0.0000       11.1809       11.1809       1.962065       0.01914
  48    0.1069        9.2189        0.0000       11.1809       11.1809       1.962030       0.01873
  47    0.1255        9.2189        0.0000       11.1809       11.1809       1.961989       0.01833
  46    0.1487        9.2189        0.0000       11.1808       11.1808       1.961938       0.01860
  45    0.1794        9.2189        0.0000       11.1808       11.1808       1.961869       0.01914
  44    0.2165        9.2189        0.0000       11.1807       11.1807       1.961786       0.01878
  43    0.2613        9.2190        0.0000       11.1806       11.1806       1.961688       0.01843
  42    0.3336        9.2190        0.0000       11.1805       11.1805       1.961527       0.01886
  41    0.4307        9.2191        0.0000       11.1803       11.1804       1.961312       0.01865
  40    0.5894        9.2191        0.0000       11.1801       11.1801       1.960962       0.01863
  39     1.339        9.2196        0.0001       11.1788       11.1789       1.959304       0.01866
  38     1.782        9.2198        0.0001       11.1781       11.1782       1.958330       0.01854
  37     2.292        9.2201        0.0001       11.1772       11.1773       1.957203       0.01867
  36     2.964        9.2205        0.0002       11.1761       11.1763       1.955723       0.01858
  35     3.853        9.2211        0.0002       11.1746       11.1748       1.953768       0.01856
  34     5.035        9.2217        0.0003       11.1726       11.1729       1.951170       0.01856
  33     6.613        9.2227        0.0004       11.1700       11.1704       1.947700       0.01855
  32     8.786        9.2239        0.0006       11.1664       11.1669       1.943025       0.01816
  31     11.80        9.2257        0.0007       11.1613       11.1620       1.936338       0.01872
  30     15.07        9.2276        0.0010       11.1558       11.1568       1.929161       0.01853
  29     18.79        9.2298        0.0012       11.1497       11.1509       1.921059       0.01837
  28     23.16        9.2324        0.0015       11.1425       11.1440       1.911603       0.01829
  27     28.12        9.2353        0.0018       11.1343       11.1361       1.900800       0.01836
  26     33.73        9.2386        0.0021       11.1252       11.1273       1.888725       0.01815
  25     40.54        9.2426        0.0026       11.1142       11.1168       1.874159       0.01807
  24     48.69        9.2474        0.0031       11.1010       11.1041       1.856632       0.01814
  23     57.69        9.2528        0.0036       11.0866       11.0902       1.837425       0.01800
  22     68.43        9.2592        0.0043       11.0695       11.0738       1.814611       0.01793
  21     81.20        9.2669        0.0051       11.0494       11.0545       1.787522       0.01790
  20     96.49        9.2762        0.0061       11.0255       11.0316       1.755369       0.01775
  19     114.6        9.2874        0.0072       10.9975       11.0047       1.717370       0.01774
  18     136.5        9.3007        0.0085       10.9648       10.9733       1.672571       0.01723
  17     162.9        9.3169        0.0101       10.9263       10.9364       1.619537       0.01695
  16     196.4        9.3382        0.0122       10.8773       10.8894       1.551228       0.01719
  15     218.7        9.3525        0.0135       10.8455       10.8591       1.506595       0.01695
  14     243.0        9.3682        0.0150       10.8114       10.8265       1.458210       0.01678
  13     269.0        9.3856        0.0166       10.7749       10.7915       1.405834       0.01699
  12     297.5        9.4049        0.0183       10.7357       10.7540       1.349146       0.01681
  11     328.5        9.4262        0.0202       10.6937       10.7139       1.287715       0.01670
  10     361.9        9.4498        0.0222       10.6489       10.6710       1.221196       0.01683
   9     398.1        9.4762        0.0243       10.6008       10.6251       1.148913       0.01684
   8     437.6        9.5057        0.0267       10.5491       10.5757       1.070020       0.01687
   7     480.5        9.5389        0.0291       10.4934       10.5226       0.983713       0.01695
   6     533.0        9.5821        0.0322       10.4243       10.4565       0.874368       0.01759
   5     589.8        9.6325        0.0355       10.3479       10.3834       0.750820       0.01834
   4     651.6        9.6931        0.0390       10.2613       10.3003       0.607204       0.01964
   3     718.7        9.7675        0.0427       10.1618       10.2045       0.437000       0.02139
   2     792.3        9.8623        0.0467       10.0439       10.0906       0.228294       0.02394
   1     891.5        0.3734        0.4885        0.0000        0.4885       0.115096       0.00963
   0    1013.0        0.3805        0.4793        0.0000        0.4793       0.098729       0.00114



 Wavenumbers:  8050. - 12850. cm-1, ATM      1
 LEVEL PRESSURE   UPWARD FLUX   DIFDOWN FLUX  DIRDOWN FLUX  DOWNWARD FLUX   NET FLUX    HEATING RATE
          mb          W/m2          W/m2          W/m2        W/m2          W/m2       degree/day
  51    .06700      121.6604        0.0000      156.5418      156.5418      34.881384       0.00000
  50    .07753      121.6604        0.0000      156.5417      156.5417      34.881384       0.00000
  49    .09103      121.6603        0.0001      156.5417      156.5417      34.881384      -0.00000
  48    0.1069      121.6603        0.0001      156.5416      156.5417      34.881384      -0.00000
  47    0.1255      121.6603        0.0002      156.5415      156.5417      34.881384       0.00000
  46    0.1487      121.6603        0.0003      156.5414      156.5417      34.881384       0.00000
  45    0.1794      121.6603        0.0003      156.5413      156.5417      34.881384       0.00000
  44    0.2165      121.6602        0.0005      156.5412      156.5416      34.881384       0.00000
  43    0.2613      121.6602        0.0006      156.5410      156.5416      34.881384      -0.00000
  42    0.3336      121.6601        0.0008      156.5407      156.5415      34.881384       0.00000
  41    0.4307      121.6600        0.0011      156.5403      156.5414      34.881384      -0.00000
  40    0.5894      121.6599        0.0016      156.5397      156.5413      34.881384       0.00000
  39     1.339      121.6593        0.0039      156.5367      156.5406      34.881384      -0.00000
  38     1.782      121.6589        0.0053      156.5350      156.5403      34.881384       0.00000
  37     2.292      121.6584        0.0068      156.5330      156.5398      34.881384       0.00000
  36     2.964      121.6578        0.0089      156.5303      156.5392      34.881384      -0.00000
  35     3.853      121.6571        0.0116      156.5268      156.5385      34.881384       0.00000
  34     5.035      121.6560        0.0152      156.5222      156.5374      34.881384      -0.00000
  33     6.613      121.6547        0.0201      156.5160      156.5361      34.881384      -0.00000
  32     8.786      121.6528        0.0266      156.5076      156.5342      34.881384      -0.00000
  31     11.80      121.6502        0.0359      156.4957      156.5316      34.881384       0.00000
  30     15.07      121.6473        0.0459      156.4828      156.5287      34.881384       0.00000
  29     18.79      121.6441        0.0573      156.4682      156.5255      34.881384      -0.00000
  28     23.16      121.6404        0.0705      156.4512      156.5217      34.881384       0.00000
  27     28.12      121.6360        0.0857      156.4317      156.5174      34.881384       0.00000
  26     33.73      121.6312        0.1027      156.4099      156.5126      34.881384       0.00000
  25     40.54      121.6254        0.1233      156.3834      156.5068      34.881384       0.00000
  24     48.69      121.6183        0.1482      156.3515      156.4997      34.881384      -0.00000
  23     57.69      121.6106        0.1755      156.3164      156.4919      34.881384       0.00000
  22     68.43      121.6013        0.2081      156.2746      156.4827      34.881384       0.00000
  21     81.20      121.5903        0.2471      156.2246      156.4716      34.881384      -0.00000
  20     96.49      121.5771        0.2935      156.1649      156.4584      34.881384       0.00000
  19     114.6      121.5617        0.3488      156.0879      156.4367      34.875064       0.00295
  18     136.5      121.5434        0.4144      155.9962      156.4106      34.867230       0.00301
  17     162.9      121.5216        0.4928      155.8831      156.3758      34.854255       0.00415
  16     196.4      121.4935        0.5947      155.7199      156.3146      34.821105       0.00834
  15     218.7      121.4757        0.6617      155.5733      156.2350      34.759329       0.02345
  14     243.0      121.4579        0.7345      155.3367      156.0712      34.613368       0.05062
  13     269.0      121.4423        0.8134      154.9514      155.7648      34.322468       0.09437
  12     297.5      121.4328        0.8983      154.3896      155.2879      33.855079       0.13862
  11     328.5      121.4318        0.9899      153.7151      154.7050      33.273148       0.15823
  10     361.9      121.4444        1.0882      152.9087      153.9969      32.552528       0.18232
   9     398.1      121.4791        1.1934      151.8986      153.0920      31.612935       0.21890
   8     437.6      121.5505        1.3054      150.6031      151.9086      30.358094       0.26829
   7     480.5      121.6764        1.4240      149.0014      150.4254      28.748975       0.31602
   6     533.0      121.9254        1.5675      146.7375      148.3050      26.379683       0.38114
   5     589.8      122.3698        1.7180      143.8730      145.5910      23.221198       0.46882
   4     651.6      123.2295        1.8726      140.0955      141.9681      18.738634       0.61300
   3     718.7      124.8413        2.0296      135.5278      137.5573      12.716016       0.75688
   2     792.3      128.0897        2.1848      130.0690      132.2538       4.164106       0.98081
   1     891.5        4.6985        6.0853        0.0000        6.0853       1.386764       0.23634
   0    1013.0        4.7609        5.9961        0.0000        5.9961       1.235189       0.01052



 Wavenumbers: 12850. - 16000. cm-1, ATM      1
 LEVEL PRESSURE   UPWARD FLUX   DIFDOWN FLUX  DIRDOWN FLUX  DOWNWARD FLUX   NET FLUX    HEATING RATE
          mb          W/m2          W/m2          W/m2        W/m2          W/m2       degree/day
  51    .06700       84.8610        0.0000       98.0872       98.0872      13.226227       0.00000
  50    .07753       84.8610        0.0001       98.0864       98.0864      13.225433       0.63653
  49    .09103       84.8610        0.0002       98.0853       98.0855      13.224435       0.62373
  48    0.1069       84.8610        0.0003       98.0841       98.0843      13.223287       0.61073
  47    0.1255       84.8611        0.0004       98.0826       98.0830      13.221968       0.59806
  46    0.1487       84.8611        0.0005       98.0809       98.0814      13.220302       0.60741
  45    0.1794       84.8612        0.0007       98.0784       98.0792      13.218033       0.62288
  44    0.2165       84.8613        0.0010       98.0756       98.0766      13.215361       0.60781
  43    0.2613       84.8614        0.0013       98.0723       98.0736      13.212215       0.59302
  42    0.3336       84.8617        0.0018       98.0670       98.0688      13.207072       0.59959
  41    0.4307       84.8622        0.0024       98.0602       98.0626      13.200410       0.57928
  40    0.5894       84.8632        0.0035       98.0496       98.0530      13.189884       0.55976
  39     1.339       84.8710        0.0084       98.0043       98.0128      13.141735       0.54206
  38     1.782       84.8781        0.0113       97.9793       97.9906      13.112536       0.55590
  37     2.292       84.8885        0.0147       97.9498       97.9645      13.075968       0.60566
  36     2.964       84.9056        0.0191       97.9088       97.9279      13.022255       0.67427
  35     3.853       84.9332        0.0249       97.8503       97.8753      12.942035       0.76130
  34     5.035       84.9747        0.0327       97.7680       97.8006      12.825982       0.82904
  33     6.613       85.0325        0.0430       97.6562       97.6992      12.666691       0.85157
  32     8.786       85.1078        0.0569       97.5107       97.5676      12.459758       0.80365
  31     11.80       85.2060        0.0768       97.3179       97.3946      12.188603       0.75915
  30     15.07       85.3004        0.0981       97.1283       97.2264      11.926060       0.67784
  29     18.79       85.3970        0.1222       96.9300       97.0522      11.655258       0.61399
  28     23.16       85.4982        0.1503       96.7166       96.8669      11.368644       0.55422
  27     28.12       85.6006        0.1824       96.4935       96.6759      11.075354       0.49857
  26     33.73       85.6958        0.2184       96.2731       96.4915      10.795669       0.42051
  25     40.54       85.7886        0.2618       96.0408       96.3026      10.514046       0.34939
  24     48.69       85.8787        0.3142       95.7946       96.1088      10.230059       0.29388
  23     57.69       85.9569        0.3718       95.5573       95.9291       9.972203       0.24170
  22     68.43       86.0273        0.4404       95.3106       95.7510       9.723722       0.19534
  21     81.20       86.0802        0.5222       95.0643       95.5866       9.506428       0.14358
  20     96.49       86.1145        0.6199       94.8153       95.4352       9.320642       0.10254
  19     114.6       86.1518        0.7369       94.5411       95.2780       9.126130       0.09082
  18     136.5       86.1843        0.8756       94.2320       95.1076       8.923357       0.07797
  17     162.9       86.2123        1.0407       93.8753       94.9161       8.703748       0.07020
  16     196.4       86.2260        1.2550       93.4347       94.6896       8.463684       0.06043
  15     218.7       86.2271        1.3957       93.1513       94.5470       8.319908       0.05459
  14     243.0       86.2253        1.5486       92.8439       94.3926       8.167260       0.05294
  13     269.0       86.2210        1.7144       92.5111       94.2255       8.004511       0.05279
  12     297.5       86.2152        1.8935       92.1495       94.0429       7.827782       0.05242
  11     328.5       86.2105        2.0870       91.7554       93.8424       7.631922       0.05325
  10     361.9       86.2085        2.2953       91.3262       93.6215       7.413048       0.05538
   9     398.1       86.2117        2.5195       90.8575       93.3770       7.165297       0.05772
   8     437.6       86.2248        2.7601       90.3418       93.1019       6.877072       0.06162
   7     480.5       86.2524        3.0177       89.7728       92.7905       6.538056       0.06658
   6     533.0       86.3122        3.3344       89.0428       92.3772       6.065003       0.07610
   5     589.8       86.4233        3.6745       88.2038       91.8784       5.455008       0.09054
   4     651.6       86.6366        4.0376       87.1979       91.2355       4.598924       0.11707
   3     718.7       86.9938        4.4222       86.0161       90.4383       3.444518       0.14508
   2     792.3       87.6163        4.8245       84.5970       89.4215       1.805239       0.18801
   1     891.5        8.7767        9.8124        0.0000        9.8124       1.035619       0.06549
   0    1013.0        8.8321        9.7409        0.0000        9.7409       0.908828       0.00880



 Wavenumbers: 16000. - 22650. cm-1, ATM      1
 LEVEL PRESSURE   UPWARD FLUX   DIFDOWN FLUX  DIRDOWN FLUX  DOWNWARD FLUX   NET FLUX    HEATING RATE
          mb          W/m2          W/m2          W/m2        W/m2          W/m2       degree/day
  51    .06700      141.7569        0.0000      156.3892      156.3892      14.632342       0.00000
  50    .07753      141.7569        0.0004      156.3887      156.3891      14.632194       0.11883
  49    .09103      141.7569        0.0009      156.3879      156.3888      14.631978       0.13478
  48    0.1069      141.7569        0.0015      156.3871      156.3885      14.631689       0.15370
  47    0.1255      141.7569        0.0021      156.3861      156.3882      14.631303       0.17519
  46    0.1487      141.7569        0.0030      156.3847      156.3877      14.630733       0.20760
  45    0.1794      141.7571        0.0041      156.3828      156.3869      14.629843       0.24444
  44    0.2165      141.7573        0.0054      156.3805      156.3859      14.628635       0.27472
  43    0.2613      141.7577        0.0070      156.3776      156.3847      14.626997       0.30885
  42    0.3336      141.7584        0.0097      156.3726      156.3823      14.623882       0.36320
  41    0.4307      141.7597        0.0132      156.3657      156.3789      14.619186       0.40828
  40    0.5894      141.7623        0.0189      156.3537      156.3726      14.610231       0.47624
  39     1.339      141.7853        0.0459      156.2834      156.3293      14.544066       0.74489
  38     1.782      141.8064        0.0618      156.2324      156.2941      14.487702       1.07308
  37     2.292      141.8381        0.0802      156.1641      156.2443      14.406115       1.35130
  36     2.964      141.8908        0.1043      156.0605      156.1648      14.273942       1.65917
  35     3.853      141.9759        0.1361      155.9041      156.0402      14.064213       1.99036
  34     5.035      142.1044        0.1783      155.6774      155.8557      13.751313       2.23523
  33     6.613      142.2838        0.2347      155.3656      155.6003      13.316466       2.32469
  32     8.786      142.5176        0.3105      154.9577      155.2682      12.750623       2.19753
  31     11.80      142.8218        0.4189      154.4153      154.8342      12.012327       2.06700
  30     15.07      143.1134        0.5351      153.8804      154.4155      11.302093       1.83369
  29     18.79      143.4110        0.6661      153.3191      153.9852      10.574150       1.65047
  28     23.16      143.7222        0.8189      152.7126      153.5315       9.809250       1.47907
  27     28.12      144.0354        0.9934      152.0755      153.0689       9.033493       1.31874
  26     33.73      144.3246        1.1885      151.4409      152.6294       8.304804       1.09560
  25     40.54      144.6031        1.4240      150.7637      152.1877       7.584577       0.89352
  24     48.69      144.8700        1.7076      150.0338      151.7415       6.871521       0.73790
  23     57.69      145.0964        2.0188      149.3151      151.3339       6.237525       0.59428
  22     68.43      145.2943        2.3890      148.5476      150.9366       5.642355       0.46788
  21     81.20      145.4315        2.8298      147.7517      150.5815       5.149997       0.32534
  20     96.49      145.5036        3.3545      146.9127      150.2672       4.763610       0.21326
  19     114.6      145.5419        3.9758      145.9763      149.9521       4.410163       0.16504
  18     136.5      145.5556        4.7093      144.9088      149.6181       4.062455       0.13370
  17     162.9      145.5432        5.5788      143.6785      149.2574       3.714144       0.11133
  16     196.4      145.4649        6.7007      142.1651      148.8657       3.400863       0.07886
  15     218.7      145.3907        7.4338      141.2033      148.6372       3.246511       0.05860
  14     243.0      145.2996        8.2274      140.1753      148.4027       3.103122       0.04973
  13     269.0      145.1901        9.0835      139.0797      148.1631       2.973082       0.04218
  12     297.5      145.0615       10.0042      137.9141      147.9182       2.856726       0.03451
  11     328.5      144.9180       10.9938      136.6676      147.6614       2.743347       0.03083
  10     361.9      144.7594       12.0533      135.3392      147.3925       2.633043       0.02791
   9     398.1      144.5853       13.1867      133.9235      147.1102       2.524843       0.02521
   8     437.6      144.3968       14.3960      132.4163      146.8123       2.415470       0.02338
   7     480.5      144.1936       15.6834      130.8147      146.4981       2.304512       0.02179
   6     533.0      143.9443       17.2559      128.8599      146.1158       2.171504       0.02140
   5     589.8      143.6808       18.9360      126.7679      145.7040       2.023147       0.02202
   4     651.6      143.4109       20.7255      124.5274      145.2529       1.842005       0.02477
   3     718.7      143.1422       22.6260      122.1285      144.7545       1.612250       0.02887
   2     792.3      142.8943       24.6353      119.5548      144.1902       1.295823       0.03629
   1     891.5       64.9169       65.9312        0.0000       65.9312       1.014293       0.02396
   0    1013.0       64.9941       65.8301        0.0000       65.8301       0.836042       0.01238



 Wavenumbers: 22650. - 29000. cm-1, ATM      1
 LEVEL PRESSURE   UPWARD FLUX   DIFDOWN FLUX  DIRDOWN FLUX  DOWNWARD FLUX   NET FLUX    HEATING RATE
          mb          W/m2          W/m2          W/m2        W/m2          W/m2       degree/day
  51    .06700       58.6295        0.0000       59.0156       59.0156       0.386129       0.00000
  50    .07753       58.6294        0.0005       59.0151       59.0155       0.386129      -0.00000
  49    .09103       58.6293        0.0010       59.0144       59.0154       0.386129       0.00000
  48    0.1069       58.6291        0.0017       59.0136       59.0153       0.386129       0.00000
  47    0.1255       58.6290        0.0025       59.0127       59.0151       0.386129      -0.00000
  46    0.1487       58.6288        0.0034       59.0115       59.0149       0.386129       0.00000
  45    0.1794       58.6286        0.0048       59.0099       59.0147       0.386129       0.00000
  44    0.2165       58.6283        0.0063       59.0080       59.0144       0.386129      -0.00000
  43    0.2613       58.6279        0.0082       59.0058       59.0140       0.386129      -0.00000
  42    0.3336       58.6273        0.0113       59.0022       59.0134       0.386129       0.00000
  41    0.4307       58.6265        0.0153       58.9973       59.0126       0.386129       0.00000
  40    0.5894       58.6252        0.0220       58.9894       59.0114       0.386129      -0.00000
  39     1.339       58.6192        0.0535       58.9518       59.0053       0.386129      -0.00000
  38     1.782       58.6156        0.0720       58.9297       59.0017       0.386129       0.00000
  37     2.292       58.6115        0.0934       58.9042       58.9976       0.386129       0.00000
  36     2.964       58.6060        0.1215       58.8706       58.9922       0.386129      -0.00000
  35     3.853       58.5989        0.1586       58.8264       58.9850       0.386129       0.00000
  34     5.035       58.5894        0.2079       58.7676       58.9755       0.386129       0.00000
  33     6.613       58.5767        0.2737       58.6891       58.9628       0.386129      -0.00000
  32     8.786       58.5596        0.3623       58.5834       58.9457       0.386129      -0.00000
  31     11.80       58.5352        0.4888       58.4324       58.9213       0.386129       0.00000
  30     15.07       58.5090        0.6245       58.2706       58.8951       0.386129      -0.00000
  29     18.79       58.4795        0.7774       58.0882       58.8656       0.386129       0.00000
  28     23.16       58.4451        0.9555       57.8757       58.8312       0.386129      -0.00000
  27     28.12       58.4059        1.1587       57.6333       58.7920       0.386129       0.00000
  26     33.73       58.3621        1.3852       57.3631       58.7483       0.386129       0.00000
  25     40.54       58.3095        1.6578       57.0379       58.6957       0.386129       0.00000
  24     48.69       58.2464        1.9847       56.6479       58.6325       0.386129      -0.00000
  23     57.69       58.1775        2.3416       56.2221       58.5636       0.386129      -0.00000
  22     68.43       58.0960        2.7636       55.7186       58.4821       0.386129       0.00000
  21     81.20       57.9997        3.2619       55.1239       58.3859       0.386129       0.00000
  20     96.49       57.8862        3.8495       54.4228       58.2723       0.386129       0.00000
  19     114.6       57.7531        4.5382       53.6010       58.1392       0.386129      -0.00000
  18     136.5       57.5977        5.3421       52.6418       57.9838       0.386129       0.00000
  17     162.9       57.4160        6.2818       51.5203       57.8021       0.386129      -0.00000
  16     196.4       57.1856        7.4723       50.0994       57.5717       0.386129       0.00000
  15     218.7       57.0375        8.2373       49.1863       57.4236       0.386129      -0.00000
  14     243.0       56.8793        9.0542       48.2113       57.2654       0.386129       0.00000
  13     269.0       56.7111        9.9223       47.1749       57.0972       0.386129       0.00000
  12     297.5       56.5330       10.8409       46.0783       56.9191       0.386129       0.00000
  11     328.5       56.3447       11.8113       44.9195       56.7309       0.386129      -0.00000
  10     361.9       56.1468       12.8311       43.7018       56.5329       0.386129      -0.00000
   9     398.1       55.9391       13.9002       42.4250       56.3253       0.386129       0.00000
   8     437.6       55.7221       15.0166       41.0916       56.1083       0.386129       0.00000
   7     480.5       55.4962       16.1779       39.7045       55.8823       0.386129      -0.00000
   6     533.0       55.2272       17.5591       38.0543       55.6133       0.386129       0.00000
   5     589.8       54.9480       18.9910       36.3431       55.3341       0.386129      -0.00000
   4     651.6       54.6598       20.4664       34.5795       55.0460       0.386129      -0.00000
   3     718.7       54.3638       21.9797       32.7702       54.7499       0.386129       0.00000
   2     792.3       54.0615       23.5221       30.9256       54.4477       0.386129      -0.00000
   1     891.5       29.1750       29.5501        0.0000       29.5501       0.375120       0.00094
   0    1013.0       29.1619       29.5370        0.0000       29.5370       0.375120       0.00000



 Wavenumbers: 29000. - 38000. cm-1, ATM      1
 LEVEL PRESSURE   UPWARD FLUX   DIFDOWN FLUX  DIRDOWN FLUX  DOWNWARD FLUX   NET FLUX    HEATING RATE
          mb          W/m2          W/m2          W/m2        W/m2          W/m2       degree/day
  51    .06700        8.7945        0.0000       20.8114       20.8114      12.016876       0.00000
  50    .07753        8.7943        0.0003       20.8070       20.8074      12.013069       3.05164
  49    .09103        8.7941        0.0007       20.8009       20.8016      12.007532       3.46095
  48    0.1069        8.7938        0.0012       20.7928       20.7939      12.000122       3.94440
  47    0.1255        8.7935        0.0017       20.7820       20.7837      11.990217       4.49047
  46    0.1487        8.7932        0.0024       20.7665       20.7688      11.975653       5.30859
  45    0.1794        8.7927        0.0033       20.7424       20.7457      11.952988       6.22222
  44    0.2165        8.7922        0.0044       20.7103       20.7147      11.922464       6.94361
  43    0.2613        8.7916        0.0056       20.6675       20.6731      11.881468       7.72757
  42    0.3336        8.7908        0.0077       20.5880       20.5957      11.804905       8.92654
  41    0.4307        8.7897        0.0104       20.4722       20.4826      11.692948       9.73435
  40    0.5894        8.7881        0.0147       20.2637       20.2784      11.490257      10.77885
  39     1.339        8.7848        0.0332       19.0984       19.1315      10.346724      12.87410
  38     1.782        8.7854        0.0427       18.4394       18.4821       9.696753      12.37441
  37     2.292        8.7881        0.0530       17.7714       17.8244       9.036340      10.93815
  36     2.964        8.7948        0.0657       17.0421       17.1079       8.313107       9.07876
  35     3.853        8.8078        0.0817       16.2678       16.3495       7.541755       7.32027
  34     5.035        8.8292        0.1019       15.4803       15.5822       6.753001       5.63453
  33     6.613        8.8603        0.1277       14.7157       14.8434       5.983051       4.11616
  32     8.786        8.9015        0.1615       13.9936       14.1551       5.253610       2.83288
  31     11.80        8.9552        0.2086       13.2835       13.4922       4.536977       2.00635
  30     15.07        9.0071        0.2575       12.7394       12.9969       3.989819       1.41266
  29     18.79        9.0607        0.3117       12.2666       12.5783       3.517627       1.07060
  28     23.16        9.1177        0.3733       11.8300       12.2033       3.085648       0.83531
  27     28.12        9.1762        0.4423       11.4279       11.8702       2.694036       0.66571
  26     33.73        9.2302        0.5184       11.0695       11.5878       2.357595       0.50585
  25     40.54        9.2817        0.6093       10.7209       11.3302       2.048429       0.38356
  24     48.69        9.3305        0.7171       10.3742       11.0913       1.760798       0.29765
  23     57.69        9.3707        0.8339       10.0549       10.8887       1.518002       0.22758
  22     68.43        9.4036        0.9708        9.7327       10.7035       1.299913       0.17145
  21     81.20        9.4201        1.1326        9.4134       10.5460       1.125911       0.11498
  20     96.49        9.4181        1.3227        9.0887       10.4114       0.993382       0.07315
  19     114.6        9.4059        1.5424        8.7388       10.2812       0.875348       0.05511
  18     136.5        9.3866        1.7937        8.3549       10.1486       0.762024       0.04358
  17     162.9        9.3603        2.0802        7.9311       10.0113       0.650987       0.03549
  16     196.4        9.3152        2.4351        7.4333        9.8684       0.553173       0.02462
  15     218.7        9.2825        2.6584        7.1295        9.7879       0.505435       0.01812
  14     243.0        9.2466        2.8918        6.8161        9.7079       0.461329       0.01530
  13     269.0        9.2072        3.1346        6.4943        9.6289       0.421704       0.01285
  12     297.5        9.1646        3.3856        6.1657        9.5514       0.386751       0.01037
  11     328.5        9.1202        3.6440        5.8295        9.4734       0.353266       0.00910
  10     361.9        9.0743        3.9071        5.4886        9.3957       0.321398       0.00806
   9     398.1        9.0273        4.1745        5.1440        9.3184       0.291176       0.00704
   8     437.6        8.9795        4.4446        4.7969        9.2415       0.262018       0.00623
   7     480.5        8.9313        4.7153        4.4504        9.1657       0.234317       0.00544
   6     533.0        8.8763        5.0241        4.0563        9.0804       0.204091       0.00486
   5     589.8        8.8223        5.3289        3.6682        8.9971       0.174791       0.00435
   4     651.6        8.7702        5.6258        3.2905        8.9163       0.146090       0.00392
   3     718.7        8.7207        5.9134        2.9252        8.8386       0.117941       0.00354
   2     792.3        8.6744        6.1883        2.5764        8.7648       0.090347       0.00316
   1     891.5        4.2175        4.2851        0.0000        4.2851       0.067608       0.00193
   0    1013.0        4.2197        4.2740        0.0000        4.2740       0.054280       0.00093



 Wavenumbers: 38000. - 50000. cm-1, ATM      1
 LEVEL PRESSURE   UPWARD FLUX   DIFDOWN FLUX  DIRDOWN FLUX  DOWNWARD FLUX   NET FLUX    HEATING RATE
          mb          W/m2          W/m2          W/m2        W/m2          W/m2       degree/day
  51    .06700        0.0061        0.0000        1.2836        1.2836       1.277518       0.00000
  50    .07753        0.0061        0.0001        1.2812        1.2812       1.275183       1.87150
  49    .09103        0.0060        0.0002        1.2777        1.2778       1.271851       2.08247
  48    0.1069        0.0059        0.0002        1.2731        1.2734       1.267473       2.33059
  47    0.1255        0.0058        0.0004        1.2672        1.2675       1.261717       2.60908
  46    0.1487        0.0057        0.0005        1.2586        1.2591       1.253391       3.03499
  45    0.1794        0.0055        0.0007        1.2455        1.2462       1.240623       3.50520
  44    0.2165        0.0054        0.0009        1.2282        1.2291       1.223697       3.85037
  43    0.2613        0.0052        0.0011        1.2054        1.2065       1.201348       4.21261
  42    0.3336        0.0049        0.0015        1.1639        1.1654       1.160524       4.75970
  41    0.4307        0.0045        0.0020        1.1051        1.1070       1.102565       5.03943
  40    0.5894        0.0039        0.0026        1.0039        1.0064       1.002524       5.32007
  39     1.339        0.0022        0.0035        0.5438        0.5473       0.545104       5.14971
  38     1.782        0.0016        0.0032        0.3635        0.3666       0.365006       3.42879
  37     2.292        0.0012        0.0027        0.2356        0.2383       0.237058       2.11916
  36     2.964        0.0009        0.0022        0.1455        0.1477       0.146786       1.13318
  35     3.853        0.0006        0.0017        0.0858        0.0875       0.086906       0.56828
  34     5.035        0.0004        0.0013        0.0488        0.0501       0.049701       0.26578
  33     6.613        0.0003        0.0010        0.0273        0.0282       0.027974       0.11615
  32     8.786        0.0002        0.0007        0.0144        0.0151       0.014928       0.05067
  31     11.80        0.0001        0.0004        0.0065        0.0070       0.006903       0.02247
  30     15.07        0.0000        0.0003        0.0031        0.0034       0.003329       0.00923
  29     18.79        0.0000        0.0002        0.0014        0.0016       0.001583       0.00396
  28     23.16        0.0000        0.0001        0.0006        0.0007       0.000720       0.00167
  27     28.12        0.0000        0.0001        0.0003        0.0003       0.000317       0.00069
  26     33.73        0.0000        0.0000        0.0001        0.0001       0.000140       0.00027
  25     40.54        0.0000        0.0000        0.0000        0.0001       0.000057       0.00010
  24     48.69        0.0000        0.0000        0.0000        0.0000       0.000021       0.00004
  23     57.69        0.0000        0.0000        0.0000        0.0000       0.000008       0.00001
  22     68.43        0.0000        0.0000        0.0000        0.0000       0.000003       0.00000
  21     81.20        0.0000        0.0000        0.0000        0.0000       0.000001       0.00000
  20     96.49        0.0000        0.0000        0.0000        0.0000       0.000000       0.00000
  19     114.6        0.0000        0.0000        0.0000        0.0000       0.000000       0.00000
  18     136.5        0.0000        0.0000        0.0000        0.0000       0.000000       0.00000
  17     162.9        0.0000        0.0000        0.0000        0.0000       0.000000       0.00000
  16     196.4        0.0000        0.0000        0.0000        0.0000       0.000000       0.00000
  15     218.7        0.0000        0.0000        0.0000        0.0000       0.000000       0.00000
  14     243.0        0.0000        0.0000        0.0000        0.0000       0.000000       0.00000
  13     269.0        0.0000        0.0000        0.0000        0.0000       0.000000       0.00000
  12     297.5        0.0000        0.0000        0.0000        0.0000       0.000000       0.00000
  11     328.5        0.0000        0.0000        0.0000        0.0000       0.000000       0.00000
  10     361.9        0.0000        0.0000        0.0000        0.0000       0.000000       0.00000
   9     398.1        0.0000        0.0000        0.0000        0.0000       0.000000       0.00000
   8     437.6        0.0000        0.0000        0.0000        0.0000       0.000000       0.00000
   7     480.5        0.0000        0.0000        0.0000        0.0000       0.000000       0.00000
   6     533.0        0.0000        0.0000        0.0000        0.0000       0.000000       0.00000
   5     589.8        0.0000        0.0000        0.0000        0.0000       0.000000       0.00000
   4     651.6        0.0000        0.0000        0.0000        0.0000       0.000000       0.00000
   3     718.7        0.0000        0.0000        0.0000        0.0000       0.000000       0.00000
   2     792.3        0.0000        0.0000        0.0000        0.0000       0.000000       0.00000
   1     891.5        0.0000        0.0000        0.0000        0.0000       0.000000       0.00000
   0    1013.0        0.0000        0.0000        0.0000        0.0000       0.000000       0.00000



 Wavenumbers:   820. -  2600. cm-1, ATM      1
 LEVEL PRESSURE   UPWARD FLUX   DIFDOWN FLUX  DIRDOWN FLUX  DOWNWARD FLUX   NET FLUX    HEATING RATE
          mb          W/m2          W/m2          W/m2        W/m2          W/m2       degree/day
  51    .06700        1.8341        0.0000        6.0047        6.0047       4.170518       0.00000
  50    .07753        1.8341        0.0000        6.0008        6.0008       4.166665       3.08827
  49    .09103        1.8341        0.0000        5.9999        5.9999       4.165780       0.55363
  48    0.1069        1.8341        0.0000        5.9989        5.9989       4.164790       0.52658
  47    0.1255        1.8341        0.0000        5.9978        5.9978       4.163673       0.50655
  46    0.1487        1.8341        0.0000        5.9964        5.9964       4.162316       0.49463
  45    0.1794        1.8341        0.0000        5.9947        5.9947       4.160596       0.47206
  44    0.2165        1.8341        0.0000        5.9929        5.9929       4.158754       0.41917
  43    0.2613        1.8341        0.0000        5.9909        5.9909       4.156794       0.36940
  42    0.3336        1.8341        0.0000        5.9880        5.9880       4.153915       0.33563
  41    0.4307        1.8341        0.0000        5.9846        5.9846       4.150445       0.30172
  40    0.5894        1.8341        0.0000        5.9791        5.9791       4.144939       0.29284
  39     1.339        1.8341        0.0000        5.9536        5.9536       4.119444       0.28702
  38     1.782        1.8342        0.0000        5.9395        5.9395       4.105302       0.26925
  37     2.292        1.8342        0.0000        5.9237        5.9237       4.089546       0.26096
  36     2.964        1.8342        0.0000        5.9039        5.9039       4.069766       0.24830
  35     3.853        1.8342        0.0000        5.8793        5.8793       4.045102       0.23407
  34     5.035        1.8342        0.0000        5.8487        5.8487       4.014528       0.21841
  33     6.613        1.8342        0.0000        5.8108        5.8108       3.976549       0.20304
  32     8.786        1.8342        0.0000        5.7631        5.7631       3.928907       0.18503
  31     11.80        1.8343        0.0000        5.7039        5.7039       3.869621       0.16598
  30     15.07        1.8343        0.0000        5.6539        5.6539       3.819552       0.12927
  29     18.79        1.8344        0.0000        5.6127        5.6127       3.778381       0.09335
  28     23.16        1.8344        0.0000        5.5794        5.5794       3.744962       0.06462
  27     28.12        1.8345        0.0000        5.5518        5.5518       3.717346       0.04695
  26     33.73        1.8345        0.0000        5.5268        5.5268       3.692236       0.03775
  25     40.54        1.8346        0.0000        5.4993        5.4993       3.664723       0.03413
  24     48.69        1.8347        0.0000        5.4678        5.4678       3.633096       0.03273
  23     57.69        1.8348        0.0000        5.4340        5.4340       3.599212       0.03176
  22     68.43        1.8349        0.0000        5.3947        5.3948       3.559821       0.03097
  21     81.20        1.8351        0.0000        5.3497        5.3497       3.514644       0.02985
  20     96.49        1.8353        0.0000        5.2982        5.2982       3.462950       0.02853
  19     114.6        1.8355        0.0000        5.2389        5.2389       3.403405       0.02780
  18     136.5        1.8358        0.0000        5.1716        5.1717       3.335868       0.02597
  17     162.9        1.8362        0.0000        5.0890        5.0891       3.252836       0.02654
  16     196.4        1.8369        0.0000        4.9668        4.9668       3.129900       0.03094
  15     218.7        1.8376        0.0000        4.8585        4.8585       3.020845       0.04140
  14     243.0        1.8388        0.0000        4.7078        4.7079       2.869111       0.05263
  13     269.0        1.8404        0.0000        4.5343        4.5343       2.693877       0.05684
  12     297.5        1.8431        0.0000        4.3419        4.3420       2.498913       0.05782
  11     328.5        1.8466        0.0000        4.1281        4.1281       2.281550       0.05910
  10     361.9        1.8513        0.0000        3.8786        3.8787       2.027384       0.06431
   9     398.1        1.8574        0.0000        3.6159        3.6160       1.758580       0.06263
   8     437.6        1.8653        0.0000        3.3759        3.3759       1.510638       0.05301
   7     480.5        1.8749        0.0000        3.1957        3.1958       1.320865       0.03727
   6     533.0        1.8896        0.0001        3.0467        3.0467       1.157085       0.02635
   5     589.8        1.9114        0.0001        2.9023        2.9023       0.990958       0.02466
   4     651.6        1.9493        0.0001        2.7183        2.7184       0.769099       0.03034
   3     718.7        2.0158        0.0001        2.5058        2.5059       0.490091       0.03506
   2     792.3        2.1485        0.0001        2.2756        2.2757       0.127233       0.04162
   1     891.5        0.0132        0.0222        0.0000        0.0222       0.009028       0.01006
   0    1013.0        0.0152        0.0192        0.0000        0.0192       0.003955       0.00035

  Modules and versions used in this calculation:

       rrtmg_sw.1col.f90:  $Revision$                    rrtmg_sw_init.f90:  $Revision$        
     rrtmgsw_cldprop.f90:  $Revision$                  rrtmgsw_cldprmc.f90:  NOT USED          
     rrtmg_sw_reftra.f90:  $Revision$                  rrtmg_sw_spcvrt.f90:  NOT USED          
     rrtmg_sw_spcvmc.f90:  NOT USED                    rrtmgsw_setcoef.f90:  NOT USED          
     rrtmg_sw_taumol.f90:  $Revision$                  rrtmg_sw_vrtqdr.f90:  NOT USED          
                rrtatm.f:  NOT USED                             util_xxx.f:  NOT USED          
                 extra.f:  NOT USED                       rrtmg_sw_k_g.f90:  $Revision$        

