

 Wavenumbers:   820. - 50000. cm-1, ATM      1
 LEVEL PRESSURE   UPWARD FLUX   DIFDOWN FLUX  DIRDOWN FLUX  DOWNWARD FLUX   NET FLUX    HEATING RATE
          mb          W/m2          W/m2          W/m2        W/m2          W/m2       degree/day
  51    .06700      430.6638        0.0000      617.8126      617.8126     187.148783       0.00000
  50    .07753      430.6634        0.0014      617.7947      617.7961     187.132641      12.93760
  49    .09103      430.6630        0.0030      617.7778      617.7808     187.117830       9.25765
  48    0.1069      430.6625        0.0050      617.7581      617.7631     187.100566       9.18963
  47    0.1255      430.6620        0.0072      617.7340      617.7412     187.079218       9.67804
  46    0.1487      430.6614        0.0101      617.7009      617.7110     187.049528      10.82231
  45    0.1794      430.6607        0.0139      617.6521      617.6660     187.005291      12.14424
  44    0.2165      430.6600        0.0185      617.5895      617.6080     186.947961      13.04156
  43    0.2613      430.6593        0.0238      617.5089      617.5327     186.873436      14.04749
  42    0.3336      430.6585        0.0327      617.3641      617.3968     186.738330      15.75207
  41    0.4307      430.6578        0.0443      617.1591      617.2035     186.545675      16.75091
  40    0.5894      430.6577        0.0632      616.8005      616.8636     186.205925      18.06749
  39     1.339      430.6755        0.1482      614.9443      615.0924     184.416899      20.14118
  38     1.782      430.6988        0.1960      613.9670      614.1631     183.464299      18.13596
  37     2.292      430.7372        0.2505      613.0059      613.2564     182.519203      15.65326
  36     2.964      430.8050        0.3213      611.9577      612.2789     181.473951      13.12107
  35     3.853      430.9188        0.4141      610.8024      611.2165     180.297716      11.16269
  34     5.035      431.0938        0.5366      609.5327      610.0693     178.975512       9.44528
  33     6.613      431.3402        0.6991      608.1464      608.8456     177.505355       7.85946
  32     8.786      431.6613        0.9173      606.6250      607.5423     175.881014       6.30836
  31     11.80      432.0771        1.2278      604.8486      606.0765     173.999377       5.26799
  30     15.07      432.4729        1.5592      603.2440      604.8032     172.330277       4.30929
  29     18.79      432.8748        1.9321      601.6511      603.5832     170.708472       3.67713
  28     23.16      433.2920        2.3654      599.9927      602.3581     169.066054       3.17591
  27     28.12      433.7081        2.8585      598.2881      601.1466     167.438464       2.76679
  26     33.73      434.0845        3.4084      596.5951      600.0034     165.918906       2.28470
  25     40.54      434.4353        4.0703      594.7727      598.8430     164.407717       1.87480
  24     48.69      434.7574        4.8647      592.7865      597.6511     162.893715       1.56675
  23     57.69      435.0136        5.7330      590.7959      596.5289     161.515320       1.29204
  22     68.43      435.2126        6.7617      588.6191      595.3808     160.168223       1.05900
  21     81.20      435.3024        7.9814      586.2690      594.2504     158.947995       0.80631
  20     96.49      435.2728        9.4256      583.6961      593.1217     157.848841       0.60665
  19     114.6      435.1836       11.1247      580.7708      591.8955     156.711923       0.53086
  18     136.5      435.0329       13.1143      577.4359      590.5502     155.517347       0.45934
  17     162.9      434.8152       15.4494      573.5624      589.0119     154.196647       0.42215
  16     196.4      434.4449       18.4275      568.5907      587.0182     152.573339       0.40861
  15     218.7      434.1730       20.3531      565.0572      585.4103     151.237307       0.50724
  14     243.0      433.8693       22.4186      560.7495      583.1681     149.298784       0.67234
  13     269.0      433.5348       24.6254      555.3947      580.0200     146.485264       0.91269
  12     297.5      433.1743       26.9741      548.9964      575.9705     142.796177       1.09414
  11     328.5      432.7977       29.4714      542.0895      571.5609     138.763227       1.09655
  10     361.9      432.4121       32.1134      534.6242      566.7376     134.325538       1.12278
   9     398.1      432.0273       34.9048      526.4204      561.3252     129.297957       1.17131
   8     437.6      431.6630       37.8443      517.3907      555.2349     123.571885       1.22427
   7     480.5      431.3402       40.9299      507.7216      548.6515     117.311211       1.22957
   6     533.0      431.0693       44.6400      495.9006      540.5407     109.471384       1.26118
   5     589.8      431.0070       48.5338      483.0788      531.6126     100.605535       1.31598
   4     651.6      431.4145       52.5984      468.6907      521.2890      89.874504       1.46750
   3     718.7      432.6507       56.8257      453.2257      510.0515      77.400721       1.56761
   2     792.3      435.6567       61.1938      436.4928      497.6867      62.029960       1.76285
   1     891.5      314.5052      346.1660       15.2031      361.3691      46.863946       1.29055
   0    1013.0      318.5514      338.8613       14.2657      353.1269      34.575480       0.85325



 Wavenumbers:  2600. -  3250. cm-1, ATM      1
 LEVEL PRESSURE   UPWARD FLUX   DIFDOWN FLUX  DIRDOWN FLUX  DOWNWARD FLUX   NET FLUX    HEATING RATE
          mb          W/m2          W/m2          W/m2        W/m2          W/m2       degree/day
  51    .06700        1.3852        0.0000        5.4450        5.4450       4.059799       0.00000
  50    .07753        1.3852        0.0000        5.4450        5.4450       4.059791       0.00640
  49    .09103        1.3852        0.0000        5.4450        5.4450       4.059781       0.00627
  48    0.1069        1.3852        0.0000        5.4450        5.4450       4.059769       0.00613
  47    0.1255        1.3852        0.0000        5.4450        5.4450       4.059756       0.00599
  46    0.1487        1.3852        0.0000        5.4450        5.4450       4.059740       0.00608
  45    0.1794        1.3852        0.0000        5.4450        5.4450       4.059717       0.00625
  44    0.2165        1.3852        0.0000        5.4449        5.4449       4.059690       0.00612
  43    0.2613        1.3852        0.0000        5.4449        5.4449       4.059658       0.00600
  42    0.3336        1.3852        0.0000        5.4448        5.4448       4.059605       0.00617
  41    0.4307        1.3852        0.0000        5.4448        5.4448       4.059534       0.00620
  40    0.5894        1.3852        0.0000        5.4446        5.4446       4.059414       0.00637
  39     1.339        1.3852        0.0000        5.4439        5.4439       4.058707       0.00797
  38     1.782        1.3852        0.0000        5.4434        5.4434       4.058164       0.01034
  37     2.292        1.3852        0.0000        5.4427        5.4427       4.057448       0.01186
  36     2.964        1.3852        0.0000        5.4416        5.4416       4.056409       0.01304
  35     3.853        1.3852        0.0000        5.4402        5.4402       4.054932       0.01402
  34     5.035        1.3852        0.0000        5.4381        5.4381       4.052876       0.01468
  33     6.613        1.3852        0.0000        5.4353        5.4353       4.050094       0.01487
  32     8.786        1.3852        0.0000        5.4317        5.4317       4.046462       0.01411
  31     11.80        1.3852        0.0000        5.4269        5.4269       4.041680       0.01339
  30     15.07        1.3852        0.0000        5.4224        5.4224       4.037152       0.01169
  29     18.79        1.3852        0.0000        5.4180        5.4180       4.032737       0.01001
  28     23.16        1.3852        0.0000        5.4135        5.4135       4.028247       0.00868
  27     28.12        1.3852        0.0000        5.4088        5.4088       4.023594       0.00791
  26     33.73        1.3853        0.0000        5.4036        5.4036       4.018345       0.00789
  25     40.54        1.3853        0.0000        5.3966        5.3967       4.011391       0.00863
  24     48.69        1.3853        0.0000        5.3872        5.3872       4.001895       0.00983
  23     57.69        1.3853        0.0000        5.3754        5.3754       3.990084       0.01107
  22     68.43        1.3854        0.0000        5.3599        5.3599       3.974558       0.01221
  21     81.20        1.3854        0.0000        5.3401        5.3401       3.954669       0.01314
  20     96.49        1.3855        0.0000        5.3155        5.3155       3.930024       0.01360
  19     114.6        1.3856        0.0000        5.2853        5.2854       3.899718       0.01415
  18     136.5        1.3858        0.0001        5.2504        5.2505       3.864658       0.01348
  17     162.9        1.3861        0.0001        5.2111        5.2112       3.825094       0.01265
  16     196.4        1.3865        0.0001        5.1640        5.1641       3.777634       0.01195
  15     218.7        1.3869        0.0001        5.1331        5.1332       3.746297       0.01190
  14     243.0        1.3876        0.0001        5.0962        5.0963       3.708715       0.01303
  13     269.0        1.3887        0.0001        5.0511        5.0512       3.662521       0.01499
  12     297.5        1.3903        0.0001        4.9956        4.9957       3.605405       0.01694
  11     328.5        1.3926        0.0001        4.9304        4.9305       3.537887       0.01836
  10     361.9        1.3958        0.0001        4.8511        4.8512       3.455463       0.02085
   9     398.1        1.4002        0.0002        4.7507        4.7508       3.350682       0.02441
   8     437.6        1.4063        0.0002        4.6220        4.6222       3.215948       0.02881
   7     480.5        1.4147        0.0002        4.4625        4.4627       3.047921       0.03300
   6     533.0        1.4286        0.0002        4.2460        4.2462       2.817624       0.03705
   5     589.8        1.4499        0.0002        3.9954        3.9956       2.545739       0.04036
   4     651.6        1.4852        0.0002        3.7089        3.7091       2.223886       0.04401
   3     718.7        1.5440        0.0002        3.4018        3.4020       1.857996       0.04598
   2     792.3        1.6523        0.0002        3.0564        3.0566       1.404375       0.05203
   1     891.5        0.0077        0.9206        0.0949        1.0155       1.007729       0.03375
   0    1013.0        0.0089        0.7592        0.0766        0.8358       0.826857       0.01256



 Wavenumbers:  3250. -  4000. cm-1, ATM      1
 LEVEL PRESSURE   UPWARD FLUX   DIFDOWN FLUX  DIRDOWN FLUX  DOWNWARD FLUX   NET FLUX    HEATING RATE
          mb          W/m2          W/m2          W/m2        W/m2          W/m2       degree/day
  51    .06700        0.0412        0.0000        9.1795        9.1795       9.138315       0.00000
  50    .07753        0.0412        0.0000        9.1747        9.1747       9.133472       3.88148
  49    .09103        0.0412        0.0000        9.1713        9.1713       9.130084       2.11747
  48    0.1069        0.0412        0.0000        9.1688        9.1688       9.127559       1.34402
  47    0.1255        0.0412        0.0000        9.1665        9.1665       9.125300       1.02422
  46    0.1487        0.0412        0.0000        9.1641        9.1641       9.122859       0.88991
  45    0.1794        0.0412        0.0000        9.1612        9.1612       9.119981       0.79008
  44    0.2165        0.0412        0.0000        9.1583        9.1583       9.117061       0.66430
  43    0.2613        0.0412        0.0000        9.1553        9.1553       9.114087       0.56041
  42    0.3336        0.0412        0.0000        9.1511        9.1511       9.109908       0.48723
  41    0.4307        0.0412        0.0000        9.1464        9.1464       9.105140       0.41459
  40    0.5894        0.0412        0.0000        9.1393        9.1394       9.098135       0.37255
  39     1.339        0.0412        0.0000        9.1127        9.1127       9.071521       0.29962
  38     1.782        0.0412        0.0000        9.1011        9.1011       9.059933       0.22062
  37     2.292        0.0412        0.0000        9.0901        9.0901       9.048866       0.18329
  36     2.964        0.0412        0.0000        9.0776        9.0776       9.036436       0.15603
  35     3.853        0.0412        0.0000        9.0629        9.0629       9.021646       0.14036
  34     5.035        0.0412        0.0000        9.0441        9.0441       9.002907       0.13386
  33     6.613        0.0412        0.0000        9.0191        9.0191       8.977906       0.13366
  32     8.786        0.0412        0.0000        8.9843        8.9843       8.943122       0.13509
  31     11.80        0.0412        0.0000        8.9327        8.9327       8.891506       0.14451
  30     15.07        0.0412        0.0000        8.8758        8.8759       8.834661       0.14676
  29     18.79        0.0412        0.0000        8.8110        8.8110       8.769834       0.14698
  28     23.16        0.0412        0.0000        8.7365        8.7366       8.695389       0.14395
  27     28.12        0.0412        0.0000        8.6554        8.6555       8.614276       0.13789
  26     33.73        0.0412        0.0000        8.5719        8.5719       8.530776       0.12554
  25     40.54        0.0412        0.0001        8.4812        8.4812       8.440052       0.11255
  24     48.69        0.0412        0.0001        8.3838        8.3839       8.342751       0.10069
  23     57.69        0.0411        0.0001        8.2861        8.2862       8.245015       0.09161
  22     68.43        0.0411        0.0001        8.1751        8.1751       8.134019       0.08726
  21     81.20        0.0411        0.0001        8.0457        8.0458       8.004661       0.08548
  20     96.49        0.0411        0.0001        7.8949        7.8951       7.853957       0.08318
  19     114.6        0.0411        0.0001        7.7162        7.7163       7.675247       0.08344
  18     136.5        0.0410        0.0002        7.5193        7.5195       7.478403       0.07569
  17     162.9        0.0410        0.0002        7.2913        7.2915       7.250511       0.07284
  16     196.4        0.0410        0.0002        6.9660        6.9662       6.925235       0.08188
  15     218.7        0.0410        0.0002        6.6648        6.6650       6.624039       0.11435
  14     243.0        0.0410        0.0002        6.2619        6.2622       6.221228       0.13971
  13     269.0        0.0410        0.0003        5.7576        5.7579       5.716887       0.16361
  12     297.5        0.0411        0.0003        5.1719        5.1722       5.131107       0.17374
  11     328.5        0.0412        0.0002        4.5757        4.5760       4.534791       0.16214
  10     361.9        0.0414        0.0002        3.9995        3.9998       3.958359       0.14584
   9     398.1        0.0418        0.0002        3.4655        3.4657       3.423880       0.12452
   8     437.6        0.0425        0.0002        2.9740        2.9743       2.931730       0.10522
   7     480.5        0.0436        0.0002        2.5307        2.5309       2.487221       0.08730
   6     533.0        0.0458        0.0002        2.0614        2.0616       2.015732       0.07585
   5     589.8        0.0498        0.0002        1.6150        1.6151       1.565297       0.06686
   4     651.6        0.0582        0.0001        1.1565        1.1566       1.098381       0.06385
   3     718.7        0.0767        0.0001        0.7390        0.7391       0.662437       0.05479
   2     792.3        0.1259        0.0001        0.3985        0.3985       0.272659       0.04470
   1     891.5        0.0000        0.0371        0.0042        0.0413       0.041246       0.01969
   0    1013.0        0.0003        0.0038        0.0003        0.0042       0.003916       0.00259



 Wavenumbers:  4000. -  4650. cm-1, ATM      1
 LEVEL PRESSURE   UPWARD FLUX   DIFDOWN FLUX  DIRDOWN FLUX  DOWNWARD FLUX   NET FLUX    HEATING RATE
          mb          W/m2          W/m2          W/m2        W/m2          W/m2       degree/day
  51    .06700        4.6549        0.0000       10.7795       10.7795       6.124643       0.00000
  50    .07753        4.6549        0.0000       10.7795       10.7795       6.124642       0.00080
  49    .09103        4.6549        0.0000       10.7795       10.7795       6.124641       0.00078
  48    0.1069        4.6549        0.0000       10.7795       10.7795       6.124640       0.00076
  47    0.1255        4.6549        0.0000       10.7795       10.7795       6.124638       0.00075
  46    0.1487        4.6549        0.0000       10.7795       10.7795       6.124636       0.00076
  45    0.1794        4.6549        0.0000       10.7795       10.7795       6.124633       0.00078
  44    0.2165        4.6549        0.0000       10.7795       10.7795       6.124630       0.00076
  43    0.2613        4.6549        0.0000       10.7795       10.7795       6.124626       0.00075
  42    0.3336        4.6549        0.0000       10.7795       10.7795       6.124619       0.00077
  41    0.4307        4.6549        0.0000       10.7795       10.7795       6.124610       0.00077
  40    0.5894        4.6549        0.0000       10.7795       10.7795       6.124595       0.00080
  39     1.339        4.6549        0.0000       10.7794       10.7794       6.124506       0.00101
  38     1.782        4.6549        0.0000       10.7793       10.7793       6.124436       0.00133
  37     2.292        4.6549        0.0000       10.7792       10.7792       6.124342       0.00156
  36     2.964        4.6549        0.0000       10.7791       10.7791       6.124201       0.00176
  35     3.853        4.6549        0.0000       10.7789       10.7789       6.123993       0.00198
  34     5.035        4.6549        0.0000       10.7786       10.7786       6.123686       0.00220
  33     6.613        4.6549        0.0000       10.7781       10.7781       6.123233       0.00242
  32     8.786        4.6549        0.0000       10.7774       10.7774       6.122565       0.00259
  31     11.80        4.6549        0.0001       10.7763       10.7764       6.121515       0.00294
  30     15.07        4.6549        0.0001       10.7751       10.7752       6.120283       0.00318
  29     18.79        4.6549        0.0001       10.7736       10.7737       6.118793       0.00338
  28     23.16        4.6549        0.0001       10.7717       10.7718       6.116942       0.00358
  27     28.12        4.6549        0.0001       10.7695       10.7696       6.114700       0.00381
  26     33.73        4.6549        0.0002       10.7667       10.7668       6.111934       0.00416
  25     40.54        4.6549        0.0002       10.7629       10.7631       6.108181       0.00466
  24     48.69        4.6550        0.0002       10.7579       10.7581       6.103176       0.00518
  23     57.69        4.6550        0.0003       10.7520       10.7523       6.097239       0.00557
  22     68.43        4.6551        0.0003       10.7446       10.7449       6.089793       0.00585
  21     81.20        4.6553        0.0004       10.7355       10.7359       6.080614       0.00607
  20     96.49        4.6555        0.0004       10.7245       10.7249       6.069433       0.00617
  19     114.6        4.6558        0.0005       10.7107       10.7112       6.055435       0.00654
  18     136.5        4.6563        0.0006       10.6942       10.6948       6.038547       0.00649
  17     162.9        4.6569        0.0007       10.6740       10.6747       6.017810       0.00663
  16     196.4        4.6581        0.0009       10.6464       10.6472       5.989143       0.00722
  15     218.7        4.6591        0.0010       10.6255       10.6264       5.967298       0.00829
  14     243.0        4.6607        0.0011       10.5980       10.5991       5.938477       0.01000
  13     269.0        4.6629        0.0012       10.5611       10.5623       5.899369       0.01269
  12     297.5        4.6662        0.0013       10.5119       10.5133       5.847029       0.01552
  11     328.5        4.6708        0.0015       10.4499       10.4513       5.780533       0.01808
  10     361.9        4.6768        0.0016       10.3702       10.3718       5.694987       0.02164
   9     398.1        4.6843        0.0017       10.2678       10.2695       5.585194       0.02558
   8     437.6        4.6940        0.0019       10.1390       10.1409       5.446902       0.02957
   7     480.5        4.7064        0.0021        9.9877        9.9898       5.283359       0.03212
   6     533.0        4.7256        0.0023        9.7937        9.7959       5.070350       0.03427
   5     589.8        4.7535        0.0025        9.5752        9.5776       4.824151       0.03654
   4     651.6        4.7987        0.0026        9.2958        9.2984       4.499773       0.04436
   3     718.7        4.8752        0.0028        8.9267        8.9296       4.054329       0.05598
   2     792.3        5.0205        0.0030        8.4542        8.4572       3.436698       0.07084
   1     891.5        0.4356        3.0223        0.2863        3.3086       2.872972       0.04797
   0    1013.0        0.4637        2.7787        0.2599        3.0386       2.574929       0.02069



 Wavenumbers:  4650. -  5150. cm-1, ATM      1
 LEVEL PRESSURE   UPWARD FLUX   DIFDOWN FLUX  DIRDOWN FLUX  DOWNWARD FLUX   NET FLUX    HEATING RATE
          mb          W/m2          W/m2          W/m2        W/m2          W/m2       degree/day
  51    .06700        3.2748        0.0000       10.2033       10.2033       6.928576       0.00000
  50    .07753        3.2748        0.0000       10.2031       10.2031       6.928341       0.18901
  49    .09103        3.2748        0.0000       10.2028       10.2028       6.928046       0.18428
  48    0.1069        3.2748        0.0000       10.2025       10.2025       6.927709       0.17931
  47    0.1255        3.2748        0.0000       10.2021       10.2021       6.927325       0.17426
  46    0.1487        3.2748        0.0000       10.2016       10.2016       6.926844       0.17536
  45    0.1794        3.2748        0.0000       10.2010       10.2010       6.926193       0.17850
  44    0.2165        3.2748        0.0000       10.2002       10.2002       6.925434       0.17277
  43    0.2613        3.2748        0.0000       10.1993       10.1993       6.924548       0.16690
  42    0.3336        3.2748        0.0000       10.1979       10.1979       6.923116       0.16702
  41    0.4307        3.2748        0.0000       10.1960       10.1960       6.921275       0.16002
  40    0.5894        3.2748        0.0000       10.1932       10.1932       6.918401       0.15283
  39     1.339        3.2748        0.0000       10.1816       10.1816       6.906810       0.13050
  38     1.782        3.2748        0.0000       10.1760       10.1760       6.901281       0.10526
  37     2.292        3.2748        0.0000       10.1706       10.1706       6.895824       0.09038
  36     2.964        3.2748        0.0000       10.1646       10.1647       6.889900       0.07436
  35     3.853        3.2748        0.0000       10.1584       10.1584       6.883684       0.05899
  34     5.035        3.2748        0.0000       10.1521       10.1521       6.877347       0.04527
  33     6.613        3.2748        0.0000       10.1456       10.1456       6.870886       0.03454
  32     8.786        3.2748        0.0001       10.1386       10.1386       6.863869       0.02725
  31     11.80        3.2748        0.0001       10.1295       10.1296       6.854817       0.02534
  30     15.07        3.2748        0.0001       10.1196       10.1197       6.844923       0.02555
  29     18.79        3.2748        0.0001       10.1076       10.1077       6.832893       0.02728
  28     23.16        3.2749        0.0002       10.0923       10.0924       6.817556       0.02966
  27     28.12        3.2749        0.0002       10.0731       10.0733       6.798416       0.03254
  26     33.73        3.2750        0.0002       10.0500       10.0503       6.775262       0.03481
  25     40.54        3.2751        0.0003       10.0201       10.0204       6.745272       0.03721
  24     48.69        3.2753        0.0003        9.9820        9.9823       6.706977       0.03963
  23     57.69        3.2755        0.0004        9.9384        9.9388       6.663279       0.04096
  22     68.43        3.2759        0.0004        9.8858        9.8862       6.610325       0.04163
  21     81.20        3.2763        0.0005        9.8234        9.8240       6.547627       0.04143
  20     96.49        3.2770        0.0006        9.7518        9.7524       6.475383       0.03987
  19     114.6        3.2779        0.0007        9.6719        9.6727       6.394742       0.03765
  18     136.5        3.2792        0.0009        9.5858        9.5867       6.307489       0.03355
  17     162.9        3.2809        0.0010        9.4940        9.4951       6.214124       0.02984
  16     196.4        3.2837        0.0012        9.3883        9.3895       6.105835       0.02726
  15     218.7        3.2858        0.0014        9.3229        9.3243       6.038458       0.02558
  14     243.0        3.2886        0.0015        9.2520        9.2535       5.964871       0.02552
  13     269.0        3.2923        0.0017        9.1717        9.1733       5.880962       0.02722
  12     297.5        3.2976        0.0018        9.0763        9.0781       5.780511       0.02979
  11     328.5        3.3044        0.0020        8.9650        8.9669       5.662548       0.03207
  10     361.9        3.3132        0.0022        8.8349        8.8371       5.523864       0.03509
   9     398.1        3.3247        0.0023        8.6820        8.6844       5.359690       0.03825
   8     437.6        3.3396        0.0025        8.5028        8.5053       5.165739       0.04147
   7     480.5        3.3590        0.0027        8.2948        8.2975       4.938496       0.04463
   6     533.0        3.3888        0.0029        8.0209        8.0238       4.635052       0.04881
   5     589.8        3.4302        0.0032        7.7063        7.7095       4.279247       0.05281
   4     651.6        3.4918        0.0034        7.3412        7.3446       3.852766       0.05832
   3     718.7        3.5854        0.0035        6.9387        6.9422       3.356768       0.06233
   2     792.3        3.7361        0.0037        6.5066        6.5103       2.774249       0.06681
   1     891.5        0.1097        2.1803        0.2181        2.3984       2.288722       0.04132
   0    1013.0        0.1188        1.9721        0.1948        2.1669       2.048162       0.01670



 Wavenumbers:  5150. -  6150. cm-1, ATM      1
 LEVEL PRESSURE   UPWARD FLUX   DIFDOWN FLUX  DIRDOWN FLUX  DOWNWARD FLUX   NET FLUX    HEATING RATE
          mb          W/m2          W/m2          W/m2        W/m2          W/m2       degree/day
  51    .06700        8.0492        0.0000       25.5798       25.5798      17.530593       0.00000
  50    .07753        8.0492        0.0000       25.5798       25.5798      17.530553       0.03160
  49    .09103        8.0492        0.0000       25.5797       25.5797      17.530502       0.03209
  48    0.1069        8.0492        0.0000       25.5797       25.5797      17.530441       0.03260
  47    0.1255        8.0492        0.0000       25.5796       25.5796      17.530368       0.03310
  46    0.1487        8.0492        0.0000       25.5795       25.5795      17.530272       0.03487
  45    0.1794        8.0492        0.0000       25.5794       25.5794      17.530137       0.03711
  44    0.2165        8.0492        0.0000       25.5792       25.5792      17.529971       0.03768
  43    0.2613        8.0492        0.0000       25.5790       25.5790      17.529768       0.03825
  42    0.3336        8.0492        0.0000       25.5786       25.5786      17.529422       0.04042
  41    0.4307        8.0492        0.0000       25.5782       25.5782      17.528951       0.04096
  40    0.5894        8.0492        0.0000       25.5774       25.5774      17.528162       0.04197
  39     1.339        8.0492        0.0000       25.5735       25.5736      17.524359       0.04281
  38     1.782        8.0492        0.0001       25.5713       25.5714      17.522145       0.04215
  37     2.292        8.0492        0.0001       25.5688       25.5688      17.519640       0.04150
  36     2.964        8.0492        0.0001       25.5656       25.5657      17.516456       0.03997
  35     3.853        8.0492        0.0001       25.5615       25.5616      17.512409       0.03841
  34     5.035        8.0492        0.0002       25.5562       25.5564      17.507197       0.03723
  33     6.613        8.0492        0.0002       25.5494       25.5496      17.500435       0.03615
  32     8.786        8.0492        0.0003       25.5406       25.5409      17.491670       0.03404
  31     11.80        8.0492        0.0004       25.5287       25.5290      17.479815       0.03319
  30     15.07        8.0492        0.0005       25.5167       25.5171      17.467923       0.03070
  29     18.79        8.0492        0.0006       25.5042       25.5047      17.455487       0.02820
  28     23.16        8.0493        0.0007       25.4907       25.4914      17.442087       0.02591
  27     28.12        8.0493        0.0008       25.4764       25.4773      17.427952       0.02403
  26     33.73        8.0494        0.0010       25.4620       25.4630      17.413618       0.02155
  25     40.54        8.0495        0.0012       25.4463       25.4475      17.397930       0.01946
  24     48.69        8.0497        0.0015       25.4294       25.4308      17.381109       0.01741
  23     57.69        8.0500        0.0017       25.4126       25.4143      17.364389       0.01567
  22     68.43        8.0503        0.0020       25.3944       25.3965      17.346211       0.01429
  21     81.20        8.0507        0.0024       25.3744       25.3768      17.326185       0.01323
  20     96.49        8.0512        0.0029       25.3519       25.3548      17.303658       0.01243
  19     114.6        8.0518        0.0034       25.3262       25.3296      17.277802       0.01207
  18     136.5        8.0526        0.0041       25.2962       25.3003      17.247688       0.01158
  17     162.9        8.0536        0.0048       25.2521       25.2569      17.203377       0.01416
  16     196.4        8.0549        0.0058       25.1593       25.1651      17.110192       0.02346
  15     218.7        8.0559        0.0064       25.0159       25.0224      16.966458       0.05457
  14     243.0        8.0572        0.0071       24.7089       24.7160      16.658838       0.10669
  13     269.0        8.0588        0.0077       24.1619       24.1696      16.110772       0.17779
  12     297.5        8.0611        0.0084       23.4544       23.4627      15.401653       0.21032
  11     328.5        8.0641        0.0090       22.7355       22.7445      14.680363       0.19612
  10     361.9        8.0681        0.0096       21.9224       21.9321      13.863936       0.20656
   9     398.1        8.0736        0.0103       20.9939       21.0042      12.930576       0.21745
   8     437.6        8.0812        0.0108       19.9833       19.9942      11.912927       0.21758
   7     480.5        8.0919        0.0114       18.9483       18.9597      10.867802       0.20526
   6     533.0        8.1101        0.0121       17.7796       17.7916       9.681555       0.19083
   5     589.8        8.1397        0.0127       16.6726       16.6853       8.545573       0.16862
   4     651.6        8.1941        0.0133       15.6343       15.6476       7.453547       0.14934
   3     718.7        8.2942        0.0141       14.7738       14.7879       6.493662       0.12063
   2     792.3        8.4948        0.0149       14.0291       14.0440       5.549208       0.10832
   1     891.5        0.9199        5.1830        0.4803        5.6633       4.743401       0.06857
   0    1013.0        0.9592        4.8337        0.4420        5.2757       4.316538       0.02964



 Wavenumbers:  6150. -  7700. cm-1, ATM      1
 LEVEL PRESSURE   UPWARD FLUX   DIFDOWN FLUX  DIRDOWN FLUX  DOWNWARD FLUX   NET FLUX    HEATING RATE
          mb          W/m2          W/m2          W/m2        W/m2          W/m2       degree/day
  51    .06700       13.0681        0.0000       47.3109       47.3109      34.242785       0.00000
  50    .07753       13.0681        0.0000       47.3108       47.3108      34.242729       0.04553
  49    .09103       13.0681        0.0000       47.3107       47.3107      34.242655       0.04583
  48    0.1069       13.0681        0.0000       47.3106       47.3106      34.242569       0.04614
  47    0.1255       13.0681        0.0000       47.3105       47.3105      34.242466       0.04645
  46    0.1487       13.0681        0.0000       47.3104       47.3104      34.242333       0.04852
  45    0.1794       13.0681        0.0000       47.3102       47.3102      34.242146       0.05127
  44    0.2165       13.0681        0.0000       47.3100       47.3100      34.241919       0.05167
  43    0.2613       13.0681        0.0000       47.3097       47.3097      34.241643       0.05210
  42    0.3336       13.0681        0.0000       47.3092       47.3092      34.241174       0.05471
  41    0.4307       13.0680        0.0000       47.3085       47.3086      34.240539       0.05521
  40    0.5894       13.0680        0.0001       47.3074       47.3075      34.239479       0.05633
  39     1.339       13.0680        0.0002       47.3022       47.3024      34.234387       0.05733
  38     1.782       13.0679        0.0002       47.2991       47.2993      34.231417       0.05655
  37     2.292       13.0679        0.0003       47.2956       47.2959      34.228041       0.05591
  36     2.964       13.0678        0.0004       47.2912       47.2916      34.223723       0.05421
  35     3.853       13.0678        0.0005       47.2855       47.2859      34.218188       0.05252
  34     5.035       13.0677        0.0006       47.2780       47.2787      34.211008       0.05129
  33     6.613       13.0675        0.0008       47.2683       47.2691      34.201620       0.05019
  32     8.786       13.0673        0.0011       47.2556       47.2567      34.189320       0.04777
  31     11.80       13.0671        0.0015       47.2380       47.2395      34.172417       0.04733
  30     15.07       13.0668        0.0019       47.2201       47.2219      34.155129       0.04463
  29     18.79       13.0665        0.0023       47.2008       47.2031      34.136649       0.04190
  28     23.16       13.0661        0.0029       47.1795       47.1824      34.116258       0.03943
  27     28.12       13.0657        0.0035       47.1565       47.1600      34.094264       0.03739
  26     33.73       13.0653        0.0042       47.1324       47.1366      34.071342       0.03446
  25     40.54       13.0647        0.0050       47.1054       47.1104      34.045705       0.03181
  24     48.69       13.0640        0.0060       47.0754       47.0815      34.017450       0.02924
  23     57.69       13.0633        0.0071       47.0449       47.0521      33.988827       0.02683
  22     68.43       13.0624        0.0085       47.0110       47.0195      33.957088       0.02495
  21     81.20       13.0613        0.0100       46.9729       46.9829      33.921591       0.02346
  20     96.49       13.0601        0.0119       46.9294       46.9413      33.881247       0.02227
  19     114.6       13.0586        0.0142       46.8790       46.8932      33.834609       0.02178
  18     136.5       13.0568        0.0168       46.8200       46.8368      33.779979       0.02101
  17     162.9       13.0548        0.0200       46.7361       46.7561      33.701346       0.02513
  16     196.4       13.0522        0.0241       46.5703       46.5943      33.542120       0.04008
  15     218.7       13.0507        0.0267       46.3473       46.3740      33.323323       0.08307
  14     243.0       13.0493        0.0294       45.9299       45.9593      32.910015       0.14335
  13     269.0       13.0484        0.0322       45.1708       45.2030      32.154553       0.24507
  12     297.5       13.0486        0.0349       44.0115       44.0463      30.997704       0.34311
  11     328.5       13.0503        0.0376       42.7242       42.7618      29.711487       0.34972
  10     361.9       13.0543        0.0404       41.3539       41.3943      28.340017       0.34700
   9     398.1       13.0618        0.0431       39.7953       39.8383      26.776568       0.36425
   8     437.6       13.0750        0.0456       37.9948       38.0404      24.965382       0.38724
   7     480.5       13.0966        0.0480       36.0647       36.1127      23.016095       0.38283
   6     533.0       13.1379        0.0505       33.7773       33.8278      20.689919       0.37421
   5     589.8       13.2106        0.0528       31.4082       31.4610      18.250378       0.36211
   4     651.6       13.3518        0.0546       28.8834       28.9380      15.586196       0.36433
   3     718.7       13.6222        0.0562       26.4104       26.4666      12.844381       0.34457
   2     792.3       14.1947        0.0575       24.0056       24.0631       9.868369       0.34132
   1     891.5        1.8369        8.5697        0.7799        9.3497       7.512769       0.20045
   0    1013.0        1.9712        7.6787        0.6837        8.3624       6.391193       0.07788



 Wavenumbers:  7700. -  8050. cm-1, ATM      1
 LEVEL PRESSURE   UPWARD FLUX   DIFDOWN FLUX  DIRDOWN FLUX  DOWNWARD FLUX   NET FLUX    HEATING RATE
          mb          W/m2          W/m2          W/m2        W/m2          W/m2       degree/day
  51    .06700        6.9744        0.0000       11.1810       11.1810       4.206572       0.00000
  50    .07753        6.9744        0.0000       11.1809       11.1809       4.206549       0.01812
  49    .09103        6.9744        0.0000       11.1809       11.1809       4.206521       0.01776
  48    0.1069        6.9744        0.0000       11.1809       11.1809       4.206488       0.01739
  47    0.1255        6.9744        0.0000       11.1809       11.1809       4.206450       0.01702
  46    0.1487        6.9744        0.0000       11.1808       11.1808       4.206403       0.01727
  45    0.1794        6.9744        0.0000       11.1808       11.1808       4.206338       0.01777
  44    0.2165        6.9745        0.0000       11.1807       11.1807       4.206262       0.01743
  43    0.2613        6.9745        0.0000       11.1806       11.1806       4.206171       0.01710
  42    0.3336        6.9745        0.0000       11.1805       11.1805       4.206021       0.01750
  41    0.4307        6.9745        0.0000       11.1803       11.1804       4.205822       0.01731
  40    0.5894        6.9746        0.0000       11.1801       11.1801       4.205497       0.01729
  39     1.339        6.9749        0.0001       11.1788       11.1789       4.203959       0.01732
  38     1.782        6.9751        0.0001       11.1781       11.1782       4.203055       0.01720
  37     2.292        6.9753        0.0001       11.1772       11.1773       4.202009       0.01732
  36     2.964        6.9756        0.0002       11.1761       11.1762       4.200636       0.01724
  35     3.853        6.9760        0.0002       11.1746       11.1748       4.198822       0.01722
  34     5.035        6.9765        0.0003       11.1726       11.1729       4.196412       0.01722
  33     6.613        6.9771        0.0004       11.1700       11.1703       4.193193       0.01721
  32     8.786        6.9780        0.0005       11.1664       11.1669       4.188856       0.01684
  31     11.80        6.9793        0.0007       11.1613       11.1620       4.182655       0.01736
  30     15.07        6.9807        0.0009       11.1558       11.1567       4.176002       0.01718
  29     18.79        6.9823        0.0011       11.1497       11.1508       4.168493       0.01703
  28     23.16        6.9841        0.0013       11.1425       11.1438       4.159732       0.01694
  27     28.12        6.9862        0.0016       11.1343       11.1359       4.149727       0.01701
  26     33.73        6.9886        0.0019       11.1252       11.1271       4.138549       0.01681
  25     40.54        6.9915        0.0023       11.1142       11.1165       4.125071       0.01672
  24     48.69        6.9949        0.0028       11.1010       11.1038       4.108865       0.01677
  23     57.69        6.9988        0.0033       11.0866       11.0899       4.091117       0.01664
  22     68.43        7.0034        0.0039       11.0695       11.0735       4.070053       0.01656
  21     81.20        7.0089        0.0047       11.0494       11.0540       4.045067       0.01651
  20     96.49        7.0156        0.0055       11.0255       11.0311       4.015444       0.01635
  19     114.6        7.0236        0.0065       10.9975       11.0041       3.980484       0.01632
  18     136.5        7.0332        0.0078       10.9648       10.9725       3.939334       0.01582
  17     162.9        7.0448        0.0092       10.9263       10.9355       3.890716       0.01554
  16     196.4        7.0601        0.0111       10.8773       10.8884       3.828247       0.01572
  15     218.7        7.0704        0.0123       10.8455       10.8579       3.787521       0.01546
  14     243.0        7.0817        0.0137       10.8114       10.8251       3.743457       0.01528
  13     269.0        7.0941        0.0151       10.7749       10.7900       3.695855       0.01544
  12     297.5        7.1079        0.0167       10.7357       10.7524       3.644449       0.01525
  11     328.5        7.1232        0.0184       10.6937       10.7121       3.588877       0.01511
  10     361.9        7.1402        0.0202       10.6489       10.6690       3.528857       0.01519
   9     398.1        7.1591        0.0221       10.6008       10.6229       3.463818       0.01515
   8     437.6        7.1803        0.0242       10.5491       10.5733       3.393043       0.01513
   7     480.5        7.2041        0.0265       10.4934       10.5199       3.315858       0.01516
   6     533.0        7.2351        0.0292       10.4243       10.4535       3.218422       0.01567
   5     589.8        7.2713        0.0322       10.3479       10.3801       3.108777       0.01628
   4     651.6        7.3149        0.0354       10.2613       10.2967       2.981888       0.01735
   3     718.7        7.3683        0.0388       10.1618       10.2005       2.832277       0.01880
   2     792.3        7.4363        0.0424       10.0439       10.0862       2.649988       0.02091
   1     891.5        3.1175        5.2119        0.3621        5.5740       2.456472       0.01647
   0    1013.0        3.1838        5.0982        0.3528        5.4511       2.267327       0.01313



 Wavenumbers:  8050. - 12850. cm-1, ATM      1
 LEVEL PRESSURE   UPWARD FLUX   DIFDOWN FLUX  DIRDOWN FLUX  DOWNWARD FLUX   NET FLUX    HEATING RATE
          mb          W/m2          W/m2          W/m2        W/m2          W/m2       degree/day
  51    .06700      102.9557        0.0000      156.5418      156.5418      53.586085       0.00000
  50    .07753      102.9557        0.0000      156.5417      156.5417      53.586085      -0.00000
  49    .09103      102.9556        0.0001      156.5417      156.5417      53.586085       0.00000
  48    0.1069      102.9556        0.0001      156.5416      156.5417      53.586085      -0.00000
  47    0.1255      102.9556        0.0002      156.5415      156.5417      53.586085       0.00000
  46    0.1487      102.9556        0.0002      156.5414      156.5417      53.586085      -0.00000
  45    0.1794      102.9555        0.0003      156.5413      156.5416      53.586085       0.00000
  44    0.2165      102.9555        0.0004      156.5412      156.5416      53.586085      -0.00000
  43    0.2613      102.9555        0.0006      156.5410      156.5415      53.586085      -0.00000
  42    0.3336      102.9554        0.0008      156.5407      156.5415      53.586085       0.00000
  41    0.4307      102.9553        0.0011      156.5403      156.5414      53.586085       0.00000
  40    0.5894      102.9551        0.0015      156.5397      156.5412      53.586085       0.00000
  39     1.339      102.9544        0.0037      156.5367      156.5404      53.586085      -0.00000
  38     1.782      102.9539        0.0050      156.5350      156.5400      53.586085      -0.00000
  37     2.292      102.9534        0.0065      156.5330      156.5395      53.586085      -0.00000
  36     2.964      102.9527        0.0084      156.5303      156.5388      53.586085       0.00000
  35     3.853      102.9518        0.0110      156.5268      156.5379      53.586085       0.00000
  34     5.035      102.9506        0.0144      156.5222      156.5366      53.586085      -0.00000
  33     6.613      102.9489        0.0190      156.5160      156.5350      53.586085       0.00000
  32     8.786      102.9467        0.0252      156.5076      156.5328      53.586085       0.00000
  31     11.80      102.9436        0.0340      156.4957      156.5297      53.586085      -0.00000
  30     15.07      102.9402        0.0435      156.4828      156.5263      53.586085       0.00000
  29     18.79      102.9364        0.0543      156.4682      156.5225      53.586085      -0.00000
  28     23.16      102.9320        0.0669      156.4512      156.5181      53.586085      -0.00000
  27     28.12      102.9269        0.0813      156.4317      156.5130      53.586085      -0.00000
  26     33.73      102.9212        0.0974      156.4099      156.5073      53.586085       0.00000
  25     40.54      102.9143        0.1169      156.3834      156.5003      53.586085       0.00000
  24     48.69      102.9059        0.1405      156.3515      156.4920      53.586085      -0.00000
  23     57.69      102.8967        0.1664      156.3164      156.4828      53.586085      -0.00000
  22     68.43      102.8858        0.1973      156.2746      156.4719      53.586085       0.00000
  21     81.20      102.8727        0.2342      156.2246      156.4588      53.586085      -0.00000
  20     96.49      102.8571        0.2782      156.1649      156.4432      53.586085       0.00000
  19     114.6      102.8387        0.3306      156.0879      156.4186      53.579831       0.00292
  18     136.5      102.8169        0.3928      155.9962      156.3890      53.572074       0.00298
  17     162.9      102.7909        0.4671      155.8831      156.3502      53.559211       0.00411
  16     196.4      102.7573        0.5637      155.7199      156.2836      53.526281       0.00829
  15     218.7      102.7356        0.6272      155.5733      156.2005      53.464900       0.02330
  14     243.0      102.7129        0.6962      155.3367      156.0329      53.319992       0.05026
  13     269.0      102.6906        0.7709      154.9514      155.7223      53.031694       0.09352
  12     297.5      102.6710        0.8513      154.3896      155.2409      52.569909       0.13696
  11     328.5      102.6555        0.9380      153.7151      154.6531      51.997580       0.15561
  10     361.9      102.6472        1.0310      152.9087      153.9398      51.292546       0.17838
   9     398.1      102.6513        1.1306      151.8986      153.0292      50.377865       0.21310
   8     437.6      102.6767        1.2365      150.6031      151.8397      49.162986       0.25975
   7     480.5      102.7340        1.3485      149.0014      150.3499      47.615938       0.30383
   6     533.0      102.8617        1.4841      146.7375      148.2216      45.359863       0.36293
   5     589.8      103.1059        1.6261      143.8730      145.4991      42.393198       0.44035
   4     651.6      103.5966        1.7719      140.0955      141.8674      38.270763       0.56375
   3     718.7      104.5245        1.9199      135.5278      137.4477      32.923176       0.67204
   2     792.3      106.3643        2.0664      130.0690      132.1354      25.771088       0.82026
   1     891.5       65.2413       78.9813        4.4860       83.4673      18.225990       0.64205
   0    1013.0       67.7542       75.1083        4.1489       79.2573      11.503016       0.46681



 Wavenumbers: 12850. - 16000. cm-1, ATM      1
 LEVEL PRESSURE   UPWARD FLUX   DIFDOWN FLUX  DIRDOWN FLUX  DOWNWARD FLUX   NET FLUX    HEATING RATE
          mb          W/m2          W/m2          W/m2        W/m2          W/m2       degree/day
  51    .06700       80.9854        0.0000       98.0872       98.0872      17.101848       0.00000
  50    .07753       80.9854        0.0001       98.0864       98.0864      17.101056       0.63517
  49    .09103       80.9854        0.0002       98.0853       98.0855      17.100060       0.62218
  48    0.1069       80.9854        0.0003       98.0841       98.0843      17.098916       0.60896
  47    0.1255       80.9854        0.0004       98.0826       98.0830      17.097602       0.59605
  46    0.1487       80.9854        0.0005       98.0809       98.0814      17.095942       0.60503
  45    0.1794       80.9855        0.0007       98.0784       98.0792      17.093683       0.62008
  44    0.2165       80.9856        0.0010       98.0756       98.0766      17.091025       0.60465
  43    0.2613       80.9857        0.0013       98.0723       98.0736      17.087898       0.58948
  42    0.3336       80.9860        0.0017       98.0670       98.0688      17.082791       0.59543
  41    0.4307       80.9864        0.0024       98.0602       98.0626      17.076182       0.57459
  40    0.5894       80.9872        0.0034       98.0496       98.0530      17.065759       0.55430
  39     1.339       80.9942        0.0082       98.0043       98.0126      17.018371       0.53351
  38     1.782       81.0006        0.0111       97.9793       97.9904      16.989819       0.54358
  37     2.292       81.0100        0.0144       97.9498       97.9642      16.954188       0.59014
  36     2.964       81.0255        0.0187       97.9088       97.9275      16.901993       0.65520
  35     3.853       81.0506        0.0244       97.8503       97.8748      16.824186       0.73841
  34     5.035       81.0883        0.0320       97.7680       97.8000      16.711737       0.80329
  33     6.613       81.1408        0.0421       97.6562       97.6983      16.557466       0.82473
  32     8.786       81.2093        0.0558       97.5107       97.5664      16.357086       0.77821
  31     11.80       81.2986        0.0752       97.3179       97.3931      16.094514       0.73512
  30     15.07       81.3842        0.0961       97.1283       97.2245      15.840267       0.65642
  29     18.79       81.4717        0.1197       96.9300       97.0497      15.578008       0.59462
  28     23.16       81.5634        0.1473       96.7166       96.8638      15.300417       0.53677
  27     28.12       81.6559        0.1787       96.4935       96.6722      15.016331       0.48293
  26     33.73       81.7417        0.2139       96.2731       96.4870      14.745346       0.40743
  25     40.54       81.8249        0.2565       96.0408       96.2973      14.472385       0.33864
  24     48.69       81.9053        0.3078       95.7946       96.1024      14.197066       0.28491
  23     57.69       81.9744        0.3642       95.5573       95.9214      13.947046       0.23436
  22     68.43       82.0358        0.4313       95.3106       95.7419      13.706100       0.18942
  21     81.20       82.0805        0.5115       95.0643       95.5758      13.495303       0.13929
  20     96.49       82.1074        0.6071       94.8153       95.4224      13.315000       0.09951
  19     114.6       82.1389        0.7218       94.5411       95.2628      13.123917       0.08922
  18     136.5       82.1647        0.8577       94.2320       95.0897      12.925014       0.07648
  17     162.9       82.1849        1.0195       93.8753       94.8949      12.709960       0.06874
  16     196.4       82.1886        1.2295       93.4347       94.6641      12.475512       0.05901
  15     218.7       82.1831        1.3674       93.1513       94.5186      12.335508       0.05315
  14     243.0       82.1739        1.5172       92.8439       94.3612      12.187257       0.05142
  13     269.0       82.1610        1.6796       92.5111       94.1907      12.029745       0.05110
  12     297.5       82.1451        1.8551       92.1495       94.0046      11.859466       0.05050
  11     328.5       82.1285        2.0448       91.7554       93.8002      11.671630       0.05107
  10     361.9       82.1123        2.2490       91.3262       93.5752      11.462854       0.05282
   9     398.1       82.0982        2.4687       90.8575       93.3262      11.227986       0.05472
   8     437.6       82.0897        2.7045       90.3418       93.0463      10.956608       0.05802
   7     480.5       82.0903        2.9572       89.7728       92.7300      10.639735       0.06223
   6     533.0       82.1095        3.2678       89.0428       92.3107      10.201199       0.07055
   5     589.8       82.1646        3.6017       88.2038       91.8056       9.640988       0.08315
   4     651.6       82.2937        3.9585       87.1979       91.1565       8.862817       0.10642
   3     718.7       82.5256        4.3366       86.0161       90.3528       7.827154       0.13015
   2     792.3       82.9477        4.7323       84.5970       89.3293       6.381654       0.16578
   1     891.5       64.7057       66.2221        3.0281       69.2502       4.544498       0.15633
   0    1013.0       65.7103       65.0828        2.9246       68.0074       2.297042       0.15605



 Wavenumbers: 16000. - 22650. cm-1, ATM      1
 LEVEL PRESSURE   UPWARD FLUX   DIFDOWN FLUX  DIRDOWN FLUX  DOWNWARD FLUX   NET FLUX    HEATING RATE
          mb          W/m2          W/m2          W/m2        W/m2          W/m2       degree/day
  51    .06700      140.7393        0.0000      156.3892      156.3892      15.649948       0.00000
  50    .07753      140.7393        0.0004      156.3887      156.3891      15.649801       0.11820
  49    .09103      140.7393        0.0009      156.3879      156.3888      15.649586       0.13406
  48    0.1069      140.7392        0.0015      156.3871      156.3885      15.649299       0.15288
  47    0.1255      140.7393        0.0021      156.3861      156.3882      15.648914       0.17426
  46    0.1487      140.7393        0.0030      156.3847      156.3877      15.648348       0.20649
  45    0.1794      140.7394        0.0041      156.3828      156.3869      15.647462       0.24313
  44    0.2165      140.7397        0.0054      156.3805      156.3859      15.646261       0.27325
  43    0.2613      140.7400        0.0070      156.3776      156.3846      15.644631       0.30720
  42    0.3336      140.7408        0.0096      156.3726      156.3823      15.641533       0.36126
  41    0.4307      140.7420        0.0131      156.3657      156.3789      15.636862       0.40610
  40    0.5894      140.7446        0.0188      156.3537      156.3725      15.627955       0.47370
  39     1.339      140.7671        0.0458      156.2834      156.3292      15.562144       0.74091
  38     1.782      140.7879        0.0616      156.2324      156.2940      15.506081       1.06734
  37     2.292      140.8191        0.0800      156.1641      156.2441      15.424930       1.34408
  36     2.964      140.8711        0.1040      156.0605      156.1645      15.293464       1.65029
  35     3.853      140.9550        0.1358      155.9041      156.0399      15.084860       1.97969
  34     5.035      141.0817        0.1779      155.6774      155.8553      14.773641       2.22323
  33     6.613      141.2586        0.2342      155.3656      155.5998      14.341137       2.31217
  32     8.786      141.4892        0.3099      154.9577      155.2675      13.778354       2.18565
  31     11.80      141.7892        0.4180      154.4153      154.8332      13.044072       2.05576
  30     15.07      142.0765        0.5339      153.8804      154.4143      12.337721       1.82366
  29     18.79      142.3699        0.6646      153.3191      153.9837      11.613782       1.64139
  28     23.16      142.6765        0.8171      152.7126      153.5297      10.853114       1.47089
  27     28.12      142.9850        0.9912      152.0755      153.0667      10.081675       1.31139
  26     33.73      143.2697        1.1858      151.4409      152.6268       9.357069       1.08947
  25     40.54      143.5436        1.4208      150.7637      152.1845       8.640902       0.88849
  24     48.69      143.8057        1.7038      150.0338      151.7376       7.931892       0.73371
  23     57.69      144.0278        2.0142      149.3151      151.3294       7.301516       0.59088
  22     68.43      144.2214        2.3836      148.5476      150.9312       6.709764       0.46520
  21     81.20      144.3547        2.8233      147.7517      150.5750       6.220250       0.32346
  20     96.49      144.4233        3.3468      146.9127      150.2594       5.836109       0.21202
  19     114.6      144.4584        3.9665      145.9763      149.9428       5.484432       0.16421
  18     136.5      144.4686        4.6983      144.9088      149.6071       5.138477       0.13303
  17     162.9      144.4523        5.5657      143.6785      149.2442       4.791932       0.11077
  16     196.4      144.3696        6.6848      142.1651      148.8498       4.480252       0.07845
  15     218.7      144.2927        7.4161      141.2033      148.6194       4.326703       0.05830
  14     243.0      144.1989        8.2076      140.1753      148.3830       4.184083       0.04947
  13     269.0      144.0864        9.0615      139.0797      148.1412       4.054800       0.04194
  12     297.5      143.9547        9.9799      137.9141      147.8940       3.939221       0.03428
  11     328.5      143.8078       10.9670      136.6676      147.6346       3.826712       0.03059
  10     361.9      143.6455       12.0237      135.3392      147.3629       3.717401       0.02766
   9     398.1      143.4672       13.1541      133.9235      147.0776       3.610381       0.02493
   8     437.6      143.2740       14.3602      132.4163      146.7764       3.502483       0.02307
   7     480.5      143.0654       15.6441      130.8147      146.4588       3.393386       0.02143
   6     533.0      142.8090       17.2123      128.8599      146.0722       3.263182       0.02095
   5     589.8      142.5370       18.8878      126.7679      145.6557       3.118781       0.02143
   4     651.6      142.2559       20.6722      124.5274      145.1997       2.943800       0.02393
   3     718.7      141.9724       22.5674      122.1285      144.6959       2.723476       0.02769
   2     792.3      141.7040       24.5711      119.5548      144.1259       2.421934       0.03458
   1     891.5      121.0629      118.7689        4.2615      123.0304       1.967499       0.03867
   0    1013.0      121.3311      118.5540        4.1067      122.6607       1.329609       0.04429



 Wavenumbers: 22650. - 29000. cm-1, ATM      1
 LEVEL PRESSURE   UPWARD FLUX   DIFDOWN FLUX  DIRDOWN FLUX  DOWNWARD FLUX   NET FLUX    HEATING RATE
          mb          W/m2          W/m2          W/m2        W/m2          W/m2       degree/day
  51    .06700       58.6813        0.0000       59.0156       59.0156       0.334276       0.00000
  50    .07753       58.6812        0.0005       59.0151       59.0155       0.334276      -0.00000
  49    .09103       58.6811        0.0010       59.0144       59.0154       0.334276      -0.00000
  48    0.1069       58.6810        0.0017       59.0136       59.0153       0.334276       0.00000
  47    0.1255       58.6809        0.0025       59.0127       59.0151       0.334276      -0.00000
  46    0.1487       58.6807        0.0035       59.0115       59.0149       0.334276       0.00000
  45    0.1794       58.6804        0.0048       59.0099       59.0147       0.334276      -0.00000
  44    0.2165       58.6801        0.0063       59.0080       59.0144       0.334276      -0.00000
  43    0.2613       58.6798        0.0082       59.0058       59.0140       0.334276       0.00000
  42    0.3336       58.6792        0.0113       59.0022       59.0134       0.334276       0.00000
  41    0.4307       58.6784        0.0154       58.9973       59.0127       0.334276       0.00000
  40    0.5894       58.6771        0.0220       58.9894       59.0114       0.334276      -0.00000
  39     1.339       58.6710        0.0535       58.9518       59.0053       0.334276       0.00000
  38     1.782       58.6675        0.0720       58.9297       59.0017       0.334276      -0.00000
  37     2.292       58.6633        0.0934       58.9042       58.9976       0.334276       0.00000
  36     2.964       58.6579        0.1216       58.8706       58.9922       0.334276      -0.00000
  35     3.853       58.6508        0.1587       58.8264       58.9851       0.334276       0.00000
  34     5.035       58.6413        0.2080       58.7676       58.9756       0.334276      -0.00000
  33     6.613       58.6286        0.2738       58.6891       58.9629       0.334276       0.00000
  32     8.786       58.6116        0.3624       58.5834       58.9458       0.334276      -0.00000
  31     11.80       58.5872        0.4890       58.4324       58.9215       0.334276       0.00000
  30     15.07       58.5611        0.6247       58.2706       58.8953       0.334276      -0.00000
  29     18.79       58.5316        0.7776       58.0882       58.8659       0.334276       0.00000
  28     23.16       58.4973        0.9559       57.8757       58.8316       0.334276       0.00000
  27     28.12       58.4582        1.1591       57.6333       58.7924       0.334276       0.00000
  26     33.73       58.4145        1.3857       57.3631       58.7488       0.334276      -0.00000
  25     40.54       58.3620        1.6584       57.0379       58.6963       0.334276       0.00000
  24     48.69       58.2990        1.9854       56.6479       58.6333       0.334276      -0.00000
  23     57.69       58.2302        2.3424       56.2221       58.5645       0.334276       0.00000
  22     68.43       58.1489        2.7646       55.7186       58.4831       0.334276      -0.00000
  21     81.20       58.0528        3.2632       55.1239       58.3871       0.334276       0.00000
  20     96.49       57.9395        3.8510       54.4228       58.2738       0.334276       0.00000
  19     114.6       57.8067        4.5400       53.6010       58.1409       0.334276       0.00000
  18     136.5       57.6516        5.3441       52.6418       57.9859       0.334276       0.00000
  17     162.9       57.4702        6.2842       51.5203       57.8045       0.334276       0.00000
  16     196.4       57.2404        7.4752       50.0994       57.5746       0.334276       0.00000
  15     218.7       57.0926        8.2406       49.1863       57.4269       0.334276       0.00000
  14     243.0       56.9347        9.0578       48.2113       57.2690       0.334276       0.00000
  13     269.0       56.7669        9.9263       47.1749       57.1012       0.334276      -0.00000
  12     297.5       56.5893       10.8453       46.0783       56.9235       0.334276       0.00000
  11     328.5       56.4015       11.8162       44.9195       56.7357       0.334276       0.00000
  10     361.9       56.2040       12.8365       43.7018       56.5383       0.334276      -0.00000
   9     398.1       55.9969       13.9062       42.4250       56.3312       0.334276       0.00000
   8     437.6       55.7805       15.0231       41.0916       56.1147       0.334276       0.00000
   7     480.5       55.5552       16.1850       39.7045       55.8894       0.334276       0.00000
   6     533.0       55.2869       17.5670       38.0543       55.6212       0.334276      -0.00000
   5     589.8       55.0085       18.9998       36.3431       55.3428       0.334276       0.00000
   4     651.6       54.7213       20.4761       34.5795       55.0556       0.334276      -0.00000
   3     718.7       54.4263       21.9904       32.7702       54.7606       0.334276      -0.00000
   2     792.3       54.1251       23.5338       30.9256       54.4594       0.334276       0.00000
   1     891.5       48.9745       48.2585        1.0500       49.3085       0.333970       0.00003
   0    1013.0       48.9476       48.3275        0.9540       49.2815       0.333970       0.00000



 Wavenumbers: 29000. - 38000. cm-1, ATM      1
 LEVEL PRESSURE   UPWARD FLUX   DIFDOWN FLUX  DIRDOWN FLUX  DOWNWARD FLUX   NET FLUX    HEATING RATE
          mb          W/m2          W/m2          W/m2        W/m2          W/m2       degree/day
  51    .06700        8.7704        0.0000       20.8114       20.8114      12.040992       0.00000
  50    .07753        8.7702        0.0003       20.8070       20.8074      12.037184       3.05156
  49    .09103        8.7700        0.0007       20.8009       20.8016      12.031647       3.46086
  48    0.1069        8.7697        0.0012       20.7928       20.7939      12.024238       3.94430
  47    0.1255        8.7694        0.0017       20.7820       20.7837      12.014333       4.49035
  46    0.1487        8.7691        0.0024       20.7665       20.7688      11.999769       5.30845
  45    0.1794        8.7686        0.0033       20.7424       20.7457      11.977105       6.22206
  44    0.2165        8.7681        0.0044       20.7103       20.7147      11.946582       6.94342
  43    0.2613        8.7675        0.0056       20.6675       20.6731      11.905587       7.72735
  42    0.3336        8.7666        0.0077       20.5880       20.5957      11.829026       8.92628
  41    0.4307        8.7655        0.0104       20.4722       20.4826      11.717073       9.73406
  40    0.5894        8.7640        0.0147       20.2637       20.2784      11.514388      10.77850
  39     1.339        8.7606        0.0331       19.0984       19.1315      10.370905      12.87354
  38     1.782        8.7611        0.0427       18.4394       18.4821       9.720976      12.37360
  37     2.292        8.7638        0.0530       17.7714       17.8244       9.060624      10.93715
  36     2.964        8.7704        0.0657       17.0421       17.1078       8.337489       9.07753
  35     3.853        8.7832        0.0816       16.2678       16.3495       7.566292       7.31880
  34     5.035        8.8044        0.1018       15.4803       15.5821       6.777771       5.63287
  33     6.613        8.8351        0.1276       14.7157       14.8433       6.008150       4.11439
  32     8.786        8.8758        0.1614       13.9936       14.1550       5.279152       2.83117
  31     11.80        8.9289        0.2085       13.2835       13.4920       4.563121       2.00466
  30     15.07        8.9801        0.2573       12.7394       12.9966       4.016578       1.41107
  29     18.79        9.0330        0.3114       12.2666       12.5780       3.545055       1.06909
  28     23.16        9.0891        0.3730       11.8300       12.2030       3.113828       0.83385
  27     28.12        9.1467        0.4419       11.4279       11.8697       2.723038       0.66432
  26     33.73        9.1999        0.5178       11.0695       11.5873       2.387431       0.50459
  25     40.54        9.2503        0.6086       10.7209       11.3295       2.079155       0.38245
  24     48.69        9.2980        0.7163       10.3742       11.0905       1.792480       0.29666
  23     57.69        9.3372        0.8329       10.0549       10.8878       1.550604       0.22672
  22     68.43        9.3689        0.9696        9.7327       10.7024       1.333447       0.17071
  21     81.20        9.3842        1.1311        9.4134       10.5445       1.160274       0.11443
  20     96.49        9.3812        1.3209        9.0887       10.4097       1.028439       0.07276
  19     114.6        9.3680        1.5403        8.7388       10.2790       0.911081       0.05480
  18     136.5        9.3474        1.7910        8.3549       10.1459       0.798464       0.04330
  17     162.9        9.3198        2.0769        7.9311       10.0080       0.688189       0.03525
  16     196.4        9.2732        2.4310        7.4333        9.8643       0.591115       0.02443
  15     218.7        9.2395        2.6537        7.1295        9.7833       0.543766       0.01798
  14     243.0        9.2026        2.8866        6.8161        9.7027       0.500040       0.01517
  13     269.0        9.1623        3.1288        6.4943        9.6231       0.460775       0.01274
  12     297.5        9.1186        3.3791        6.1657        9.5448       0.426158       0.01027
  11     328.5        9.0731        3.6366        5.8295        9.4661       0.393013       0.00901
  10     361.9        9.0260        3.8989        5.4886        9.3875       0.361488       0.00798
   9     398.1        8.9777        4.1653        5.1440        9.3093       0.331609       0.00696
   8     437.6        8.9285        4.4344        4.7969        9.2313       0.302802       0.00616
   7     480.5        8.8789        4.7040        4.4504        9.1543       0.275454       0.00537
   6     533.0        8.8220        5.0114        4.0563        9.0677       0.245639       0.00480
   5     589.8        8.7660        5.3146        3.6682        8.9828       0.216765       0.00429
   4     651.6        8.7119        5.6099        3.2905        8.9004       0.188512       0.00386
   3     718.7        8.6600        5.8956        2.9252        8.8208       0.160834       0.00348
   2     792.3        8.6112        6.1685        2.5764        8.7449       0.133737       0.00311
   1     891.5        8.0890        8.1115        0.0795        8.1910       0.101974       0.00270
   0    1013.0        8.0973        8.1006        0.0644        8.1650       0.067679       0.00238



 Wavenumbers: 38000. - 50000. cm-1, ATM      1
 LEVEL PRESSURE   UPWARD FLUX   DIFDOWN FLUX  DIRDOWN FLUX  DOWNWARD FLUX   NET FLUX    HEATING RATE
          mb          W/m2          W/m2          W/m2        W/m2          W/m2       degree/day
  51    .06700        0.0061        0.0000        1.2836        1.2836       1.277518       0.00000
  50    .07753        0.0061        0.0001        1.2812        1.2812       1.275183       1.87150
  49    .09103        0.0060        0.0002        1.2777        1.2778       1.271851       2.08247
  48    0.1069        0.0059        0.0002        1.2731        1.2734       1.267473       2.33059
  47    0.1255        0.0058        0.0004        1.2672        1.2675       1.261717       2.60908
  46    0.1487        0.0057        0.0005        1.2586        1.2591       1.253391       3.03499
  45    0.1794        0.0055        0.0007        1.2455        1.2462       1.240623       3.50520
  44    0.2165        0.0054        0.0009        1.2282        1.2291       1.223697       3.85037
  43    0.2613        0.0052        0.0011        1.2054        1.2065       1.201348       4.21261
  42    0.3336        0.0049        0.0015        1.1639        1.1654       1.160524       4.75970
  41    0.4307        0.0045        0.0020        1.1051        1.1070       1.102565       5.03943
  40    0.5894        0.0039        0.0026        1.0039        1.0064       1.002524       5.32007
  39     1.339        0.0022        0.0035        0.5438        0.5473       0.545104       5.14971
  38     1.782        0.0016        0.0032        0.3635        0.3666       0.365006       3.42879
  37     2.292        0.0012        0.0027        0.2356        0.2383       0.237058       2.11916
  36     2.964        0.0009        0.0022        0.1455        0.1477       0.146786       1.13318
  35     3.853        0.0006        0.0017        0.0858        0.0875       0.086906       0.56828
  34     5.035        0.0004        0.0013        0.0488        0.0501       0.049701       0.26578
  33     6.613        0.0003        0.0010        0.0273        0.0282       0.027974       0.11615
  32     8.786        0.0002        0.0007        0.0144        0.0151       0.014928       0.05067
  31     11.80        0.0001        0.0004        0.0065        0.0070       0.006903       0.02247
  30     15.07        0.0000        0.0003        0.0031        0.0034       0.003329       0.00923
  29     18.79        0.0000        0.0002        0.0014        0.0016       0.001583       0.00396
  28     23.16        0.0000        0.0001        0.0006        0.0007       0.000720       0.00167
  27     28.12        0.0000        0.0001        0.0003        0.0003       0.000317       0.00069
  26     33.73        0.0000        0.0000        0.0001        0.0001       0.000140       0.00027
  25     40.54        0.0000        0.0000        0.0000        0.0001       0.000057       0.00010
  24     48.69        0.0000        0.0000        0.0000        0.0000       0.000021       0.00004
  23     57.69        0.0000        0.0000        0.0000        0.0000       0.000008       0.00001
  22     68.43        0.0000        0.0000        0.0000        0.0000       0.000003       0.00000
  21     81.20        0.0000        0.0000        0.0000        0.0000       0.000001       0.00000
  20     96.49        0.0000        0.0000        0.0000        0.0000       0.000000       0.00000
  19     114.6        0.0000        0.0000        0.0000        0.0000       0.000000       0.00000
  18     136.5        0.0000        0.0000        0.0000        0.0000       0.000000       0.00000
  17     162.9        0.0000        0.0000        0.0000        0.0000       0.000000       0.00000
  16     196.4        0.0000        0.0000        0.0000        0.0000       0.000000       0.00000
  15     218.7        0.0000        0.0000        0.0000        0.0000       0.000000       0.00000
  14     243.0        0.0000        0.0000        0.0000        0.0000       0.000000       0.00000
  13     269.0        0.0000        0.0000        0.0000        0.0000       0.000000       0.00000
  12     297.5        0.0000        0.0000        0.0000        0.0000       0.000000       0.00000
  11     328.5        0.0000        0.0000        0.0000        0.0000       0.000000       0.00000
  10     361.9        0.0000        0.0000        0.0000        0.0000       0.000000       0.00000
   9     398.1        0.0000        0.0000        0.0000        0.0000       0.000000       0.00000
   8     437.6        0.0000        0.0000        0.0000        0.0000       0.000000       0.00000
   7     480.5        0.0000        0.0000        0.0000        0.0000       0.000000       0.00000
   6     533.0        0.0000        0.0000        0.0000        0.0000       0.000000       0.00000
   5     589.8        0.0000        0.0000        0.0000        0.0000       0.000000       0.00000
   4     651.6        0.0000        0.0000        0.0000        0.0000       0.000000       0.00000
   3     718.7        0.0000        0.0000        0.0000        0.0000       0.000000       0.00000
   2     792.3        0.0000        0.0000        0.0000        0.0000       0.000000       0.00000
   1     891.5        0.0000        0.0000        0.0000        0.0000       0.000000       0.00000
   0    1013.0        0.0000        0.0000        0.0000        0.0000       0.000000       0.00000



 Wavenumbers:   820. -  2600. cm-1, ATM      1
 LEVEL PRESSURE   UPWARD FLUX   DIFDOWN FLUX  DIRDOWN FLUX  DOWNWARD FLUX   NET FLUX    HEATING RATE
          mb          W/m2          W/m2          W/m2        W/m2          W/m2       degree/day
  51    .06700        1.0778        0.0000        6.0047        6.0047       4.926832       0.00000
  50    .07753        1.0778        0.0000        6.0008        6.0008       4.922980       3.08823
  49    .09103        1.0778        0.0000        5.9999        5.9999       4.922094       0.55360
  48    0.1069        1.0778        0.0000        5.9989        5.9989       4.921105       0.52654
  47    0.1255        1.0778        0.0000        5.9978        5.9978       4.919987       0.50652
  46    0.1487        1.0778        0.0000        5.9964        5.9964       4.918630       0.49459
  45    0.1794        1.0778        0.0000        5.9947        5.9947       4.916911       0.47202
  44    0.2165        1.0778        0.0000        5.9929        5.9929       4.915069       0.41913
  43    0.2613        1.0778        0.0000        5.9909        5.9909       4.913109       0.36935
  42    0.3336        1.0778        0.0000        5.9880        5.9880       4.910231       0.33559
  41    0.4307        1.0778        0.0000        5.9846        5.9846       4.906761       0.30167
  40    0.5894        1.0778        0.0000        5.9791        5.9791       4.901255       0.29279
  39     1.339        1.0778        0.0000        5.9536        5.9536       4.875766       0.28697
  38     1.782        1.0778        0.0000        5.9395        5.9395       4.861626       0.26920
  37     2.292        1.0778        0.0000        5.9237        5.9237       4.845873       0.26091
  36     2.964        1.0778        0.0000        5.9039        5.9039       4.826096       0.24825
  35     3.853        1.0778        0.0000        5.8793        5.8793       4.801437       0.23402
  34     5.035        1.0779        0.0000        5.8487        5.8487       4.770870       0.21836
  33     6.613        1.0779        0.0000        5.8108        5.8108       4.732900       0.20299
  32     8.786        1.0779        0.0000        5.7631        5.7631       4.685268       0.18498
  31     11.80        1.0779        0.0000        5.7039        5.7039       4.626000       0.16593
  30     15.07        1.0779        0.0000        5.6539        5.6539       4.575948       0.12922
  29     18.79        1.0779        0.0000        5.6127        5.6127       4.534797       0.09330
  28     23.16        1.0780        0.0000        5.5794        5.5794       4.501402       0.06458
  27     28.12        1.0780        0.0000        5.5518        5.5518       4.473813       0.04690
  26     33.73        1.0780        0.0000        5.5268        5.5268       4.448733       0.03771
  25     40.54        1.0781        0.0000        5.4993        5.4993       4.421255       0.03409
  24     48.69        1.0781        0.0000        5.4678        5.4678       4.389672       0.03268
  23     57.69        1.0782        0.0000        5.4340        5.4340       4.355835       0.03172
  22     68.43        1.0783        0.0000        5.3947        5.3948       4.316501       0.03092
  21     81.20        1.0783        0.0000        5.3497        5.3497       4.271393       0.02981
  20     96.49        1.0784        0.0000        5.2982        5.2982       4.219786       0.02848
  19     114.6        1.0786        0.0000        5.2389        5.2389       4.160348       0.02775
  18     136.5        1.0787        0.0000        5.1716        5.1717       4.092944       0.02592
  17     162.9        1.0789        0.0000        5.0890        5.0891       4.010103       0.02648
  16     196.4        1.0793        0.0000        4.9668        4.9668       3.887498       0.03086
  15     218.7        1.0797        0.0000        4.8585        4.8585       3.778760       0.04128
  14     243.0        1.0803        0.0000        4.7078        4.7079       3.627536       0.05245
  13     269.0        1.0812        0.0000        4.5343        4.5343       3.453054       0.05660
  12     297.5        1.0827        0.0000        4.3419        4.3420       3.259291       0.05747
  11     328.5        1.0846        0.0000        4.1281        4.1281       3.043531       0.05866
  10     361.9        1.0872        0.0000        3.8786        3.8787       2.791490       0.06377
   9     398.1        1.0905        0.0000        3.6159        3.6160       2.525433       0.06199
   8     437.6        1.0948        0.0000        3.3759        3.3759       2.281057       0.05225
   7     480.5        1.1001        0.0000        3.1957        3.1958       2.095669       0.03641
   6     533.0        1.1081        0.0000        3.0467        3.0467       1.938571       0.02527
   5     589.8        1.1200        0.0000        2.9023        2.9023       1.782367       0.02319
   4     651.6        1.1405        0.0000        2.7183        2.7184       1.577899       0.02796
   3     718.7        1.1759        0.0001        2.5058        2.5059       1.329956       0.03116
   2     792.3        1.2440        0.0001        2.2756        2.2757       1.031726       0.03420
   1     891.5        0.0042        0.6988        0.0721        0.7709       0.766705       0.02255
   0    1013.0        0.0051        0.5635        0.0568        0.6203       0.615243       0.01052

  Modules and versions used in this calculation:

       rrtmg_sw.1col.f90:  $Revision$                    rrtmg_sw_init.f90:  $Revision$        
     rrtmgsw_cldprop.f90:  $Revision$                  rrtmgsw_cldprmc.f90:  NOT USED          
     rrtmg_sw_reftra.f90:  $Revision$                  rrtmg_sw_spcvrt.f90:  NOT USED          
     rrtmg_sw_spcvmc.f90:  NOT USED                    rrtmgsw_setcoef.f90:  NOT USED          
     rrtmg_sw_taumol.f90:  $Revision$                  rrtmg_sw_vrtqdr.f90:  NOT USED          
                rrtatm.f:  NOT USED                             util_xxx.f:  NOT USED          
                 extra.f:  NOT USED                       rrtmg_sw_k_g.f90:  $Revision$        

