

 Wavenumbers:   820. - 50000. cm-1, ATM      1
 LEVEL PRESSURE   UPWARD FLUX   DIFDOWN FLUX  DIRDOWN FLUX  DOWNWARD FLUX   NET FLUX    HEATING RATE
          mb          W/m2          W/m2          W/m2        W/m2          W/m2       degree/day
  51    .06700      475.8054        0.0000      617.8126      617.8126     142.007214       0.00000
  50    .07753      475.8050        0.0014      617.7947      617.7961     141.991068      12.94120
  49    .09103      475.8046        0.0031      617.7778      617.7808     141.976250       9.26150
  48    0.1069      475.8041        0.0050      617.7581      617.7631     141.958978       9.19378
  47    0.1255      475.8036        0.0073      617.7340      617.7412     141.937621       9.68256
  46    0.1487      475.8031        0.0101      617.7009      617.7110     141.907917      10.82743
  45    0.1794      475.8024        0.0140      617.6521      617.6661     141.863658      12.15005
  44    0.2165      475.8017        0.0185      617.5895      617.6080     141.806300      13.04789
  43    0.2613      475.8011        0.0239      617.5089      617.5328     141.731739      14.05441
  42    0.3336      475.8003        0.0328      617.3641      617.3969     141.596565      15.76000
  41    0.4307      475.7998        0.0445      617.1591      617.2036     141.403810      16.75964
  40    0.5894      475.8000        0.0634      616.8005      616.8638     141.063872      18.07744
  39     1.339      475.8194        0.1487      614.9443      615.0930     139.273533      20.15597
  38     1.782      475.8439        0.1967      613.9670      614.1638     138.319847      18.15664
  37     2.292      475.8841        0.2514      613.0059      613.2573     137.373200      15.67894
  36     2.964      475.9546        0.3225      611.9577      612.2801     136.325463      13.15227
  35     3.853      476.0727        0.4156      610.8024      611.2180     135.145310      11.19986
  34     5.035      476.2540        0.5386      609.5327      610.0713     133.817275       9.48694
  33     6.613      476.5092        0.7018      608.1464      608.8482     132.338997       7.90288
  32     8.786      476.8418        0.9208      606.6250      607.5458     130.704022       6.34965
  31     11.80      477.2728        1.2325      604.8486      606.0812     128.808367       5.30724
  30     15.07      477.6836        1.5653      603.2440      604.8092     127.125608       4.34456
  29     18.79      478.1012        1.9397      601.6511      603.5908     125.489618       3.70929
  28     23.16      478.5353        2.3747      599.9927      602.3674     123.832065       3.20517
  27     28.12      478.9691        2.8699      598.2881      601.1579     122.188846       2.79336
  26     33.73      479.3628        3.4219      596.5951      600.0170     120.654243       2.30732
  25     40.54      479.7316        4.0867      594.7727      598.8594     119.127713       1.89383
  24     48.69      480.0729        4.8843      592.7865      597.6708     117.597933       1.58308
  23     57.69      480.3474        5.7563      590.7959      596.5522     116.204808       1.30584
  22     68.43      480.5656        6.7895      588.6191      595.4085     114.842973       1.07059
  21     81.20      480.6743        8.0144      586.2690      594.2834     113.609118       0.81531
  20     96.49      480.6637        9.4649      583.6961      593.1610     112.497319       0.61363
  19     114.6      480.5930       11.1715      580.7708      591.9423     111.349247       0.53607
  18     136.5      480.4641       13.1699      577.4359      590.6058     110.141786       0.46430
  17     162.9      480.2724       15.5156      573.5624      589.0780     108.805691       0.42707
  16     196.4      479.9356       18.5075      568.5907      587.0982     107.162623       0.41358
  15     218.7      479.6867       20.4422      565.0572      585.4994     105.812666       0.51253
  14     243.0      479.4103       22.5176      560.7495      583.2671     103.856776       0.67837
  13     269.0      479.1095       24.7351      555.3947      580.1298     101.020293       0.92014
  12     297.5      478.7930       27.0956      548.9964      576.0920      97.298968       1.10370
  11     328.5      478.4729       29.6055      542.0895      571.6951      93.222193       1.10846
  10     361.9      478.1607       32.2612      534.6242      566.8854      88.724688       1.13791
   9     398.1      477.8734       35.0673      526.4204      561.4877      83.614285       1.19061
   8     437.6      477.6427       38.0225      517.3907      555.4132      77.770424       1.24945
   7     480.5      477.5039       41.1250      507.7216      548.8465      71.342623       1.26240
   6     533.0      477.5372       44.8557      495.9006      540.7563      63.219118       1.30681
   5     589.8      477.9496       48.7714      483.0788      531.8502      53.900594       1.38317
   4     651.6      479.1874       52.8587      468.6907      521.5494      42.361956       1.57794
   3     718.7      481.9139       57.1097      453.2257      510.3355      28.421615       1.75191
   2     792.3      487.9624       61.5019      436.4928      497.9948      10.032411       2.10904
   1     891.5      109.7117      113.9535        0.0000      113.9535       4.241723       0.49276
   0    1013.0      109.9167      113.6395        0.0000      113.6395       3.722816       0.03603



 Wavenumbers:  2600. -  3250. cm-1, ATM      1
 LEVEL PRESSURE   UPWARD FLUX   DIFDOWN FLUX  DIRDOWN FLUX  DOWNWARD FLUX   NET FLUX    HEATING RATE
          mb          W/m2          W/m2          W/m2        W/m2          W/m2       degree/day
  51    .06700        2.3707        0.0000        5.4450        5.4450       3.074305       0.00000
  50    .07753        2.3707        0.0000        5.4450        5.4450       3.074297       0.00640
  49    .09103        2.3707        0.0000        5.4450        5.4450       3.074287       0.00627
  48    0.1069        2.3707        0.0000        5.4450        5.4450       3.074275       0.00613
  47    0.1255        2.3707        0.0000        5.4450        5.4450       3.074262       0.00599
  46    0.1487        2.3707        0.0000        5.4450        5.4450       3.074246       0.00608
  45    0.1794        2.3707        0.0000        5.4450        5.4450       3.074223       0.00625
  44    0.2165        2.3707        0.0000        5.4449        5.4449       3.074196       0.00612
  43    0.2613        2.3707        0.0000        5.4449        5.4449       3.074164       0.00600
  42    0.3336        2.3707        0.0000        5.4448        5.4448       3.074111       0.00617
  41    0.4307        2.3707        0.0000        5.4448        5.4448       3.074040       0.00620
  40    0.5894        2.3707        0.0000        5.4446        5.4446       3.073920       0.00637
  39     1.339        2.3707        0.0000        5.4439        5.4439       3.073212       0.00797
  38     1.782        2.3707        0.0000        5.4434        5.4434       3.072669       0.01034
  37     2.292        2.3707        0.0000        5.4427        5.4427       3.071953       0.01186
  36     2.964        2.3707        0.0000        5.4416        5.4416       3.070915       0.01304
  35     3.853        2.3707        0.0000        5.4402        5.4402       3.069437       0.01402
  34     5.035        2.3707        0.0000        5.4381        5.4381       3.067381       0.01469
  33     6.613        2.3707        0.0000        5.4353        5.4353       3.064600       0.01487
  32     8.786        2.3707        0.0000        5.4317        5.4317       3.060966       0.01411
  31     11.80        2.3707        0.0000        5.4269        5.4269       3.056183       0.01339
  30     15.07        2.3707        0.0000        5.4224        5.4224       3.051653       0.01170
  29     18.79        2.3707        0.0000        5.4180        5.4180       3.047235       0.01002
  28     23.16        2.3707        0.0000        5.4135        5.4135       3.042741       0.00869
  27     28.12        2.3708        0.0000        5.4088        5.4088       3.038081       0.00792
  26     33.73        2.3708        0.0000        5.4036        5.4036       3.032824       0.00790
  25     40.54        2.3708        0.0000        5.3966        5.3967       3.025856       0.00864
  24     48.69        2.3708        0.0000        5.3872        5.3872       3.016339       0.00985
  23     57.69        2.3709        0.0000        5.3754        5.3754       3.004499       0.01110
  22     68.43        2.3710        0.0000        5.3599        5.3599       2.988932       0.01224
  21     81.20        2.3711        0.0000        5.3401        5.3401       2.968985       0.01318
  20     96.49        2.3713        0.0000        5.3155        5.3155       2.944258       0.01365
  19     114.6        2.3715        0.0001        5.2853        5.2854       2.913840       0.01420
  18     136.5        2.3719        0.0001        5.2504        5.2505       2.878622       0.01354
  17     162.9        2.3723        0.0001        5.2111        5.2112       2.838833       0.01272
  16     196.4        2.3731        0.0001        5.1640        5.1641       2.791002       0.01204
  15     218.7        2.3739        0.0001        5.1331        5.1332       2.759306       0.01203
  14     243.0        2.3752        0.0001        5.0962        5.0963       2.721131       0.01324
  13     269.0        2.3772        0.0001        5.0511        5.0512       2.674023       0.01528
  12     297.5        2.3802        0.0001        4.9956        4.9957       2.615514       0.01735
  11     328.5        2.3845        0.0001        4.9304        4.9305       2.546039       0.01889
  10     361.9        2.3904        0.0002        4.8511        4.8513       2.460904       0.02154
   9     398.1        2.3985        0.0002        4.7507        4.7509       2.352346       0.02529
   8     437.6        2.4099        0.0002        4.6220        4.6222       2.212306       0.02994
   7     480.5        2.4259        0.0002        4.4625        4.4627       2.036826       0.03446
   6     533.0        2.4520        0.0002        4.2460        4.2463       1.794210       0.03903
   5     589.8        2.4924        0.0002        3.9954        3.9956       1.503185       0.04320
   4     651.6        2.5602        0.0002        3.7089        3.7091       1.148921       0.04845
   3     718.7        2.6746        0.0002        3.4018        3.4021       0.727490       0.05296
   2     792.3        2.8895        0.0002        3.0564        3.0567       0.167176       0.06426
   1     891.5        0.0317        0.0455        0.0000        0.0455       0.013832       0.01305
   0    1013.0        0.0338        0.0425        0.0000        0.0425       0.008760       0.00035



 Wavenumbers:  3250. -  4000. cm-1, ATM      1
 LEVEL PRESSURE   UPWARD FLUX   DIFDOWN FLUX  DIRDOWN FLUX  DOWNWARD FLUX   NET FLUX    HEATING RATE
          mb          W/m2          W/m2          W/m2        W/m2          W/m2       degree/day
  51    .06700        0.1085        0.0000        9.1795        9.1795       9.071032       0.00000
  50    .07753        0.1085        0.0000        9.1747        9.1747       9.066189       3.88148
  49    .09103        0.1085        0.0000        9.1713        9.1713       9.062801       2.11747
  48    0.1069        0.1085        0.0000        9.1688        9.1688       9.060276       1.34402
  47    0.1255        0.1085        0.0000        9.1665        9.1665       9.058017       1.02422
  46    0.1487        0.1085        0.0000        9.1641        9.1641       9.055576       0.88991
  45    0.1794        0.1085        0.0000        9.1612        9.1612       9.052698       0.79008
  44    0.2165        0.1085        0.0000        9.1583        9.1583       9.049778       0.66430
  43    0.2613        0.1085        0.0000        9.1553        9.1553       9.046805       0.56041
  42    0.3336        0.1085        0.0000        9.1511        9.1511       9.042626       0.48723
  41    0.4307        0.1085        0.0000        9.1464        9.1464       9.037857       0.41459
  40    0.5894        0.1085        0.0000        9.1393        9.1394       9.030852       0.37255
  39     1.339        0.1085        0.0000        9.1127        9.1127       9.004238       0.29962
  38     1.782        0.1085        0.0000        9.1011        9.1011       8.992650       0.22062
  37     2.292        0.1085        0.0000        9.0901        9.0901       8.981583       0.18329
  36     2.964        0.1085        0.0000        9.0776        9.0776       8.969153       0.15603
  35     3.853        0.1085        0.0000        9.0629        9.0629       8.954363       0.14036
  34     5.035        0.1085        0.0000        9.0441        9.0441       8.935624       0.13386
  33     6.613        0.1085        0.0000        9.0191        9.0191       8.910623       0.13366
  32     8.786        0.1085        0.0000        8.9843        8.9843       8.875839       0.13509
  31     11.80        0.1085        0.0000        8.9327        8.9327       8.824223       0.14451
  30     15.07        0.1085        0.0000        8.8758        8.8759       8.767378       0.14676
  29     18.79        0.1085        0.0000        8.8110        8.8110       8.702551       0.14698
  28     23.16        0.1085        0.0000        8.7365        8.7366       8.628106       0.14395
  27     28.12        0.1085        0.0000        8.6554        8.6555       8.546993       0.13789
  26     33.73        0.1085        0.0000        8.5719        8.5719       8.463493       0.12554
  25     40.54        0.1084        0.0001        8.4812        8.4812       8.372769       0.11255
  24     48.69        0.1084        0.0001        8.3838        8.3839       8.275467       0.10069
  23     57.69        0.1084        0.0001        8.2861        8.2862       8.177732       0.09161
  22     68.43        0.1084        0.0001        8.1751        8.1751       8.066735       0.08726
  21     81.20        0.1084        0.0001        8.0457        8.0458       7.937377       0.08548
  20     96.49        0.1084        0.0001        7.8949        7.8951       7.786673       0.08318
  19     114.6        0.1084        0.0001        7.7162        7.7163       7.607962       0.08345
  18     136.5        0.1083        0.0002        7.5193        7.5195       7.411117       0.07569
  17     162.9        0.1083        0.0002        7.2913        7.2915       7.183223       0.07284
  16     196.4        0.1083        0.0002        6.9660        6.9662       6.857942       0.08188
  15     218.7        0.1083        0.0002        6.6648        6.6650       6.556735       0.11436
  14     243.0        0.1083        0.0002        6.2619        6.2622       6.153895       0.13972
  13     269.0        0.1084        0.0003        5.7576        5.7579       5.649484       0.16363
  12     297.5        0.1086        0.0003        5.1719        5.1722       5.063556       0.17378
  11     328.5        0.1090        0.0003        4.5757        4.5760       4.466984       0.16221
  10     361.9        0.1097        0.0002        3.9995        3.9998       3.890125       0.14595
   9     398.1        0.1108        0.0002        3.4655        3.4657       3.354946       0.12468
   8     437.6        0.1126        0.0002        2.9740        2.9743       2.861634       0.10547
   7     480.5        0.1156        0.0002        2.5307        2.5309       2.415242       0.08767
   6     533.0        0.1214        0.0002        2.0614        2.0616       1.940122       0.07643
   5     589.8        0.1321        0.0002        1.6150        1.6151       1.483048       0.06784
   4     651.6        0.1543        0.0001        1.1565        1.1566       1.002252       0.06575
   3     718.7        0.2035        0.0001        0.7390        0.7391       0.535610       0.05864
   2     792.3        0.3360        0.0001        0.3985        0.3985       0.062478       0.05426
   1     891.5        0.0000        0.0000        0.0000        0.0000       0.000001       0.00532
   0    1013.0        0.0000        0.0000        0.0000        0.0000       0.000000       0.00000



 Wavenumbers:  4000. -  4650. cm-1, ATM      1
 LEVEL PRESSURE   UPWARD FLUX   DIFDOWN FLUX  DIRDOWN FLUX  DOWNWARD FLUX   NET FLUX    HEATING RATE
          mb          W/m2          W/m2          W/m2        W/m2          W/m2       degree/day
  51    .06700        7.4610        0.0000       10.7795       10.7795       3.318493       0.00000
  50    .07753        7.4610        0.0000       10.7795       10.7795       3.318492       0.00080
  49    .09103        7.4610        0.0000       10.7795       10.7795       3.318491       0.00078
  48    0.1069        7.4610        0.0000       10.7795       10.7795       3.318489       0.00077
  47    0.1255        7.4610        0.0000       10.7795       10.7795       3.318488       0.00075
  46    0.1487        7.4610        0.0000       10.7795       10.7795       3.318486       0.00076
  45    0.1794        7.4610        0.0000       10.7795       10.7795       3.318483       0.00078
  44    0.2165        7.4610        0.0000       10.7795       10.7795       3.318479       0.00076
  43    0.2613        7.4610        0.0000       10.7795       10.7795       3.318475       0.00075
  42    0.3336        7.4610        0.0000       10.7795       10.7795       3.318469       0.00077
  41    0.4307        7.4610        0.0000       10.7795       10.7795       3.318460       0.00078
  40    0.5894        7.4610        0.0000       10.7795       10.7795       3.318445       0.00080
  39     1.339        7.4610        0.0000       10.7794       10.7794       3.318355       0.00101
  38     1.782        7.4610        0.0000       10.7793       10.7793       3.318285       0.00134
  37     2.292        7.4610        0.0000       10.7792       10.7792       3.318191       0.00156
  36     2.964        7.4610        0.0000       10.7791       10.7791       3.318050       0.00177
  35     3.853        7.4610        0.0000       10.7789       10.7789       3.317841       0.00198
  34     5.035        7.4610        0.0000       10.7786       10.7786       3.317533       0.00220
  33     6.613        7.4610        0.0000       10.7781       10.7781       3.317079       0.00243
  32     8.786        7.4610        0.0000       10.7774       10.7775       3.316408       0.00260
  31     11.80        7.4610        0.0001       10.7763       10.7764       3.315354       0.00295
  30     15.07        7.4611        0.0001       10.7751       10.7752       3.314117       0.00320
  29     18.79        7.4611        0.0001       10.7736       10.7737       3.312618       0.00340
  28     23.16        7.4611        0.0001       10.7717       10.7718       3.310755       0.00360
  27     28.12        7.4611        0.0001       10.7695       10.7696       3.308496       0.00384
  26     33.73        7.4611        0.0002       10.7667       10.7669       3.305707       0.00419
  25     40.54        7.4612        0.0002       10.7629       10.7631       3.301918       0.00470
  24     48.69        7.4613        0.0003       10.7579       10.7582       3.296858       0.00524
  23     57.69        7.4615        0.0003       10.7520       10.7523       3.290846       0.00564
  22     68.43        7.4617        0.0004       10.7446       10.7450       3.283291       0.00594
  21     81.20        7.4620        0.0004       10.7355       10.7359       3.273960       0.00617
  20     96.49        7.4624        0.0005       10.7245       10.7250       3.262564       0.00629
  19     114.6        7.4630        0.0006       10.7107       10.7113       3.248258       0.00668
  18     136.5        7.4639        0.0007       10.6942       10.6949       3.230945       0.00666
  17     162.9        7.4652        0.0008       10.6740       10.6749       3.209602       0.00682
  16     196.4        7.4674        0.0010       10.6464       10.6474       3.179948       0.00746
  15     218.7        7.4693        0.0011       10.6255       10.6266       3.157252       0.00862
  14     243.0        7.4721        0.0012       10.5980       10.5993       3.127221       0.01042
  13     269.0        7.4761        0.0014       10.5611       10.5625       3.086361       0.01325
  12     297.5        7.4820        0.0015       10.5119       10.5135       3.031493       0.01627
  11     328.5        7.4900        0.0017       10.4499       10.4515       2.961550       0.01902
  10     361.9        7.5005        0.0018       10.3702       10.3720       2.871481       0.02279
   9     398.1        7.5138        0.0020       10.2678       10.2698       2.755947       0.02692
   8     437.6        7.5310        0.0022       10.1390       10.1412       2.610200       0.03116
   7     480.5        7.5532        0.0024        9.9877        9.9901       2.436894       0.03404
   6     533.0        7.5878        0.0026        9.7937        9.7963       2.208455       0.03675
   5     589.8        7.6388        0.0028        9.5752        9.5780       1.939179       0.03997
   4     651.6        7.7230        0.0030        9.2958        9.2988       1.575829       0.04969
   3     718.7        7.8693        0.0033        8.9267        8.9300       1.060716       0.06474
   2     792.3        8.1582        0.0035        8.4542        8.4577       0.299482       0.08730
   1     891.5        0.2297        0.3015        0.0000        0.3015       0.071754       0.01938
   0    1013.0        0.2344        0.2952        0.0000        0.2952       0.060801       0.00076



 Wavenumbers:  4650. -  5150. cm-1, ATM      1
 LEVEL PRESSURE   UPWARD FLUX   DIFDOWN FLUX  DIRDOWN FLUX  DOWNWARD FLUX   NET FLUX    HEATING RATE
          mb          W/m2          W/m2          W/m2        W/m2          W/m2       degree/day
  51    .06700        5.4098        0.0000       10.2033       10.2033       4.793559       0.00000
  50    .07753        5.4098        0.0000       10.2031       10.2031       4.793323       0.18901
  49    .09103        5.4098        0.0000       10.2028       10.2028       4.793028       0.18428
  48    0.1069        5.4098        0.0000       10.2025       10.2025       4.792691       0.17931
  47    0.1255        5.4098        0.0000       10.2021       10.2021       4.792307       0.17426
  46    0.1487        5.4098        0.0000       10.2016       10.2016       4.791826       0.17536
  45    0.1794        5.4098        0.0000       10.2010       10.2010       4.791175       0.17851
  44    0.2165        5.4098        0.0000       10.2002       10.2002       4.790416       0.17277
  43    0.2613        5.4098        0.0000       10.1993       10.1993       4.789530       0.16690
  42    0.3336        5.4098        0.0000       10.1979       10.1979       4.788098       0.16702
  41    0.4307        5.4098        0.0000       10.1960       10.1960       4.786257       0.16003
  40    0.5894        5.4098        0.0000       10.1932       10.1932       4.783383       0.15283
  39     1.339        5.4098        0.0000       10.1816       10.1816       4.771791       0.13051
  38     1.782        5.4098        0.0000       10.1760       10.1760       4.766261       0.10527
  37     2.292        5.4098        0.0000       10.1706       10.1706       4.760804       0.09039
  36     2.964        5.4098        0.0000       10.1646       10.1647       4.754879       0.07438
  35     3.853        5.4098        0.0000       10.1584       10.1584       4.748661       0.05901
  34     5.035        5.4098        0.0000       10.1521       10.1521       4.742320       0.04530
  33     6.613        5.4098        0.0000       10.1456       10.1456       4.735854       0.03457
  32     8.786        5.4098        0.0001       10.1386       10.1386       4.728827       0.02729
  31     11.80        5.4098        0.0001       10.1295       10.1296       4.719757       0.02539
  30     15.07        5.4099        0.0001       10.1196       10.1197       4.709838       0.02561
  29     18.79        5.4099        0.0001       10.1076       10.1077       4.697774       0.02735
  28     23.16        5.4100        0.0002       10.0923       10.0924       4.682389       0.02975
  27     28.12        5.4102        0.0002       10.0731       10.0734       4.663184       0.03265
  26     33.73        5.4103        0.0002       10.0500       10.0503       4.639944       0.03494
  25     40.54        5.4106        0.0003       10.0201       10.0204       4.609832       0.03736
  24     48.69        5.4110        0.0004        9.9820        9.9823       4.571364       0.03981
  23     57.69        5.4114        0.0004        9.9384        9.9389       4.527446       0.04117
  22     68.43        5.4121        0.0005        9.8858        9.8863       4.474189       0.04187
  21     81.20        5.4130        0.0006        9.8234        9.8240       4.411072       0.04171
  20     96.49        5.4142        0.0007        9.7518        9.7525       4.338253       0.04019
  19     114.6        5.4159        0.0008        9.6719        9.6727       4.256824       0.03802
  18     136.5        5.4183        0.0010        9.5858        9.5868       4.168490       0.03397
  17     162.9        5.4216        0.0012        9.4940        9.4952       4.073630       0.03032
  16     196.4        5.4266        0.0014        9.3883        9.3897       3.963058       0.02783
  15     218.7        5.4305        0.0015        9.3229        9.3244       3.893898       0.02626
  14     243.0        5.4356        0.0017        9.2520        9.2537       3.818025       0.02632
  13     269.0        5.4424        0.0019        9.1717        9.1735       3.731078       0.02821
  12     297.5        5.4519        0.0020        9.0763        9.0783       3.626430       0.03104
  11     328.5        5.4642        0.0022        8.9650        8.9672       3.503020       0.03355
  10     361.9        5.4800        0.0024        8.8349        8.8374       3.357318       0.03686
   9     398.1        5.5006        0.0027        8.6820        8.6847       3.184025       0.04037
   8     437.6        5.5275        0.0029        8.5028        8.5057       2.978194       0.04401
   7     480.5        5.5625        0.0031        8.2948        8.2979       2.735434       0.04768
   6     533.0        5.6161        0.0034        8.0209        8.0242       2.408172       0.05265
   5     589.8        5.6910        0.0036        7.7063        7.7099       2.018946       0.05777
   4     651.6        5.8028        0.0039        7.3412        7.3451       1.542252       0.06519
   3     718.7        5.9745        0.0041        6.9387        6.9428       0.968242       0.07214
   2     792.3        6.2565        0.0043        6.5066        6.5109       0.254388       0.08187
   1     891.5        0.1428        0.1899        0.0000        0.1899       0.047147       0.01764
   0    1013.0        0.1466        0.1847        0.0000        0.1847       0.038044       0.00063



 Wavenumbers:  5150. -  6150. cm-1, ATM      1
 LEVEL PRESSURE   UPWARD FLUX   DIFDOWN FLUX  DIRDOWN FLUX  DOWNWARD FLUX   NET FLUX    HEATING RATE
          mb          W/m2          W/m2          W/m2        W/m2          W/m2       degree/day
  51    .06700       12.7384        0.0000       25.5798       25.5798      12.841391       0.00000
  50    .07753       12.7384        0.0000       25.5798       25.5798      12.841351       0.03164
  49    .09103       12.7384        0.0000       25.5797       25.5797      12.841300       0.03212
  48    0.1069       12.7384        0.0000       25.5797       25.5797      12.841239       0.03263
  47    0.1255       12.7384        0.0000       25.5796       25.5796      12.841166       0.03313
  46    0.1487       12.7384        0.0000       25.5795       25.5795      12.841070       0.03490
  45    0.1794       12.7384        0.0000       25.5794       25.5794      12.840934       0.03715
  44    0.2165       12.7384        0.0000       25.5792       25.5792      12.840769       0.03771
  43    0.2613       12.7384        0.0000       25.5790       25.5790      12.840566       0.03829
  42    0.3336       12.7384        0.0000       25.5786       25.5786      12.840219       0.04045
  41    0.4307       12.7384        0.0000       25.5782       25.5782      12.839747       0.04099
  40    0.5894       12.7384        0.0000       25.5774       25.5774      12.838957       0.04201
  39     1.339       12.7384        0.0000       25.5735       25.5736      12.835151       0.04285
  38     1.782       12.7384        0.0001       25.5713       25.5714      12.832934       0.04221
  37     2.292       12.7384        0.0001       25.5688       25.5689      12.830424       0.04157
  36     2.964       12.7384        0.0001       25.5656       25.5657      12.827234       0.04005
  35     3.853       12.7384        0.0001       25.5615       25.5616      12.823177       0.03849
  34     5.035       12.7385        0.0002       25.5562       25.5564      12.817951       0.03733
  33     6.613       12.7385        0.0002       25.5494       25.5496      12.811169       0.03626
  32     8.786       12.7385        0.0003       25.5406       25.5409      12.802374       0.03415
  31     11.80       12.7386        0.0004       25.5287       25.5291      12.790471       0.03332
  30     15.07       12.7387        0.0005       25.5167       25.5172      12.778524       0.03085
  29     18.79       12.7388        0.0006       25.5042       25.5048      12.766020       0.02835
  28     23.16       12.7389        0.0008       25.4907       25.4914      12.752535       0.02608
  27     28.12       12.7391        0.0009       25.4764       25.4774      12.738297       0.02420
  26     33.73       12.7393        0.0011       25.4620       25.4631      12.723834       0.02174
  25     40.54       12.7396        0.0013       25.4463       25.4476      12.707970       0.01968
  24     48.69       12.7401        0.0016       25.4294       25.4310      12.690913       0.01765
  23     57.69       12.7406        0.0019       25.4126       25.4145      12.673909       0.01594
  22     68.43       12.7413        0.0023       25.3944       25.3967      12.655371       0.01457
  21     81.20       12.7422        0.0027       25.3744       25.3771      12.634895       0.01353
  20     96.49       12.7433        0.0032       25.3519       25.3551      12.611811       0.01274
  19     114.6       12.7447        0.0038       25.3262       25.3300      12.585274       0.01239
  18     136.5       12.7464        0.0045       25.2962       25.3007      12.554324       0.01190
  17     162.9       12.7485        0.0053       25.2521       25.2574      12.508984       0.01449
  16     196.4       12.7513        0.0064       25.1593       25.1657      12.414396       0.02381
  15     218.7       12.7534        0.0071       25.0159       25.0230      12.269663       0.05495
  14     243.0       12.7559        0.0078       24.7089       24.7168      11.960829       0.10711
  13     269.0       12.7592        0.0086       24.1619       24.1704      11.411230       0.17829
  12     297.5       12.7636        0.0093       23.4544       23.4637      10.700055       0.21093
  11     328.5       12.7694        0.0100       22.7355       22.7455       9.976088       0.19684
  10     361.9       12.7771        0.0108       21.9224       21.9332       9.156125       0.20746
   9     398.1       12.7874        0.0115       20.9939       21.0054       8.217992       0.21856
   8     437.6       12.8019        0.0122       19.9833       19.9955       7.193670       0.21901
   7     480.5       12.8220        0.0129       18.9483       18.9612       6.139221       0.20709
   6     533.0       12.8563        0.0137       17.7796       17.7933       4.936971       0.19340
   5     589.8       12.9124        0.0145       16.6726       16.6871       3.774715       0.17252
   4     651.6       13.0158        0.0153       15.6343       15.6496       2.633813       0.15602
   3     718.7       13.2079        0.0162       14.7738       14.7900       1.582121       0.13217
   2     792.3       13.6046        0.0172       14.0291       14.0464       0.441716       0.13079
   1     891.5        0.4691        0.6072        0.0000        0.6072       0.138036       0.02584
   0    1013.0        0.4754        0.5988        0.0000        0.5988       0.123347       0.00102



 Wavenumbers:  6150. -  7700. cm-1, ATM      1
 LEVEL PRESSURE   UPWARD FLUX   DIFDOWN FLUX  DIRDOWN FLUX  DOWNWARD FLUX   NET FLUX    HEATING RATE
          mb          W/m2          W/m2          W/m2        W/m2          W/m2       degree/day
  51    .06700       20.6720        0.0000       47.3109       47.3109      26.638825       0.00000
  50    .07753       20.6720        0.0000       47.3108       47.3108      26.638768       0.04553
  49    .09103       20.6720        0.0000       47.3107       47.3107      26.638695       0.04583
  48    0.1069       20.6720        0.0000       47.3106       47.3106      26.638608       0.04614
  47    0.1255       20.6720        0.0000       47.3105       47.3105      26.638506       0.04645
  46    0.1487       20.6720        0.0000       47.3104       47.3104      26.638372       0.04852
  45    0.1794       20.6720        0.0000       47.3102       47.3102      26.638186       0.05127
  44    0.2165       20.6720        0.0000       47.3100       47.3100      26.637959       0.05167
  43    0.2613       20.6720        0.0000       47.3097       47.3097      26.637682       0.05210
  42    0.3336       20.6720        0.0000       47.3092       47.3092      26.637213       0.05471
  41    0.4307       20.6720        0.0001       47.3085       47.3086      26.636578       0.05521
  40    0.5894       20.6720        0.0001       47.3074       47.3075      26.635519       0.05634
  39     1.339       20.6719        0.0002       47.3022       47.3024      26.630426       0.05733
  38     1.782       20.6719        0.0002       47.2991       47.2994      26.627456       0.05655
  37     2.292       20.6719        0.0003       47.2956       47.2960      26.624080       0.05591
  36     2.964       20.6718        0.0004       47.2912       47.2916      26.619762       0.05421
  35     3.853       20.6718        0.0005       47.2855       47.2860      26.614227       0.05253
  34     5.035       20.6717        0.0007       47.2780       47.2787      26.607047       0.05130
  33     6.613       20.6716        0.0009       47.2683       47.2692      26.597659       0.05019
  32     8.786       20.6714        0.0012       47.2556       47.2568      26.585359       0.04777
  31     11.80       20.6712        0.0016       47.2380       47.2396      26.568454       0.04733
  30     15.07       20.6709        0.0020       47.2201       47.2221      26.551165       0.04464
  29     18.79       20.6707        0.0026       47.2008       47.2034      26.532684       0.04190
  28     23.16       20.6704        0.0031       47.1795       47.1827      26.512292       0.03943
  27     28.12       20.6700        0.0038       47.1565       47.1603      26.490295       0.03739
  26     33.73       20.6696        0.0046       47.1324       47.1370      26.467370       0.03447
  25     40.54       20.6691        0.0055       47.1054       47.1109      26.441728       0.03181
  24     48.69       20.6686        0.0066       47.0754       47.0820      26.413468       0.02925
  23     57.69       20.6679        0.0078       47.0449       47.0528      26.384837       0.02684
  22     68.43       20.6672        0.0093       47.0110       47.0203      26.353088       0.02496
  21     81.20       20.6663        0.0110       46.9729       46.9838      26.317578       0.02346
  20     96.49       20.6652        0.0130       46.9294       46.9424      26.277215       0.02228
  19     114.6       20.6640        0.0155       46.8790       46.8945      26.230548       0.02179
  18     136.5       20.6625        0.0184       46.8200       46.8384      26.175878       0.02102
  17     162.9       20.6608        0.0218       46.7361       46.7580      26.097170       0.02516
  16     196.4       20.6588        0.0263       46.5703       46.5966      25.937755       0.04013
  15     218.7       20.6578        0.0292       46.3473       46.3765      25.718718       0.08316
  14     243.0       20.6572        0.0322       45.9299       45.9621      25.304918       0.14352
  13     269.0       20.6576        0.0353       45.1708       45.2060      24.548412       0.24541
  12     297.5       20.6603        0.0383       44.0115       44.0497      23.389457       0.34373
  11     328.5       20.6659        0.0414       42.7242       42.7656      22.099708       0.35068
  10     361.9       20.6759        0.0445       41.3539       41.3985      20.722559       0.34843
   9     398.1       20.6928        0.0476       39.7953       39.8429      19.150086       0.36635
   8     437.6       20.7209        0.0506       37.9948       38.0454      17.324442       0.39033
   7     480.5       20.7655        0.0535       36.0647       36.1182      15.352656       0.38725
   6     533.0       20.8490        0.0566       33.7773       33.8339      12.984821       0.38091
   5     589.8       20.9947        0.0595       31.4082       31.4677      10.473002       0.37284
   4     651.6       21.2773        0.0619       28.8834       28.9453       7.667968       0.38360
   3     718.7       21.8273        0.0641       26.4104       26.4745       4.647204       0.37963
   2     792.3       23.0445        0.0660       24.0056       24.0716       1.027049       0.41519
   1     891.5        0.6421        0.8346        0.0000        0.8346       0.192540       0.07101
   0    1013.0        0.6517        0.8208        0.0000        0.8208       0.169092       0.00163



 Wavenumbers:  7700. -  8050. cm-1, ATM      1
 LEVEL PRESSURE   UPWARD FLUX   DIFDOWN FLUX  DIRDOWN FLUX  DOWNWARD FLUX   NET FLUX    HEATING RATE
          mb          W/m2          W/m2          W/m2        W/m2          W/m2       degree/day
  51    .06700        9.2281        0.0000       11.1810       11.1810       1.952849       0.00000
  50    .07753        9.2281        0.0000       11.1809       11.1809       1.952824       0.01953
  49    .09103        9.2281        0.0000       11.1809       11.1809       1.952794       0.01914
  48    0.1069        9.2281        0.0000       11.1809       11.1809       1.952758       0.01874
  47    0.1255        9.2281        0.0000       11.1809       11.1809       1.952718       0.01834
  46    0.1487        9.2282        0.0000       11.1808       11.1808       1.952667       0.01861
  45    0.1794        9.2282        0.0000       11.1808       11.1808       1.952597       0.01915
  44    0.2165        9.2282        0.0000       11.1807       11.1807       1.952515       0.01879
  43    0.2613        9.2282        0.0000       11.1806       11.1806       1.952417       0.01843
  42    0.3336        9.2283        0.0000       11.1805       11.1805       1.952255       0.01886
  41    0.4307        9.2283        0.0000       11.1803       11.1804       1.952040       0.01866
  40    0.5894        9.2284        0.0000       11.1801       11.1801       1.951690       0.01864
  39     1.339        9.2289        0.0001       11.1788       11.1789       1.950032       0.01867
  38     1.782        9.2291        0.0001       11.1781       11.1782       1.949058       0.01854
  37     2.292        9.2294        0.0001       11.1772       11.1773       1.947930       0.01867
  36     2.964        9.2298        0.0002       11.1761       11.1763       1.946450       0.01859
  35     3.853        9.2303        0.0002       11.1746       11.1748       1.944494       0.01856
  34     5.035        9.2310        0.0003       11.1726       11.1729       1.941896       0.01856
  33     6.613        9.2319        0.0004       11.1700       11.1704       1.938424       0.01856
  32     8.786        9.2332        0.0006       11.1664       11.1669       1.933747       0.01816
  31     11.80        9.2350        0.0007       11.1613       11.1620       1.927058       0.01873
  30     15.07        9.2369        0.0010       11.1558       11.1568       1.919879       0.01853
  29     18.79        9.2391        0.0012       11.1497       11.1509       1.911774       0.01838
  28     23.16        9.2417        0.0015       11.1425       11.1440       1.902315       0.01829
  27     28.12        9.2446        0.0018       11.1343       11.1361       1.891508       0.01837
  26     33.73        9.2479        0.0021       11.1252       11.1273       1.879429       0.01816
  25     40.54        9.2519        0.0026       11.1142       11.1168       1.864858       0.01808
  24     48.69        9.2568        0.0031       11.1010       11.1041       1.847325       0.01814
  23     57.69        9.2621        0.0036       11.0866       11.0902       1.828111       0.01801
  22     68.43        9.2685        0.0043       11.0695       11.0738       1.805289       0.01794
  21     81.20        9.2763        0.0051       11.0494       11.0545       1.778190       0.01791
  20     96.49        9.2856        0.0061       11.0255       11.0316       1.746026       0.01775
  19     114.6        9.2967        0.0072       10.9975       11.0047       1.708013       0.01775
  18     136.5        9.3101        0.0085       10.9648       10.9733       1.663196       0.01723
  17     162.9        9.3263        0.0101       10.9263       10.9364       1.610142       0.01696
  16     196.4        9.3476        0.0122       10.8773       10.8894       1.541806       0.01720
  15     218.7        9.3619        0.0135       10.8455       10.8591       1.497155       0.01695
  14     243.0        9.3777        0.0150       10.8114       10.8265       1.448750       0.01679
  13     269.0        9.3951        0.0166       10.7749       10.7915       1.396352       0.01700
  12     297.5        9.4144        0.0183       10.7357       10.7540       1.339639       0.01682
  11     328.5        9.4357        0.0202       10.6937       10.7139       1.278181       0.01671
  10     361.9        9.4594        0.0222       10.6489       10.6711       1.211631       0.01684
   9     398.1        9.4858        0.0244       10.6008       10.6251       1.139314       0.01685
   8     437.6        9.5153        0.0267       10.5491       10.5757       1.060384       0.01688
   7     480.5        9.5485        0.0291       10.4934       10.5226       0.974033       0.01696
   6     533.0        9.5918        0.0322       10.4243       10.4565       0.864632       0.01760
   5     589.8        9.6424        0.0355       10.3479       10.3834       0.741019       0.01835
   4     651.6        9.7030        0.0390       10.2613       10.3003       0.597323       0.01965
   3     718.7        9.7775        0.0428       10.1618       10.2045       0.427021       0.02140
   2     792.3        9.8724        0.0467       10.0439       10.0906       0.218189       0.02395
   1     891.5        0.3451        0.4514        0.0000        0.4514       0.106340       0.00952
   0    1013.0        0.3516        0.4429        0.0000        0.4429       0.091233       0.00105



 Wavenumbers:  8050. - 12850. cm-1, ATM      1
 LEVEL PRESSURE   UPWARD FLUX   DIFDOWN FLUX  DIRDOWN FLUX  DOWNWARD FLUX   NET FLUX    HEATING RATE
          mb          W/m2          W/m2          W/m2        W/m2          W/m2       degree/day
  51    .06700      121.8084        0.0000      156.5418      156.5418      34.733327       0.00000
  50    .07753      121.8084        0.0000      156.5417      156.5417      34.733327      -0.00000
  49    .09103      121.8084        0.0001      156.5417      156.5417      34.733327       0.00000
  48    0.1069      121.8084        0.0001      156.5416      156.5417      34.733327       0.00000
  47    0.1255      121.8084        0.0002      156.5415      156.5417      34.733327      -0.00000
  46    0.1487      121.8084        0.0003      156.5414      156.5417      34.733327       0.00000
  45    0.1794      121.8083        0.0003      156.5413      156.5417      34.733327       0.00000
  44    0.2165      121.8083        0.0005      156.5412      156.5416      34.733327      -0.00000
  43    0.2613      121.8083        0.0006      156.5410      156.5416      34.733327       0.00000
  42    0.3336      121.8082        0.0008      156.5407      156.5415      34.733327       0.00000
  41    0.4307      121.8081        0.0011      156.5403      156.5414      34.733327      -0.00000
  40    0.5894      121.8080        0.0016      156.5397      156.5413      34.733327       0.00000
  39     1.339      121.8073        0.0039      156.5367      156.5406      34.733327       0.00000
  38     1.782      121.8069        0.0053      156.5350      156.5403      34.733327      -0.00000
  37     2.292      121.8065        0.0068      156.5330      156.5398      34.733327       0.00000
  36     2.964      121.8059        0.0089      156.5303      156.5392      34.733327       0.00000
  35     3.853      121.8051        0.0116      156.5268      156.5385      34.733327      -0.00000
  34     5.035      121.8041        0.0152      156.5222      156.5374      34.733327       0.00000
  33     6.613      121.8027        0.0201      156.5160      156.5361      34.733327       0.00000
  32     8.786      121.8009        0.0266      156.5076      156.5342      34.733327      -0.00000
  31     11.80      121.7983        0.0359      156.4957      156.5316      34.733327       0.00000
  30     15.07      121.7954        0.0460      156.4828      156.5287      34.733327       0.00000
  29     18.79      121.7922        0.0573      156.4682      156.5255      34.733327      -0.00000
  28     23.16      121.7884        0.0706      156.4512      156.5218      34.733327      -0.00000
  27     28.12      121.7841        0.0858      156.4317      156.5175      34.733327       0.00000
  26     33.73      121.7793        0.1028      156.4099      156.5126      34.733327      -0.00000
  25     40.54      121.7735        0.1234      156.3834      156.5068      34.733327       0.00000
  24     48.69      121.7664        0.1482      156.3515      156.4998      34.733327      -0.00000
  23     57.69      121.7587        0.1756      156.3164      156.4920      34.733327       0.00000
  22     68.43      121.7494        0.2082      156.2746      156.4828      34.733327       0.00000
  21     81.20      121.7384        0.2472      156.2246      156.4717      34.733327       0.00000
  20     96.49      121.7252        0.2936      156.1649      156.4586      34.733327      -0.00000
  19     114.6      121.7099        0.3489      156.0879      156.4369      34.727006       0.00295
  18     136.5      121.6916        0.4146      155.9962      156.4108      34.719171       0.00301
  17     162.9      121.6698        0.4930      155.8831      156.3760      34.706195       0.00415
  16     196.4      121.6418        0.5949      155.7199      156.3149      34.673044       0.00834
  15     218.7      121.6240        0.6620      155.5733      156.2353      34.611265       0.02345
  14     243.0      121.6062        0.7348      155.3367      156.0715      34.465296       0.05063
  13     269.0      121.5907        0.8137      154.9514      155.7651      34.174376       0.09437
  12     297.5      121.5813        0.8986      154.3896      155.2883      33.706945       0.13863
  11     328.5      121.5804        0.9903      153.7151      154.7054      33.124942       0.15825
  10     361.9      121.5932        1.0886      152.9087      153.9974      32.404204       0.18235
   9     398.1      121.6281        1.1939      151.8986      153.0925      31.464423       0.21895
   8     437.6      121.6998        1.3060      150.6031      151.9091      30.209281       0.26836
   7     480.5      121.8263        1.4246      149.0014      150.4260      28.599694       0.31612
   6     533.0      122.0762        1.5682      146.7375      148.3057      26.229547       0.38128
   5     589.8      122.5222        1.7188      143.8730      145.5918      23.069611       0.46904
   4     651.6      123.3846        1.8734      140.0955      141.9689      18.584307       0.61338
   3     718.7      125.0017        2.0304      135.5278      137.5582      12.556495       0.75753
   2     792.3      128.2613        2.1858      130.0690      132.2548       3.993532       0.98208
   1     891.5        4.3736        5.6598        0.0000        5.6598       1.286242       0.23038
   0    1013.0        4.4300        5.5793        0.0000        5.5793       1.149341       0.00951



 Wavenumbers: 12850. - 16000. cm-1, ATM      1
 LEVEL PRESSURE   UPWARD FLUX   DIFDOWN FLUX  DIRDOWN FLUX  DOWNWARD FLUX   NET FLUX    HEATING RATE
          mb          W/m2          W/m2          W/m2        W/m2          W/m2       degree/day
  51    .06700       84.9360        0.0000       98.0872       98.0872      13.151219       0.00000
  50    .07753       84.9360        0.0001       98.0864       98.0864      13.150425       0.63654
  49    .09103       84.9360        0.0002       98.0853       98.0855      13.149427       0.62375
  48    0.1069       84.9360        0.0003       98.0841       98.0843      13.148280       0.61075
  47    0.1255       84.9361        0.0004       98.0826       98.0830      13.146961       0.59809
  46    0.1487       84.9361        0.0005       98.0809       98.0814      13.145294       0.60744
  45    0.1794       84.9362        0.0007       98.0784       98.0792      13.143025       0.62291
  44    0.2165       84.9363        0.0010       98.0756       98.0766      13.140353       0.60785
  43    0.2613       84.9364        0.0013       98.0723       98.0736      13.137207       0.59306
  42    0.3336       84.9367        0.0018       98.0670       98.0688      13.132064       0.59965
  41    0.4307       84.9372        0.0024       98.0602       98.0626      13.125401       0.57934
  40    0.5894       84.9382        0.0035       98.0496       98.0530      13.114873       0.55983
  39     1.339       84.9460        0.0084       98.0043       98.0128      13.066715       0.54217
  38     1.782       84.9531        0.0113       97.9793       97.9906      13.037508       0.55606
  37     2.292       84.9635        0.0147       97.9498       97.9645      13.000928       0.60585
  36     2.964       84.9807        0.0191       97.9088       97.9279      12.947196       0.67451
  35     3.853       85.0083        0.0249       97.8503       97.8753      12.866946       0.76159
  34     5.035       85.0498        0.0327       97.7680       97.8007      12.750847       0.82936
  33     6.613       85.1077        0.0430       97.6562       97.6992      12.591493       0.85191
  32     8.786       85.1831        0.0569       97.5107       97.5676      12.384478       0.80397
  31     11.80       85.2815        0.0768       97.3179       97.3947      12.113214       0.75945
  30     15.07       85.3759        0.0982       97.1283       97.2265      11.850567       0.67810
  29     18.79       85.4726        0.1222       96.9300       97.0523      11.579658       0.61423
  28     23.16       85.5740        0.1504       96.7166       96.8669      11.292930       0.55444
  27     28.12       85.6765        0.1825       96.4935       96.6760      10.999524       0.49877
  26     33.73       85.7718        0.2185       96.2731       96.4915      10.719730       0.42068
  25     40.54       85.8647        0.2619       96.0408       96.3027      10.437998       0.34952
  24     48.69       85.9550        0.3143       95.7946       96.1089      10.153902       0.29399
  23     57.69       86.0332        0.3719       95.5573       95.9292       9.895948       0.24179
  22     68.43       86.1038        0.4405       95.3106       95.7512       9.647374       0.19541
  21     81.20       86.1568        0.5224       95.0643       95.5868       9.430001       0.14364
  20     96.49       86.1912        0.6201       94.8153       95.4354       9.244150       0.10258
  19     114.6       86.2286        0.7372       94.5411       95.2782       9.049576       0.09085
  18     136.5       86.2612        0.8759       94.2320       95.1079       8.846739       0.07800
  17     162.9       86.2894        1.0411       93.8753       94.9164       8.627061       0.07022
  16     196.4       86.3032        1.2554       93.4347       94.6901       8.386923       0.06045
  15     218.7       86.3043        1.3962       93.1513       94.5474       8.243103       0.05460
  14     243.0       86.3027        1.5492       92.8439       94.3931       8.090407       0.05296
  13     269.0       86.2985        1.7150       92.5111       94.2261       7.927606       0.05281
  12     297.5       86.2928        1.8941       92.1495       94.0436       7.750815       0.05243
  11     328.5       86.2882        2.0877       91.7554       93.8431       7.554883       0.05327
  10     361.9       86.2864        2.2961       91.3262       93.6223       7.335921       0.05540
   9     398.1       86.2899        2.5204       90.8575       93.3779       7.088060       0.05775
   8     437.6       86.3031        2.7610       90.3418       93.1028       6.799695       0.06165
   7     480.5       86.3311        3.0188       89.7728       92.7916       6.460497       0.06662
   6     533.0       86.3912        3.3356       89.0428       92.3784       5.987163       0.07614
   5     589.8       86.5029        3.6758       88.2038       91.8797       5.376767       0.09060
   4     651.6       86.7169        4.0390       87.1979       91.2369       4.520055       0.11716
   3     718.7       87.0752        4.4238       86.0161       90.4399       3.364695       0.14520
   2     792.3       87.6994        4.8262       84.5970       89.4233       1.723863       0.18818
   1     891.5        8.2383        9.2076        0.0000        9.2076       0.969305       0.06421
   0    1013.0        8.2891        9.1421        0.0000        9.1421       0.852954       0.00808



 Wavenumbers: 16000. - 22650. cm-1, ATM      1
 LEVEL PRESSURE   UPWARD FLUX   DIFDOWN FLUX  DIRDOWN FLUX  DOWNWARD FLUX   NET FLUX    HEATING RATE
          mb          W/m2          W/m2          W/m2        W/m2          W/m2       degree/day
  51    .06700      141.7926        0.0000      156.3892      156.3892      14.596666       0.00000
  50    .07753      141.7926        0.0004      156.3887      156.3891      14.596517       0.11885
  49    .09103      141.7925        0.0009      156.3879      156.3888      14.596302       0.13480
  48    0.1069      141.7925        0.0015      156.3871      156.3885      14.596013       0.15372
  47    0.1255      141.7926        0.0021      156.3861      156.3882      14.595626       0.17522
  46    0.1487      141.7926        0.0030      156.3847      156.3877      14.595057       0.20763
  45    0.1794      141.7928        0.0041      156.3828      156.3869      14.594166       0.24447
  44    0.2165      141.7930        0.0054      156.3805      156.3859      14.592958       0.27476
  43    0.2613      141.7933        0.0070      156.3776      156.3847      14.591320       0.30889
  42    0.3336      141.7941        0.0097      156.3726      156.3823      14.588204       0.36326
  41    0.4307      141.7954        0.0132      156.3657      156.3789      14.583508       0.40834
  40    0.5894      141.7980        0.0189      156.3537      156.3726      14.574551       0.47631
  39     1.339      141.8210        0.0459      156.2834      156.3293      14.508377       0.74499
  38     1.782      141.8421        0.0618      156.2324      156.2941      14.452005       1.07323
  37     2.292      141.8739        0.0802      156.1641      156.2443      14.370406       1.35150
  36     2.964      141.9265        0.1043      156.0605      156.1648      14.238213       1.65941
  35     3.853      142.0117        0.1361      155.9041      156.0402      14.028455       1.99065
  34     5.035      142.1402        0.1783      155.6774      155.8557      13.715509       2.23556
  33     6.613      142.3197        0.2347      155.3656      155.6003      13.280599       2.32503
  32     8.786      142.5536        0.3106      154.9577      155.2682      12.714673       2.19785
  31     11.80      142.8579        0.4189      154.4153      154.8342      11.976269       2.06730
  30     15.07      143.1496        0.5351      153.8804      154.4155      11.265931       1.83396
  29     18.79      143.4474        0.6662      153.3191      153.9853      10.537880       1.65071
  28     23.16      143.7587        0.8190      152.7126      153.5316       9.772867       1.47929
  27     28.12      144.0720        0.9935      152.0755      153.0690       8.996993       1.31893
  26     33.73      144.3614        1.1886      151.4409      152.6295       8.268194       1.09577
  25     40.54      144.6400        1.4242      150.7637      152.1878       7.547858       0.89366
  24     48.69      144.9069        1.7078      150.0338      151.7416       6.834694       0.73801
  23     57.69      145.1335        2.0190      149.3151      151.3341       6.200601       0.59437
  22     68.43      145.3315        2.3892      148.5476      150.9368       5.605338       0.46796
  21     81.20      145.4688        2.8301      147.7517      150.5817       5.112904       0.32539
  20     96.49      145.5410        3.3548      146.9127      150.2675       4.726457       0.21329
  19     114.6      145.5795        3.9761      145.9763      149.9524       4.372959       0.16506
  18     136.5      145.5933        4.7098      144.9088      149.6185       4.025201       0.13372
  17     162.9      145.5810        5.5793      143.6785      149.2579       3.676840       0.11135
  16     196.4      145.5029        6.7013      142.1651      148.8664       3.363513       0.07887
  15     218.7      145.4287        7.4345      141.2033      148.6379       3.209139       0.05861
  14     243.0      145.3378        8.2281      140.1753      148.4035       3.065728       0.04974
  13     269.0      145.2283        9.0843      139.0797      148.1640       2.935668       0.04219
  12     297.5      145.0999       10.0051      137.9141      147.9192       2.819294       0.03452
  11     328.5      144.9566       10.9949      136.6676      147.6625       2.705896       0.03083
  10     361.9      144.7981       12.0545      135.3392      147.3936       2.595573       0.02791
   9     398.1      144.6241       13.1880      133.9235      147.1114       2.487351       0.02521
   8     437.6      144.4357       14.3974      132.4163      146.8137       2.377956       0.02339
   7     480.5      144.2327       15.6850      130.8147      146.4997       2.266972       0.02180
   6     533.0      143.9836       17.2576      128.8599      146.1175       2.133930       0.02140
   5     589.8      143.7204       18.9379      126.7679      145.7059       1.985528       0.02203
   4     651.6      143.4507       20.7276      124.5274      145.2551       1.804321       0.02478
   3     718.7      143.1823       22.6283      122.1285      144.7568       1.574473       0.02889
   2     792.3      142.9348       24.6379      119.5548      144.1927       1.257903       0.03631
   1     891.5       62.8248       63.8040        0.0000       63.8040       0.979164       0.02372
   0    1013.0       62.8983       63.7074        0.0000       63.7074       0.809084       0.01181



 Wavenumbers: 22650. - 29000. cm-1, ATM      1
 LEVEL PRESSURE   UPWARD FLUX   DIFDOWN FLUX  DIRDOWN FLUX  DOWNWARD FLUX   NET FLUX    HEATING RATE
          mb          W/m2          W/m2          W/m2        W/m2          W/m2       degree/day
  51    .06700       58.6397        0.0000       59.0156       59.0156       0.375905       0.00000
  50    .07753       58.6396        0.0005       59.0151       59.0155       0.375905       0.00000
  49    .09103       58.6395        0.0010       59.0144       59.0154       0.375905      -0.00000
  48    0.1069       58.6394        0.0017       59.0136       59.0153       0.375905       0.00000
  47    0.1255       58.6392        0.0025       59.0127       59.0151       0.375905       0.00000
  46    0.1487       58.6390        0.0034       59.0115       59.0149       0.375905       0.00000
  45    0.1794       58.6388        0.0048       59.0099       59.0147       0.375905      -0.00000
  44    0.2165       58.6385        0.0063       59.0080       59.0144       0.375905       0.00000
  43    0.2613       58.6381        0.0082       59.0058       59.0140       0.375905       0.00000
  42    0.3336       58.6375        0.0113       59.0022       59.0134       0.375905       0.00000
  41    0.4307       58.6367        0.0153       58.9973       59.0126       0.375905      -0.00000
  40    0.5894       58.6355        0.0220       58.9894       59.0114       0.375905      -0.00000
  39     1.339       58.6294        0.0535       58.9518       59.0053       0.375905       0.00000
  38     1.782       58.6258        0.0720       58.9297       59.0017       0.375905       0.00000
  37     2.292       58.6217        0.0934       58.9042       58.9976       0.375905       0.00000
  36     2.964       58.6163        0.1215       58.8706       58.9922       0.375905      -0.00000
  35     3.853       58.6091        0.1586       58.8264       58.9850       0.375905      -0.00000
  34     5.035       58.5996        0.2079       58.7676       58.9755       0.375905       0.00000
  33     6.613       58.5869        0.2737       58.6891       58.9628       0.375905       0.00000
  32     8.786       58.5698        0.3623       58.5834       58.9457       0.375905       0.00000
  31     11.80       58.5454        0.4889       58.4324       58.9213       0.375905      -0.00000
  30     15.07       58.5193        0.6245       58.2706       58.8952       0.375905       0.00000
  29     18.79       58.4898        0.7774       58.0882       58.8657       0.375905       0.00000
  28     23.16       58.4554        0.9556       57.8757       58.8313       0.375905       0.00000
  27     28.12       58.4162        1.1588       57.6333       58.7921       0.375905      -0.00000
  26     33.73       58.3725        1.3853       57.3631       58.7484       0.375905       0.00000
  25     40.54       58.3199        1.6579       57.0379       58.6958       0.375905      -0.00000
  24     48.69       58.2568        1.9848       56.6479       58.6327       0.375905       0.00000
  23     57.69       58.1879        2.3417       56.2221       58.5638       0.375905       0.00000
  22     68.43       58.1064        2.7638       55.7186       58.4823       0.375905       0.00000
  21     81.20       58.0102        3.2622       55.1239       58.3861       0.375905       0.00000
  20     96.49       57.8967        3.8498       54.4228       58.2726       0.375905       0.00000
  19     114.6       57.7637        4.5386       53.6010       58.1396       0.375905       0.00000
  18     136.5       57.6083        5.3425       52.6418       57.9842       0.375905      -0.00000
  17     162.9       57.4267        6.2822       51.5203       57.8026       0.375905       0.00000
  16     196.4       57.1964        7.4729       50.0994       57.5723       0.375905       0.00000
  15     218.7       57.0484        8.2380       49.1863       57.4243       0.375905       0.00000
  14     243.0       56.8902        9.0549       48.2113       57.2661       0.375905       0.00000
  13     269.0       56.7221        9.9231       47.1749       57.0980       0.375905      -0.00000
  12     297.5       56.5441       10.8417       46.0783       56.9200       0.375905      -0.00000
  11     328.5       56.3559       11.8123       44.9195       56.7318       0.375905       0.00000
  10     361.9       56.1581       12.8322       43.7018       56.5340       0.375905       0.00000
   9     398.1       55.9505       13.9014       42.4250       56.3264       0.375905      -0.00000
   8     437.6       55.7336       15.0179       41.0916       56.1095       0.375905       0.00000
   7     480.5       55.5078       16.1793       39.7045       55.8837       0.375905      -0.00000
   6     533.0       55.2390       17.5606       38.0543       55.6149       0.375905       0.00000
   5     589.8       54.9599       18.9927       36.3431       55.3358       0.375905       0.00000
   4     651.6       54.6720       20.4683       34.5795       55.0479       0.375905      -0.00000
   3     718.7       54.3761       21.9818       32.7702       54.7520       0.375905       0.00000
   2     792.3       54.0741       23.5244       30.9256       54.4500       0.375905       0.00000
   1     891.5       28.3273       28.6915        0.0000       28.6915       0.364221       0.00099
   0    1013.0       28.3146       28.6788        0.0000       28.6788       0.364221       0.00000



 Wavenumbers: 29000. - 38000. cm-1, ATM      1
 LEVEL PRESSURE   UPWARD FLUX   DIFDOWN FLUX  DIRDOWN FLUX  DOWNWARD FLUX   NET FLUX    HEATING RATE
          mb          W/m2          W/m2          W/m2        W/m2          W/m2       degree/day
  51    .06700        8.7965        0.0000       20.8114       20.8114      12.014882       0.00000
  50    .07753        8.7963        0.0003       20.8070       20.8074      12.011075       3.05164
  49    .09103        8.7961        0.0007       20.8009       20.8016      12.005537       3.46095
  48    0.1069        8.7958        0.0012       20.7928       20.7939      11.998127       3.94441
  47    0.1255        8.7955        0.0017       20.7820       20.7837      11.988222       4.49047
  46    0.1487        8.7952        0.0024       20.7665       20.7688      11.973659       5.30860
  45    0.1794        8.7947        0.0033       20.7424       20.7457      11.950993       6.22223
  44    0.2165        8.7942        0.0044       20.7103       20.7147      11.920469       6.94362
  43    0.2613        8.7936        0.0056       20.6675       20.6731      11.879473       7.72757
  42    0.3336        8.7927        0.0077       20.5880       20.5957      11.802910       8.92655
  41    0.4307        8.7917        0.0104       20.4722       20.4826      11.690953       9.73437
  40    0.5894        8.7901        0.0147       20.2637       20.2784      11.488262      10.77887
  39     1.339        8.7868        0.0332       19.0984       19.1315      10.344727      12.87413
  38     1.782        8.7874        0.0427       18.4394       18.4821       9.694754      12.37445
  37     2.292        8.7901        0.0530       17.7714       17.8244       9.034338      10.93820
  36     2.964        8.7968        0.0658       17.0421       17.1079       8.311101       9.07881
  35     3.853        8.8098        0.0817       16.2678       16.3495       7.539743       7.32033
  34     5.035        8.8312        0.1019       15.4803       15.5822       6.750979       5.63460
  33     6.613        8.8624        0.1277       14.7157       14.8434       5.981016       4.11623
  32     8.786        8.9035        0.1615       13.9936       14.1551       5.251558       2.83295
  31     11.80        8.9573        0.2087       13.2835       13.4922       4.534900       2.00641
  30     15.07        9.0092        0.2575       12.7394       12.9969       3.987719       1.41272
  29     18.79        9.0628        0.3117       12.2666       12.5783       3.515503       1.07066
  28     23.16        9.1199        0.3733       11.8300       12.2034       3.083496       0.83536
  27     28.12        9.1784        0.4424       11.4279       11.8702       2.691855       0.66576
  26     33.73        9.2325        0.5184       11.0695       11.5879       2.355386       0.50589
  25     40.54        9.2840        0.6093       10.7209       11.3302       2.046190       0.38359
  24     48.69        9.3328        0.7172       10.3742       11.0914       1.758528       0.29768
  23     57.69        9.3731        0.8339       10.0549       10.8888       1.515703       0.22761
  22     68.43        9.4060        0.9709        9.7327       10.7036       1.297585       0.17147
  21     81.20        9.4225        1.1327        9.4134       10.5461       1.123557       0.11499
  20     96.49        9.4206        1.3228        9.0887       10.4116       0.991007       0.07316
  19     114.6        9.4084        1.5426        8.7388       10.2814       0.872953       0.05512
  18     136.5        9.3892        1.7939        8.3549       10.1488       0.759608       0.04358
  17     162.9        9.3630        2.0804        7.9311       10.0115       0.648549       0.03550
  16     196.4        9.3179        2.4353        7.4333        9.8686       0.550714       0.02463
  15     218.7        9.2852        2.6587        7.1295        9.7882       0.502965       0.01813
  14     243.0        9.2494        2.8922        6.8161        9.7082       0.458849       0.01530
  13     269.0        9.2101        3.1350        6.4943        9.6293       0.419213       0.01286
  12     297.5        9.1675        3.3861        6.1657        9.5518       0.384251       0.01037
  11     328.5        9.1231        3.6444        5.8295        9.4739       0.350756       0.00911
  10     361.9        9.0774        3.9076        5.4886        9.3963       0.318879       0.00807
   9     398.1        9.0304        4.1750        5.1440        9.3190       0.288647       0.00704
   8     437.6        8.9827        4.4452        4.7969        9.2421       0.259479       0.00624
   7     480.5        8.9346        4.7160        4.4504        9.1664       0.231768       0.00544
   6     533.0        8.8796        5.0249        4.0563        9.0812       0.201530       0.00486
   5     589.8        8.8257        5.3297        3.6682        8.9979       0.172219       0.00435
   4     651.6        8.7738        5.6268        3.2905        8.9173       0.143505       0.00393
   3     718.7        8.7243        5.9145        2.9252        8.8397       0.115343       0.00354
   2     792.3        8.6782        6.1895        2.5764        8.7659       0.087736       0.00317
   1     891.5        4.0756        4.1408        0.0000        4.1408       0.065208       0.00192
   0    1013.0        4.0776        4.1301        0.0000        4.1301       0.052452       0.00089



 Wavenumbers: 38000. - 50000. cm-1, ATM      1
 LEVEL PRESSURE   UPWARD FLUX   DIFDOWN FLUX  DIRDOWN FLUX  DOWNWARD FLUX   NET FLUX    HEATING RATE
          mb          W/m2          W/m2          W/m2        W/m2          W/m2       degree/day
  51    .06700        0.0061        0.0000        1.2836        1.2836       1.277518       0.00000
  50    .07753        0.0061        0.0001        1.2812        1.2812       1.275183       1.87150
  49    .09103        0.0060        0.0002        1.2777        1.2778       1.271851       2.08247
  48    0.1069        0.0059        0.0002        1.2731        1.2734       1.267473       2.33059
  47    0.1255        0.0058        0.0004        1.2672        1.2675       1.261717       2.60908
  46    0.1487        0.0057        0.0005        1.2586        1.2591       1.253391       3.03499
  45    0.1794        0.0055        0.0007        1.2455        1.2462       1.240623       3.50520
  44    0.2165        0.0054        0.0009        1.2282        1.2291       1.223697       3.85037
  43    0.2613        0.0052        0.0011        1.2054        1.2065       1.201348       4.21261
  42    0.3336        0.0049        0.0015        1.1639        1.1654       1.160524       4.75970
  41    0.4307        0.0045        0.0020        1.1051        1.1070       1.102565       5.03943
  40    0.5894        0.0039        0.0026        1.0039        1.0064       1.002524       5.32007
  39     1.339        0.0022        0.0035        0.5438        0.5473       0.545104       5.14971
  38     1.782        0.0016        0.0032        0.3635        0.3666       0.365006       3.42879
  37     2.292        0.0012        0.0027        0.2356        0.2383       0.237058       2.11916
  36     2.964        0.0009        0.0022        0.1455        0.1477       0.146786       1.13318
  35     3.853        0.0006        0.0017        0.0858        0.0875       0.086906       0.56828
  34     5.035        0.0004        0.0013        0.0488        0.0501       0.049701       0.26578
  33     6.613        0.0003        0.0010        0.0273        0.0282       0.027974       0.11615
  32     8.786        0.0002        0.0007        0.0144        0.0151       0.014928       0.05067
  31     11.80        0.0001        0.0004        0.0065        0.0070       0.006903       0.02247
  30     15.07        0.0000        0.0003        0.0031        0.0034       0.003329       0.00923
  29     18.79        0.0000        0.0002        0.0014        0.0016       0.001583       0.00396
  28     23.16        0.0000        0.0001        0.0006        0.0007       0.000720       0.00167
  27     28.12        0.0000        0.0001        0.0003        0.0003       0.000317       0.00069
  26     33.73        0.0000        0.0000        0.0001        0.0001       0.000140       0.00027
  25     40.54        0.0000        0.0000        0.0000        0.0001       0.000057       0.00010
  24     48.69        0.0000        0.0000        0.0000        0.0000       0.000021       0.00004
  23     57.69        0.0000        0.0000        0.0000        0.0000       0.000008       0.00001
  22     68.43        0.0000        0.0000        0.0000        0.0000       0.000003       0.00000
  21     81.20        0.0000        0.0000        0.0000        0.0000       0.000001       0.00000
  20     96.49        0.0000        0.0000        0.0000        0.0000       0.000000       0.00000
  19     114.6        0.0000        0.0000        0.0000        0.0000       0.000000       0.00000
  18     136.5        0.0000        0.0000        0.0000        0.0000       0.000000       0.00000
  17     162.9        0.0000        0.0000        0.0000        0.0000       0.000000       0.00000
  16     196.4        0.0000        0.0000        0.0000        0.0000       0.000000       0.00000
  15     218.7        0.0000        0.0000        0.0000        0.0000       0.000000       0.00000
  14     243.0        0.0000        0.0000        0.0000        0.0000       0.000000       0.00000
  13     269.0        0.0000        0.0000        0.0000        0.0000       0.000000       0.00000
  12     297.5        0.0000        0.0000        0.0000        0.0000       0.000000       0.00000
  11     328.5        0.0000        0.0000        0.0000        0.0000       0.000000       0.00000
  10     361.9        0.0000        0.0000        0.0000        0.0000       0.000000       0.00000
   9     398.1        0.0000        0.0000        0.0000        0.0000       0.000000       0.00000
   8     437.6        0.0000        0.0000        0.0000        0.0000       0.000000       0.00000
   7     480.5        0.0000        0.0000        0.0000        0.0000       0.000000       0.00000
   6     533.0        0.0000        0.0000        0.0000        0.0000       0.000000       0.00000
   5     589.8        0.0000        0.0000        0.0000        0.0000       0.000000       0.00000
   4     651.6        0.0000        0.0000        0.0000        0.0000       0.000000       0.00000
   3     718.7        0.0000        0.0000        0.0000        0.0000       0.000000       0.00000
   2     792.3        0.0000        0.0000        0.0000        0.0000       0.000000       0.00000
   1     891.5        0.0000        0.0000        0.0000        0.0000       0.000000       0.00000
   0    1013.0        0.0000        0.0000        0.0000        0.0000       0.000000       0.00000



 Wavenumbers:   820. -  2600. cm-1, ATM      1
 LEVEL PRESSURE   UPWARD FLUX   DIFDOWN FLUX  DIRDOWN FLUX  DOWNWARD FLUX   NET FLUX    HEATING RATE
          mb          W/m2          W/m2          W/m2        W/m2          W/m2       degree/day
  51    .06700        1.8374        0.0000        6.0047        6.0047       4.167245       0.00000
  50    .07753        1.8374        0.0000        6.0008        6.0008       4.163392       3.08827
  49    .09103        1.8374        0.0000        5.9999        5.9999       4.162506       0.55363
  48    0.1069        1.8374        0.0000        5.9989        5.9989       4.161517       0.52658
  47    0.1255        1.8374        0.0000        5.9978        5.9978       4.160399       0.50655
  46    0.1487        1.8374        0.0000        5.9964        5.9964       4.159042       0.49463
  45    0.1794        1.8374        0.0000        5.9947        5.9947       4.157323       0.47206
  44    0.2165        1.8374        0.0000        5.9929        5.9929       4.155480       0.41917
  43    0.2613        1.8374        0.0000        5.9909        5.9909       4.153520       0.36940
  42    0.3336        1.8374        0.0000        5.9880        5.9880       4.150642       0.33563
  41    0.4307        1.8374        0.0000        5.9846        5.9846       4.147172       0.30172
  40    0.5894        1.8374        0.0000        5.9791        5.9791       4.141665       0.29284
  39     1.339        1.8374        0.0000        5.9536        5.9536       4.116171       0.28702
  38     1.782        1.8374        0.0000        5.9395        5.9395       4.102028       0.26925
  37     2.292        1.8374        0.0000        5.9237        5.9237       4.086273       0.26096
  36     2.964        1.8374        0.0000        5.9039        5.9039       4.066492       0.24830
  35     3.853        1.8375        0.0000        5.8793        5.8793       4.041828       0.23407
  34     5.035        1.8375        0.0000        5.8487        5.8487       4.011255       0.21841
  33     6.613        1.8375        0.0000        5.8108        5.8108       3.973276       0.20304
  32     8.786        1.8375        0.0000        5.7631        5.7631       3.925633       0.18503
  31     11.80        1.8375        0.0000        5.7039        5.7039       3.866347       0.16598
  30     15.07        1.8376        0.0000        5.6539        5.6539       3.816278       0.12927
  29     18.79        1.8376        0.0000        5.6127        5.6127       3.775107       0.09335
  28     23.16        1.8377        0.0000        5.5794        5.5794       3.741688       0.06462
  27     28.12        1.8377        0.0000        5.5518        5.5518       3.714071       0.04695
  26     33.73        1.8378        0.0000        5.5268        5.5268       3.688961       0.03775
  25     40.54        1.8379        0.0000        5.4993        5.4993       3.661448       0.03413
  24     48.69        1.8380        0.0000        5.4678        5.4678       3.629821       0.03273
  23     57.69        1.8381        0.0000        5.4340        5.4340       3.595937       0.03176
  22     68.43        1.8382        0.0000        5.3947        5.3948       3.556545       0.03097
  21     81.20        1.8384        0.0000        5.3497        5.3497       3.511367       0.02985
  20     96.49        1.8386        0.0000        5.2982        5.2982       3.459673       0.02853
  19     114.6        1.8388        0.0000        5.2389        5.2389       3.400128       0.02780
  18     136.5        1.8391        0.0000        5.1716        5.1717       3.332590       0.02597
  17     162.9        1.8395        0.0000        5.0890        5.0891       3.249557       0.02654
  16     196.4        1.8402        0.0000        4.9668        4.9668       3.126618       0.03095
  15     218.7        1.8409        0.0000        4.8585        4.8585       3.017561       0.04140
  14     243.0        1.8420        0.0000        4.7078        4.7079       2.865824       0.05263
  13     269.0        1.8437        0.0000        4.5343        4.5343       2.690586       0.05685
  12     297.5        1.8464        0.0000        4.3419        4.3420       2.495614       0.05783
  11     328.5        1.8499        0.0000        4.1281        4.1281       2.278242       0.05910
  10     361.9        1.8546        0.0000        3.8786        3.8787       2.024063       0.06431
   9     398.1        1.8607        0.0000        3.6159        3.6160       1.755242       0.06263
   8     437.6        1.8686        0.0000        3.3759        3.3759       1.507279       0.05302
   7     480.5        1.8783        0.0000        3.1957        3.1958       1.317480       0.03728
   6     533.0        1.8931        0.0001        3.0467        3.0467       1.153660       0.02635
   5     589.8        1.9149        0.0001        2.9023        2.9023       0.987472       0.02467
   4     651.6        1.9529        0.0001        2.7183        2.7184       0.765506       0.03035
   3     718.7        2.0196        0.0001        2.5058        2.5059       0.486300       0.03509
   2     792.3        2.1527        0.0001        2.2756        2.2757       0.122994       0.04167
   1     891.5        0.0117        0.0196        0.0000        0.0196       0.007933       0.00979
   0    1013.0        0.0134        0.0169        0.0000        0.0169       0.003487       0.00031

  Modules and versions used in this calculation:

       rrtmg_sw.1col.f90:  $Revision$                    rrtmg_sw_init.f90:  $Revision$        
     rrtmgsw_cldprop.f90:  $Revision$                  rrtmgsw_cldprmc.f90:  NOT USED          
     rrtmg_sw_reftra.f90:  $Revision$                  rrtmg_sw_spcvrt.f90:  NOT USED          
     rrtmg_sw_spcvmc.f90:  NOT USED                    rrtmgsw_setcoef.f90:  NOT USED          
     rrtmg_sw_taumol.f90:  $Revision$                  rrtmg_sw_vrtqdr.f90:  NOT USED          
                rrtatm.f:  NOT USED                             util_xxx.f:  NOT USED          
                 extra.f:  NOT USED                       rrtmg_sw_k_g.f90:  $Revision$        

