

 Wavenumbers:   820. - 50000. cm-1, ATM      1
 LEVEL PRESSURE   UPWARD FLUX   DIFDOWN FLUX  DIRDOWN FLUX  DOWNWARD FLUX   NET FLUX    HEATING RATE
          mb          W/m2          W/m2          W/m2        W/m2          W/m2       degree/day
  51    .06700      441.4382        0.0000      617.8126      617.8126     176.374381       0.00000
  50    .07753      441.4378        0.0014      617.7947      617.7961     176.358239      12.93803
  49    .09103      441.4374        0.0030      617.7778      617.7808     176.343427       9.25804
  48    0.1069      441.4369        0.0050      617.7581      617.7631     176.326162       9.18996
  47    0.1255      441.4364        0.0072      617.7340      617.7412     176.304814       9.67832
  46    0.1487      441.4358        0.0101      617.7009      617.7109     176.275124      10.82254
  45    0.1794      441.4351        0.0139      617.6521      617.6660     176.230886      12.14440
  44    0.2165      441.4344        0.0184      617.5895      617.6079     176.173555      13.04165
  43    0.2613      441.4337        0.0238      617.5089      617.5327     176.099031      14.04750
  42    0.3336      441.4328        0.0327      617.3641      617.3968     175.963925      15.75198
  41    0.4307      441.4322        0.0443      617.1591      617.2034     175.771272      16.75073
  40    0.5894      441.4320        0.0631      616.8005      616.8636     175.431528      18.06716
  39     1.339      441.4497        0.1480      614.9443      615.0923     173.642580      20.14031
  38     1.782      441.4728        0.1958      613.9670      614.1628     172.690061      18.13442
  37     2.292      441.5110        0.2502      613.0059      613.2561     171.745091      15.65117
  36     2.964      441.5785        0.3209      611.9577      612.2785     170.700055      13.11836
  35     3.853      441.6918        0.4135      610.8024      611.2159     169.524176      11.15931
  34     5.035      441.8661        0.5359      609.5327      610.0686     168.202512       9.44142
  33     6.613      442.1115        0.6982      608.1464      608.8447     166.733109       7.85543
  32     8.786      442.4313        0.9160      606.6250      607.5411     165.109741       6.30458
  31     11.80      442.8454        1.2261      604.8486      606.0748     163.229350       5.26450
  30     15.07      443.2396        1.5571      603.2440      604.8010     161.561419       4.30627
  29     18.79      443.6398        1.9294      601.6511      603.5805     159.940781       3.67448
  28     23.16      444.0552        2.3621      599.9927      602.3548     158.299549       3.17361
  27     28.12      444.4695        2.8545      598.2881      601.1426     156.673108       2.76484
  26     33.73      444.8441        3.4035      596.5951      599.9986     155.154540       2.28321
  25     40.54      445.1930        4.0645      594.7727      598.8372     153.644197       1.87375
  24     48.69      445.5133        4.8577      592.7865      597.6442     152.130859       1.56607
  23     57.69      445.7678        5.7247      590.7959      596.5206     150.752831       1.29169
  22     68.43      445.9653        6.7519      588.6191      595.3710     149.405766       1.05897
  21     81.20      446.0537        7.9698      586.2690      594.2388     148.185029       0.80664
  20     96.49      446.0231        9.4117      583.6961      593.1079     147.084728       0.60729
  19     114.6      445.9317       11.1082      580.7708      591.8790     145.947289       0.53110
  18     136.5      445.7790       13.0946      577.4359      590.5305     144.751500       0.45981
  17     162.9      445.5596       15.4258      573.5624      588.9883     143.428681       0.42283
  16     196.4      445.1883       18.3989      568.5907      586.9896     141.801270       0.40964
  15     218.7      444.9167       20.3212      565.0572      585.3784     140.461693       0.50859
  14     243.0      444.6142       22.3830      560.7495      583.1325     138.518333       0.67402
  13     269.0      444.2825       24.5858      555.3947      579.9805     135.697990       0.91491
  12     297.5      443.9277       26.9303      548.9964      575.9267     131.998961       1.09709
  11     328.5      443.5601       29.4229      542.0895      571.5125     127.952400       1.10025
  10     361.9      443.1879       32.0599      534.6242      566.6841     123.496170       1.12747
   9     398.1      442.8230       34.8458      526.4204      561.2662     118.443156       1.17724
   8     437.6      442.4885       37.7792      517.3907      555.1699     112.681433       1.23189
   7     480.5      442.2090       40.8583      507.7216      548.5799     106.370932       1.23936
   6     533.0      442.0132       44.5603      495.9006      540.4610      98.447786       1.27458
   5     589.8      442.0728       48.4450      483.0788      531.5238      89.451069       1.33541
   4     651.6      442.6995       52.4995      468.6907      521.1902      78.490672       1.49886
   3     718.7      444.3338       56.7157      453.2257      509.9414      65.607627       1.61904
   2     792.3      448.1442       61.0713      436.4928      497.5642      49.419927       1.85655
   1     891.5      292.2846      327.3869        0.5586      327.9455      35.660921       1.17083
   0    1013.0      295.8946      321.4114        0.5242      321.9356      26.041013       0.66796



 Wavenumbers:  2600. -  3250. cm-1, ATM      1
 LEVEL PRESSURE   UPWARD FLUX   DIFDOWN FLUX  DIRDOWN FLUX  DOWNWARD FLUX   NET FLUX    HEATING RATE
          mb          W/m2          W/m2          W/m2        W/m2          W/m2       degree/day
  51    .06700        1.8894        0.0000        5.4450        5.4450       3.555622       0.00000
  50    .07753        1.8894        0.0000        5.4450        5.4450       3.555614       0.00640
  49    .09103        1.8894        0.0000        5.4450        5.4450       3.555604       0.00627
  48    0.1069        1.8894        0.0000        5.4450        5.4450       3.555593       0.00613
  47    0.1255        1.8894        0.0000        5.4450        5.4450       3.555580       0.00599
  46    0.1487        1.8894        0.0000        5.4450        5.4450       3.555563       0.00608
  45    0.1794        1.8894        0.0000        5.4450        5.4450       3.555540       0.00625
  44    0.2165        1.8894        0.0000        5.4449        5.4449       3.555513       0.00612
  43    0.2613        1.8894        0.0000        5.4449        5.4449       3.555482       0.00600
  42    0.3336        1.8894        0.0000        5.4448        5.4448       3.555429       0.00617
  41    0.4307        1.8894        0.0000        5.4448        5.4448       3.555357       0.00620
  40    0.5894        1.8894        0.0000        5.4446        5.4446       3.555238       0.00637
  39     1.339        1.8894        0.0000        5.4439        5.4439       3.554530       0.00797
  38     1.782        1.8894        0.0000        5.4434        5.4434       3.553987       0.01034
  37     2.292        1.8894        0.0000        5.4427        5.4427       3.553271       0.01186
  36     2.964        1.8894        0.0000        5.4416        5.4416       3.552232       0.01304
  35     3.853        1.8894        0.0000        5.4402        5.4402       3.550755       0.01402
  34     5.035        1.8894        0.0000        5.4381        5.4381       3.548699       0.01469
  33     6.613        1.8894        0.0000        5.4353        5.4353       3.545918       0.01487
  32     8.786        1.8894        0.0000        5.4317        5.4317       3.542285       0.01411
  31     11.80        1.8894        0.0000        5.4269        5.4269       3.537503       0.01339
  30     15.07        1.8894        0.0000        5.4224        5.4224       3.532974       0.01169
  29     18.79        1.8894        0.0000        5.4180        5.4180       3.528558       0.01001
  28     23.16        1.8894        0.0000        5.4135        5.4135       3.524066       0.00869
  27     28.12        1.8894        0.0000        5.4088        5.4088       3.519411       0.00791
  26     33.73        1.8894        0.0000        5.4036        5.4036       3.514159       0.00790
  25     40.54        1.8895        0.0000        5.3966        5.3967       3.507200       0.00863
  24     48.69        1.8895        0.0000        5.3872        5.3872       3.497696       0.00983
  23     57.69        1.8895        0.0000        5.3754        5.3754       3.485875       0.01108
  22     68.43        1.8896        0.0000        5.3599        5.3599       3.470333       0.01222
  21     81.20        1.8897        0.0000        5.3401        5.3401       3.450422       0.01316
  20     96.49        1.8898        0.0000        5.3155        5.3155       3.425747       0.01362
  19     114.6        1.8900        0.0001        5.2853        5.2854       3.395400       0.01417
  18     136.5        1.8902        0.0001        5.2504        5.2505       3.360281       0.01350
  17     162.9        1.8905        0.0001        5.2111        5.2112       3.320632       0.01267
  16     196.4        1.8911        0.0001        5.1640        5.1641       3.273031       0.01198
  15     218.7        1.8916        0.0001        5.1331        5.1332       3.241553       0.01195
  14     243.0        1.8926        0.0001        5.0962        5.0963       3.203735       0.01312
  13     269.0        1.8940        0.0001        5.0511        5.0512       3.157178       0.01510
  12     297.5        1.8962        0.0001        4.9956        4.9957       3.099512       0.01710
  11     328.5        1.8993        0.0001        4.9304        4.9305       3.031227       0.01857
  10     361.9        1.9035        0.0002        4.8511        4.8513       2.947748       0.02112
   9     398.1        1.9093        0.0002        4.7507        4.7508       2.841512       0.02475
   8     437.6        1.9175        0.0002        4.6220        4.6222       2.704761       0.02924
   7     480.5        1.9287        0.0002        4.4625        4.4627       2.533938       0.03355
   6     533.0        1.9472        0.0002        4.2460        4.2462       2.299084       0.03778
   5     589.8        1.9754        0.0002        3.9954        3.9956       2.020228       0.04139
   4     651.6        2.0222        0.0002        3.7089        3.7091       1.686827       0.04559
   3     718.7        2.1003        0.0002        3.4018        3.4020       1.301729       0.04840
   2     792.3        2.2439        0.0002        3.0564        3.0567       0.812804       0.05607
   1     891.5        0.6476        1.0632        0.0035        1.0667       0.419167       0.03350
   0    1013.0        0.7291        0.9158        0.0028        0.9186       0.189443       0.01595



 Wavenumbers:  3250. -  4000. cm-1, ATM      1
 LEVEL PRESSURE   UPWARD FLUX   DIFDOWN FLUX  DIRDOWN FLUX  DOWNWARD FLUX   NET FLUX    HEATING RATE
          mb          W/m2          W/m2          W/m2        W/m2          W/m2       degree/day
  51    .06700        0.0566        0.0000        9.1795        9.1795       9.122934       0.00000
  50    .07753        0.0566        0.0000        9.1747        9.1747       9.118092       3.88148
  49    .09103        0.0566        0.0000        9.1713        9.1713       9.114704       2.11747
  48    0.1069        0.0566        0.0000        9.1688        9.1688       9.112179       1.34402
  47    0.1255        0.0566        0.0000        9.1665        9.1665       9.109920       1.02422
  46    0.1487        0.0566        0.0000        9.1641        9.1641       9.107478       0.88991
  45    0.1794        0.0566        0.0000        9.1612        9.1612       9.104600       0.79008
  44    0.2165        0.0566        0.0000        9.1583        9.1583       9.101680       0.66430
  43    0.2613        0.0566        0.0000        9.1553        9.1553       9.098707       0.56041
  42    0.3336        0.0566        0.0000        9.1511        9.1511       9.094528       0.48723
  41    0.4307        0.0566        0.0000        9.1464        9.1464       9.089760       0.41459
  40    0.5894        0.0566        0.0000        9.1393        9.1394       9.082754       0.37255
  39     1.339        0.0566        0.0000        9.1127        9.1127       9.056141       0.29962
  38     1.782        0.0566        0.0000        9.1011        9.1011       9.044552       0.22062
  37     2.292        0.0566        0.0000        9.0901        9.0901       9.033486       0.18329
  36     2.964        0.0566        0.0000        9.0776        9.0776       9.021056       0.15603
  35     3.853        0.0566        0.0000        9.0629        9.0629       9.006266       0.14036
  34     5.035        0.0566        0.0000        9.0441        9.0441       8.987527       0.13386
  33     6.613        0.0566        0.0000        9.0191        9.0191       8.962525       0.13366
  32     8.786        0.0566        0.0000        8.9843        8.9843       8.927742       0.13509
  31     11.80        0.0566        0.0000        8.9327        8.9327       8.876125       0.14451
  30     15.07        0.0566        0.0000        8.8758        8.8759       8.819280       0.14676
  29     18.79        0.0566        0.0000        8.8110        8.8110       8.754453       0.14698
  28     23.16        0.0566        0.0000        8.7365        8.7366       8.680008       0.14395
  27     28.12        0.0566        0.0000        8.6554        8.6555       8.598895       0.13789
  26     33.73        0.0566        0.0000        8.5719        8.5719       8.515396       0.12554
  25     40.54        0.0565        0.0001        8.4812        8.4812       8.424672       0.11255
  24     48.69        0.0565        0.0001        8.3838        8.3839       8.327370       0.10069
  23     57.69        0.0565        0.0001        8.2861        8.2862       8.229635       0.09161
  22     68.43        0.0565        0.0001        8.1751        8.1751       8.118638       0.08726
  21     81.20        0.0565        0.0001        8.0457        8.0458       7.989280       0.08548
  20     96.49        0.0565        0.0001        7.8949        7.8951       7.838576       0.08318
  19     114.6        0.0565        0.0001        7.7162        7.7163       7.659866       0.08344
  18     136.5        0.0564        0.0002        7.5193        7.5195       7.463022       0.07569
  17     162.9        0.0564        0.0002        7.2913        7.2915       7.235129       0.07284
  16     196.4        0.0564        0.0002        6.9660        6.9662       6.909852       0.08188
  15     218.7        0.0564        0.0002        6.6648        6.6650       6.608654       0.11435
  14     243.0        0.0564        0.0002        6.2619        6.2622       6.205836       0.13971
  13     269.0        0.0564        0.0003        5.7576        5.7579       5.701479       0.16361
  12     297.5        0.0565        0.0003        5.1719        5.1722       5.115665       0.17375
  11     328.5        0.0567        0.0002        4.5757        4.5760       4.519291       0.16215
  10     361.9        0.0570        0.0002        3.9995        3.9998       3.942761       0.14587
   9     398.1        0.0576        0.0002        3.4655        3.4657       3.408123       0.12456
   8     437.6        0.0585        0.0002        2.9740        2.9743       2.915707       0.10528
   7     480.5        0.0601        0.0002        2.5307        2.5309       2.470768       0.08738
   6     533.0        0.0631        0.0002        2.0614        2.0616       1.998450       0.07598
   5     589.8        0.0686        0.0002        1.6150        1.6151       1.546498       0.06708
   4     651.6        0.0802        0.0001        1.1565        1.1566       1.076416       0.06429
   3     718.7        0.1056        0.0001        0.7390        0.7391       0.633481       0.05566
   2     792.3        0.1736        0.0001        0.3985        0.3985       0.224942       0.04685
   1     891.5        0.0002        0.0218        0.0002        0.0220       0.021801       0.01729
   0    1013.0        0.0018        0.0023        0.0000        0.0023       0.000470       0.00148



 Wavenumbers:  4000. -  4650. cm-1, ATM      1
 LEVEL PRESSURE   UPWARD FLUX   DIFDOWN FLUX  DIRDOWN FLUX  DOWNWARD FLUX   NET FLUX    HEATING RATE
          mb          W/m2          W/m2          W/m2        W/m2          W/m2       degree/day
  51    .06700        6.3108        0.0000       10.7795       10.7795       4.468693       0.00000
  50    .07753        6.3108        0.0000       10.7795       10.7795       4.468692       0.00080
  49    .09103        6.3108        0.0000       10.7795       10.7795       4.468691       0.00078
  48    0.1069        6.3108        0.0000       10.7795       10.7795       4.468689       0.00077
  47    0.1255        6.3108        0.0000       10.7795       10.7795       4.468688       0.00075
  46    0.1487        6.3108        0.0000       10.7795       10.7795       4.468685       0.00076
  45    0.1794        6.3108        0.0000       10.7795       10.7795       4.468683       0.00078
  44    0.2165        6.3108        0.0000       10.7795       10.7795       4.468679       0.00076
  43    0.2613        6.3108        0.0000       10.7795       10.7795       4.468675       0.00075
  42    0.3336        6.3108        0.0000       10.7795       10.7795       4.468669       0.00077
  41    0.4307        6.3108        0.0000       10.7795       10.7795       4.468660       0.00077
  40    0.5894        6.3108        0.0000       10.7795       10.7795       4.468645       0.00080
  39     1.339        6.3108        0.0000       10.7794       10.7794       4.468555       0.00101
  38     1.782        6.3108        0.0000       10.7793       10.7793       4.468485       0.00133
  37     2.292        6.3108        0.0000       10.7792       10.7792       4.468391       0.00156
  36     2.964        6.3108        0.0000       10.7791       10.7791       4.468250       0.00177
  35     3.853        6.3108        0.0000       10.7789       10.7789       4.468042       0.00198
  34     5.035        6.3108        0.0000       10.7786       10.7786       4.467734       0.00220
  33     6.613        6.3108        0.0000       10.7781       10.7781       4.467282       0.00242
  32     8.786        6.3108        0.0000       10.7774       10.7775       4.466613       0.00260
  31     11.80        6.3108        0.0001       10.7763       10.7764       4.465562       0.00294
  30     15.07        6.3108        0.0001       10.7751       10.7752       4.464328       0.00319
  29     18.79        6.3108        0.0001       10.7736       10.7737       4.462835       0.00339
  28     23.16        6.3108        0.0001       10.7717       10.7718       4.460980       0.00359
  27     28.12        6.3109        0.0001       10.7695       10.7696       4.458732       0.00382
  26     33.73        6.3109        0.0002       10.7667       10.7668       4.455958       0.00417
  25     40.54        6.3109        0.0002       10.7629       10.7631       4.452193       0.00467
  24     48.69        6.3110        0.0002       10.7579       10.7582       4.447169       0.00520
  23     57.69        6.3111        0.0003       10.7520       10.7523       4.441205       0.00559
  22     68.43        6.3112        0.0003       10.7446       10.7449       4.433720       0.00588
  21     81.20        6.3114        0.0004       10.7355       10.7359       4.424486       0.00610
  20     96.49        6.3117        0.0005       10.7245       10.7249       4.413227       0.00621
  19     114.6        6.3122        0.0006       10.7107       10.7113       4.399115       0.00659
  18     136.5        6.3128        0.0007       10.6942       10.6949       4.382068       0.00655
  17     162.9        6.3137        0.0008       10.6740       10.6748       4.361100       0.00670
  16     196.4        6.3153        0.0010       10.6464       10.6473       4.332047       0.00731
  15     218.7        6.3167        0.0011       10.6255       10.6265       4.309859       0.00842
  14     243.0        6.3187        0.0012       10.5980       10.5992       4.280539       0.01017
  13     269.0        6.3217        0.0013       10.5611       10.5624       4.240696       0.01292
  12     297.5        6.3261        0.0014       10.5119       10.5134       4.187282       0.01584
  11     328.5        6.3321        0.0016       10.4499       10.4515       4.119315       0.01848
  10     361.9        6.3401        0.0017       10.3702       10.3719       4.031842       0.02213
   9     398.1        6.3500        0.0019       10.2678       10.2697       3.919629       0.02614
   8     437.6        6.3628        0.0021       10.1390       10.1411       3.778251       0.03023
   7     480.5        6.3792        0.0022        9.9877        9.9899       3.610763       0.03289
   6     533.0        6.4044        0.0024        9.7937        9.7961       3.391681       0.03524
   5     589.8        6.4412        0.0027        9.5752        9.5778       3.136675       0.03785
   4     651.6        6.5007        0.0029        9.2958        9.2987       2.798028       0.04631
   3     718.7        6.6015        0.0031        8.9267        8.9298       2.328326       0.05903
   2     792.3        6.7934        0.0033        8.4542        8.4575       1.664063       0.07618
   1     891.5        2.7242        3.8190        0.0105        3.8296       1.105309       0.04755
   0    1013.0        2.8587        3.5918        0.0096        3.6013       0.742595       0.02519



 Wavenumbers:  4650. -  5150. cm-1, ATM      1
 LEVEL PRESSURE   UPWARD FLUX   DIFDOWN FLUX  DIRDOWN FLUX  DOWNWARD FLUX   NET FLUX    HEATING RATE
          mb          W/m2          W/m2          W/m2        W/m2          W/m2       degree/day
  51    .06700        4.5357        0.0000       10.2033       10.2033       5.667671       0.00000
  50    .07753        4.5357        0.0000       10.2031       10.2031       5.667436       0.18901
  49    .09103        4.5357        0.0000       10.2028       10.2028       5.667141       0.18428
  48    0.1069        4.5357        0.0000       10.2025       10.2025       5.666804       0.17931
  47    0.1255        4.5357        0.0000       10.2021       10.2021       5.666420       0.17426
  46    0.1487        4.5357        0.0000       10.2016       10.2016       5.665938       0.17536
  45    0.1794        4.5357        0.0000       10.2010       10.2010       5.665288       0.17850
  44    0.2165        4.5357        0.0000       10.2002       10.2002       5.664529       0.17277
  43    0.2613        4.5357        0.0000       10.1993       10.1993       5.663643       0.16690
  42    0.3336        4.5357        0.0000       10.1979       10.1979       5.662211       0.16702
  41    0.4307        4.5357        0.0000       10.1960       10.1960       5.660370       0.16002
  40    0.5894        4.5357        0.0000       10.1932       10.1932       5.657496       0.15283
  39     1.339        4.5357        0.0000       10.1816       10.1816       5.645904       0.13051
  38     1.782        4.5357        0.0000       10.1760       10.1760       5.640375       0.10527
  37     2.292        4.5357        0.0000       10.1706       10.1706       5.634918       0.09038
  36     2.964        4.5357        0.0000       10.1646       10.1647       5.628994       0.07437
  35     3.853        4.5357        0.0000       10.1584       10.1584       5.622777       0.05899
  34     5.035        4.5357        0.0000       10.1521       10.1521       5.616438       0.04528
  33     6.613        4.5357        0.0000       10.1456       10.1456       5.609976       0.03455
  32     8.786        4.5357        0.0001       10.1386       10.1386       5.602955       0.02727
  31     11.80        4.5357        0.0001       10.1295       10.1296       5.593896       0.02536
  30     15.07        4.5357        0.0001       10.1196       10.1197       5.583992       0.02557
  29     18.79        4.5358        0.0001       10.1076       10.1077       5.571949       0.02731
  28     23.16        4.5358        0.0002       10.0923       10.0924       5.556593       0.02969
  27     28.12        4.5359        0.0002       10.0731       10.0733       5.537429       0.03258
  26     33.73        4.5360        0.0002       10.0500       10.0503       5.514241       0.03486
  25     40.54        4.5362        0.0003       10.0201       10.0204       5.484204       0.03726
  24     48.69        4.5365        0.0003        9.9820        9.9823       5.445842       0.03970
  23     57.69        4.5368        0.0004        9.9384        9.9388       5.402058       0.04104
  22     68.43        4.5372        0.0005        9.8858        9.8862       5.348986       0.04172
  21     81.20        4.5379        0.0006        9.8234        9.8240       5.286125       0.04154
  20     96.49        4.5388        0.0007        9.7518        9.7524       5.213656       0.04000
  19     114.6        4.5400        0.0008        9.6719        9.6727       5.132708       0.03780
  18     136.5        4.5417        0.0009        9.5858        9.5867       5.045032       0.03371
  17     162.9        4.5441        0.0011        9.4940        9.4951       4.951082       0.03003
  16     196.4        4.5477        0.0013        9.3883        9.3896       4.841898       0.02748
  15     218.7        4.5506        0.0015        9.3229        9.3244       4.773818       0.02585
  14     243.0        4.5543        0.0016        9.2520        9.2536       4.699323       0.02584
  13     269.0        4.5592        0.0018        9.1717        9.1734       4.614196       0.02761
  12     297.5        4.5662        0.0019        9.0763        9.0782       4.512045       0.03030
  11     328.5        4.5752        0.0021        8.9650        8.9671       4.391870       0.03268
  10     361.9        4.5869        0.0023        8.8349        8.8372       4.250336       0.03581
   9     398.1        4.6021        0.0025        8.6820        8.6845       4.082462       0.03911
   8     437.6        4.6218        0.0027        8.5028        8.5055       3.883704       0.04250
   7     480.5        4.6475        0.0029        8.2948        8.2978       3.650211       0.04586
   6     533.0        4.6868        0.0032        8.0209        8.0241       3.337231       0.05035
   5     589.8        4.7416        0.0034        7.7063        7.7098       2.968154       0.05478
   4     651.6        4.8229        0.0037        7.3412        7.3449       2.521989       0.06101
   3     718.7        4.9464        0.0039        6.9387        6.9425       1.996087       0.06609
   2     792.3        5.1454        0.0041        6.5066        6.5107       1.365288       0.07235
   1     891.5        1.9401        2.7961        0.0080        2.8041       0.864047       0.04265
   0    1013.0        2.0644        2.5935        0.0072        2.6007       0.536279       0.02276



 Wavenumbers:  5150. -  6150. cm-1, ATM      1
 LEVEL PRESSURE   UPWARD FLUX   DIFDOWN FLUX  DIRDOWN FLUX  DOWNWARD FLUX   NET FLUX    HEATING RATE
          mb          W/m2          W/m2          W/m2        W/m2          W/m2       degree/day
  51    .06700       10.9114        0.0000       25.5798       25.5798      14.668458       0.00000
  50    .07753       10.9114        0.0000       25.5798       25.5798      14.668419       0.03162
  49    .09103       10.9114        0.0000       25.5797       25.5797      14.668368       0.03211
  48    0.1069       10.9114        0.0000       25.5797       25.5797      14.668306       0.03261
  47    0.1255       10.9114        0.0000       25.5796       25.5796      14.668233       0.03311
  46    0.1487       10.9114        0.0000       25.5795       25.5795      14.668138       0.03489
  45    0.1794       10.9114        0.0000       25.5794       25.5794      14.668002       0.03713
  44    0.2165       10.9114        0.0000       25.5792       25.5792      14.667837       0.03769
  43    0.2613       10.9114        0.0000       25.5790       25.5790      14.667634       0.03827
  42    0.3336       10.9114        0.0000       25.5786       25.5786      14.667287       0.04043
  41    0.4307       10.9114        0.0000       25.5782       25.5782      14.666816       0.04098
  40    0.5894       10.9114        0.0000       25.5774       25.5774      14.666026       0.04199
  39     1.339       10.9114        0.0000       25.5735       25.5736      14.662222       0.04283
  38     1.782       10.9114        0.0001       25.5713       25.5714      14.660007       0.04218
  37     2.292       10.9113        0.0001       25.5688       25.5688      14.657499       0.04154
  36     2.964       10.9113        0.0001       25.5656       25.5657      14.654312       0.04000
  35     3.853       10.9114        0.0001       25.5615       25.5616      14.650261       0.03845
  34     5.035       10.9114        0.0002       25.5562       25.5564      14.645042       0.03728
  33     6.613       10.9114        0.0002       25.5494       25.5496      14.638270       0.03620
  32     8.786       10.9114        0.0003       25.5406       25.5409      14.629492       0.03409
  31     11.80       10.9114        0.0004       25.5287       25.5290      14.617614       0.03325
  30     15.07       10.9115        0.0005       25.5167       25.5172      14.605696       0.03077
  29     18.79       10.9115        0.0006       25.5042       25.5048      14.593229       0.02827
  28     23.16       10.9116        0.0007       25.4907       25.4914      14.579789       0.02599
  27     28.12       10.9117        0.0009       25.4764       25.4773      14.565606       0.02411
  26     33.73       10.9119        0.0011       25.4620       25.4631      14.551212       0.02164
  25     40.54       10.9121        0.0013       25.4463       25.4475      14.535442       0.01957
  24     48.69       10.9124        0.0016       25.4294       25.4309      14.518511       0.01752
  23     57.69       10.9128        0.0018       25.4126       25.4144      14.501657       0.01580
  22     68.43       10.9133        0.0022       25.3944       25.3966      14.483312       0.01442
  21     81.20       10.9139        0.0026       25.3744       25.3770      14.463076       0.01337
  20     96.49       10.9147        0.0031       25.3519       25.3550      14.440289       0.01258
  19     114.6       10.9157        0.0036       25.3262       25.3298      14.414115       0.01222
  18     136.5       10.9169        0.0043       25.2962       25.3005      14.383612       0.01173
  17     162.9       10.9184        0.0051       25.2521       25.2572      14.338822       0.01432
  16     196.4       10.9205        0.0062       25.1593       25.1655      14.244988       0.02362
  15     218.7       10.9220        0.0069       25.0159       25.0228      14.100797       0.05474
  14     243.0       10.9238        0.0076       24.7089       24.7165      13.792630       0.10688
  13     269.0       10.9262        0.0082       24.1619       24.1701      13.243891       0.17801
  12     297.5       10.9294        0.0089       23.4544       23.4633      12.533898       0.21058
  11     328.5       10.9336        0.0096       22.7355       22.7451      11.811499       0.19642
  10     361.9       10.9391        0.0103       21.9224       21.9327      10.993650       0.20692
   9     398.1       10.9465        0.0110       20.9939       21.0049      10.058427       0.21789
   8     437.6       10.9567        0.0117       19.9833       19.9950       9.038254       0.21812
   7     480.5       10.9709        0.0123       18.9483       18.9606       7.989700       0.20593
   6     533.0       10.9949        0.0131       17.7796       17.7926       6.797731       0.19175
   5     589.8       11.0338        0.0138       16.6726       16.6864       5.652611       0.16997
   4     651.6       11.1048        0.0146       15.6343       15.6489       4.544046       0.15160
   3     718.7       11.2352        0.0154       14.7738       14.7892       3.553960       0.12443
   2     792.3       11.4969        0.0164       14.0291       14.0455       2.548536       0.11531
   1     891.5        4.9529        6.7083        0.0177        6.7259       1.773012       0.06599
   0    1013.0        5.1036        6.4130        0.0162        6.4293       1.325661       0.03106



 Wavenumbers:  6150. -  7700. cm-1, ATM      1
 LEVEL PRESSURE   UPWARD FLUX   DIFDOWN FLUX  DIRDOWN FLUX  DOWNWARD FLUX   NET FLUX    HEATING RATE
          mb          W/m2          W/m2          W/m2        W/m2          W/m2       degree/day
  51    .06700       17.2729        0.0000       47.3109       47.3109      30.037913       0.00000
  50    .07753       17.2729        0.0000       47.3108       47.3108      30.037856       0.04553
  49    .09103       17.2729        0.0000       47.3107       47.3107      30.037783       0.04583
  48    0.1069       17.2729        0.0000       47.3106       47.3106      30.037696       0.04614
  47    0.1255       17.2729        0.0000       47.3105       47.3105      30.037594       0.04645
  46    0.1487       17.2729        0.0000       47.3104       47.3104      30.037461       0.04852
  45    0.1794       17.2729        0.0000       47.3102       47.3102      30.037274       0.05127
  44    0.2165       17.2729        0.0000       47.3100       47.3100      30.037047       0.05167
  43    0.2613       17.2729        0.0000       47.3097       47.3097      30.036770       0.05210
  42    0.3336       17.2729        0.0000       47.3092       47.3092      30.036301       0.05471
  41    0.4307       17.2729        0.0000       47.3085       47.3086      30.035666       0.05521
  40    0.5894       17.2729        0.0001       47.3074       47.3075      30.034607       0.05633
  39     1.339       17.2728        0.0002       47.3022       47.3024      30.029515       0.05733
  38     1.782       17.2728        0.0002       47.2991       47.2994      30.026545       0.05655
  37     2.292       17.2728        0.0003       47.2956       47.2959      30.023169       0.05591
  36     2.964       17.2727        0.0004       47.2912       47.2916      30.018850       0.05421
  35     3.853       17.2727        0.0005       47.2855       47.2860      30.013316       0.05252
  34     5.035       17.2726        0.0007       47.2780       47.2787      30.006135       0.05129
  33     6.613       17.2724        0.0009       47.2683       47.2692      29.996747       0.05019
  32     8.786       17.2723        0.0011       47.2556       47.2567      29.984448       0.04777
  31     11.80       17.2720        0.0015       47.2380       47.2396      29.967544       0.04733
  30     15.07       17.2718        0.0020       47.2201       47.2220      29.950256       0.04463
  29     18.79       17.2715        0.0025       47.2008       47.2033      29.931775       0.04190
  28     23.16       17.2712        0.0030       47.1795       47.1825      29.911384       0.03943
  27     28.12       17.2708        0.0037       47.1565       47.1602      29.889389       0.03739
  26     33.73       17.2703        0.0044       47.1324       47.1368      29.866466       0.03447
  25     40.54       17.2698        0.0053       47.1054       47.1107      29.840827       0.03181
  24     48.69       17.2692        0.0063       47.0754       47.0818      29.812570       0.02924
  23     57.69       17.2685        0.0075       47.0449       47.0525      29.783944       0.02683
  22     68.43       17.2677        0.0089       47.0110       47.0199      29.752202       0.02495
  21     81.20       17.2667        0.0106       46.9729       46.9834      29.716701       0.02346
  20     96.49       17.2656        0.0125       46.9294       46.9419      29.676350       0.02227
  19     114.6       17.2642        0.0149       46.8790       46.8939      29.629702       0.02178
  18     136.5       17.2626        0.0177       46.8200       46.8377      29.575058       0.02101
  17     162.9       17.2607        0.0210       46.7361       46.7571      29.496398       0.02514
  16     196.4       17.2584        0.0253       46.5703       46.5956      29.337105       0.04010
  15     218.7       17.2571        0.0281       46.3473       46.3754      29.118226       0.08310
  14     243.0       17.2561        0.0310       45.9299       45.9608      28.704752       0.14341
  13     269.0       17.2557        0.0339       45.1708       45.2047      27.948943       0.24518
  12     297.5       17.2568        0.0368       44.0115       44.0482      26.791402       0.34331
  11     328.5       17.2599        0.0397       42.7242       42.7639      25.504035       0.35003
  10     361.9       17.2659        0.0427       41.3539       41.3966      24.130728       0.34746
   9     398.1       17.2765        0.0456       39.7953       39.8409      22.564381       0.36492
   8     437.6       17.2946        0.0484       37.9948       38.0431      20.748585       0.38823
   7     480.5       17.3236        0.0510       36.0647       36.1157      18.792180       0.38423
   6     533.0       17.3783        0.0539       33.7773       33.8312      16.452915       0.37631
   5     589.8       17.4739        0.0565       31.4082       31.4647      13.990860       0.36545
   4     651.6       17.6586        0.0587       28.8834       28.9421      11.283456       0.37024
   3     718.7       18.0126        0.0607       26.4104       26.4710       8.458425       0.35503
   2     792.3       18.7668        0.0623       24.0056       24.0679       5.301075       0.36211
   1     891.5        7.1470       10.1960        0.0286       10.2246       3.077611       0.18921
   0    1013.0        7.5270        9.4572        0.0251        9.4823       1.955251       0.07793



 Wavenumbers:  7700. -  8050. cm-1, ATM      1
 LEVEL PRESSURE   UPWARD FLUX   DIFDOWN FLUX  DIRDOWN FLUX  DOWNWARD FLUX   NET FLUX    HEATING RATE
          mb          W/m2          W/m2          W/m2        W/m2          W/m2       degree/day
  51    .06700        8.0780        0.0000       11.1810       11.1810       3.103003       0.00000
  50    .07753        8.0780        0.0000       11.1809       11.1809       3.102979       0.01876
  49    .09103        8.0780        0.0000       11.1809       11.1809       3.102950       0.01839
  48    0.1069        8.0780        0.0000       11.1809       11.1809       3.102916       0.01800
  47    0.1255        8.0780        0.0000       11.1809       11.1809       3.102877       0.01762
  46    0.1487        8.0780        0.0000       11.1808       11.1808       3.102828       0.01787
  45    0.1794        8.0780        0.0000       11.1808       11.1808       3.102761       0.01839
  44    0.2165        8.0780        0.0000       11.1807       11.1807       3.102682       0.01804
  43    0.2613        8.0781        0.0000       11.1806       11.1806       3.102588       0.01771
  42    0.3336        8.0781        0.0000       11.1805       11.1805       3.102433       0.01812
  41    0.4307        8.0781        0.0000       11.1803       11.1804       3.102227       0.01792
  40    0.5894        8.0782        0.0000       11.1801       11.1801       3.101890       0.01790
  39     1.339        8.0786        0.0001       11.1788       11.1789       3.100297       0.01793
  38     1.782        8.0788        0.0001       11.1781       11.1782       3.099362       0.01781
  37     2.292        8.0791        0.0001       11.1772       11.1773       3.098279       0.01794
  36     2.964        8.0794        0.0002       11.1761       11.1763       3.096857       0.01785
  35     3.853        8.0798        0.0002       11.1746       11.1748       3.094979       0.01783
  34     5.035        8.0804        0.0003       11.1726       11.1729       3.092483       0.01783
  33     6.613        8.0812        0.0004       11.1700       11.1704       3.089150       0.01782
  32     8.786        8.0823        0.0005       11.1664       11.1669       3.084659       0.01744
  31     11.80        8.0838        0.0007       11.1613       11.1620       3.078237       0.01798
  30     15.07        8.0854        0.0009       11.1558       11.1567       3.071346       0.01779
  29     18.79        8.0872        0.0011       11.1497       11.1508       3.063567       0.01764
  28     23.16        8.0894        0.0014       11.1425       11.1439       3.054489       0.01755
  27     28.12        8.0919        0.0017       11.1343       11.1360       3.044121       0.01763
  26     33.73        8.0947        0.0020       11.1252       11.1272       3.032536       0.01742
  25     40.54        8.0981        0.0024       11.1142       11.1166       3.018563       0.01733
  24     48.69        8.1022        0.0029       11.1010       11.1039       3.001757       0.01739
  23     57.69        8.1067        0.0035       11.0866       11.0901       2.983346       0.01726
  22     68.43        8.1122        0.0041       11.0695       11.0736       2.961488       0.01718
  21     81.20        8.1187        0.0049       11.0494       11.0542       2.935547       0.01714
  20     96.49        8.1265        0.0058       11.0255       11.0313       2.904778       0.01698
  19     114.6        8.1360        0.0069       10.9975       11.0044       2.868441       0.01697
  18     136.5        8.1473        0.0081       10.9648       10.9729       2.825640       0.01646
  17     162.9        8.1609        0.0097       10.9263       10.9360       2.775026       0.01618
  16     196.4        8.1790        0.0116       10.8773       10.8889       2.709921       0.01639
  15     218.7        8.1910        0.0129       10.8455       10.8585       2.667434       0.01613
  14     243.0        8.2043        0.0143       10.8114       10.8258       2.621424       0.01596
  13     269.0        8.2190        0.0158       10.7749       10.7907       2.571675       0.01614
  12     297.5        8.2353        0.0175       10.7357       10.7532       2.517896       0.01595
  11     328.5        8.2533        0.0193       10.6937       10.7130       2.459695       0.01582
  10     361.9        8.2733        0.0212       10.6489       10.6700       2.396762       0.01592
   9     398.1        8.2955        0.0232       10.6008       10.6240       2.328479       0.01591
   8     437.6        8.3204        0.0254       10.5491       10.5745       2.254073       0.01591
   7     480.5        8.3484        0.0278       10.4934       10.5212       2.172811       0.01596
   6     533.0        8.3849        0.0307       10.4243       10.4550       2.070062       0.01653
   5     589.8        8.4275        0.0338       10.3479       10.3817       1.954226       0.01719
   4     651.6        8.4786        0.0372       10.2613       10.2985       1.819911       0.01837
   3     718.7        8.5413        0.0407       10.1618       10.2025       1.661199       0.01995
   2     792.3        8.6211        0.0445       10.0439       10.0884       1.467321       0.02224
   1     891.5        4.0551        5.3133        0.0133        5.3266       1.271576       0.01666
   0    1013.0        4.1393        5.2015        0.0130        5.2145       1.075162       0.01364



 Wavenumbers:  8050. - 12850. cm-1, ATM      1
 LEVEL PRESSURE   UPWARD FLUX   DIFDOWN FLUX  DIRDOWN FLUX  DOWNWARD FLUX   NET FLUX    HEATING RATE
          mb          W/m2          W/m2          W/m2        W/m2          W/m2       degree/day
  51    .06700      104.4180        0.0000      156.5418      156.5418      52.123729       0.00000
  50    .07753      104.4180        0.0000      156.5417      156.5417      52.123729      -0.00000
  49    .09103      104.4180        0.0001      156.5417      156.5417      52.123729      -0.00000
  48    0.1069      104.4180        0.0001      156.5416      156.5417      52.123729       0.00000
  47    0.1255      104.4180        0.0002      156.5415      156.5417      52.123729       0.00000
  46    0.1487      104.4179        0.0002      156.5414      156.5417      52.123729      -0.00000
  45    0.1794      104.4179        0.0003      156.5413      156.5416      52.123729       0.00000
  44    0.2165      104.4179        0.0004      156.5412      156.5416      52.123729      -0.00000
  43    0.2613      104.4178        0.0006      156.5410      156.5416      52.123729       0.00000
  42    0.3336      104.4177        0.0008      156.5407      156.5415      52.123729       0.00000
  41    0.4307      104.4176        0.0011      156.5403      156.5414      52.123729      -0.00000
  40    0.5894      104.4175        0.0015      156.5397      156.5412      52.123729       0.00000
  39     1.339      104.4167        0.0037      156.5367      156.5404      52.123729      -0.00000
  38     1.782      104.4163        0.0050      156.5350      156.5400      52.123729      -0.00000
  37     2.292      104.4157        0.0065      156.5330      156.5395      52.123729       0.00000
  36     2.964      104.4151        0.0085      156.5303      156.5388      52.123729      -0.00000
  35     3.853      104.4142        0.0110      156.5268      156.5379      52.123729       0.00000
  34     5.035      104.4130        0.0145      156.5222      156.5367      52.123729       0.00000
  33     6.613      104.4113        0.0191      156.5160      156.5351      52.123729      -0.00000
  32     8.786      104.4092        0.0253      156.5076      156.5329      52.123729      -0.00000
  31     11.80      104.4061        0.0341      156.4957      156.5298      52.123729      -0.00000
  30     15.07      104.4027        0.0437      156.4828      156.5265      52.123729       0.00000
  29     18.79      104.3990        0.0545      156.4682      156.5227      52.123729      -0.00000
  28     23.16      104.3946        0.0671      156.4512      156.5183      52.123729      -0.00000
  27     28.12      104.3895        0.0815      156.4317      156.5132      52.123729      -0.00000
  26     33.73      104.3838        0.0977      156.4099      156.5076      52.123729       0.00000
  25     40.54      104.3770        0.1173      156.3834      156.5007      52.123729       0.00000
  24     48.69      104.3687        0.1409      156.3515      156.4925      52.123729       0.00000
  23     57.69      104.3596        0.1669      156.3164      156.4834      52.123729       0.00000
  22     68.43      104.3488        0.1979      156.2746      156.4725      52.123729      -0.00000
  21     81.20      104.3358        0.2350      156.2246      156.4595      52.123729      -0.00000
  20     96.49      104.3203        0.2791      156.1649      156.4441      52.123729       0.00000
  19     114.6      104.3022        0.3317      156.0879      156.4196      52.117463       0.00293
  18     136.5      104.2806        0.3941      155.9962      156.3903      52.109692       0.00299
  17     162.9      104.2549        0.4686      155.8831      156.3517      52.096807       0.00412
  16     196.4      104.2216        0.5655      155.7199      156.2854      52.063833       0.00830
  15     218.7      104.2002        0.6292      155.5733      156.2025      52.002361       0.02334
  14     243.0      104.1780        0.6985      155.3367      156.0352      51.857197       0.05035
  13     269.0      104.1566        0.7734      154.9514      155.7248      51.568250       0.09373
  12     297.5      104.1386        0.8541      154.3896      155.2437      51.105061       0.13738
  11     328.5      104.1258        0.9411      153.7151      154.6561      50.530324       0.15627
  10     361.9      104.1218        1.0344      152.9087      153.9432      49.821379       0.17937
   9     398.1      104.1325        1.1343      151.8986      153.0329      48.900446       0.21456
   8     437.6      104.1682        1.2406      150.6031      151.8437      47.675531       0.26189
   7     480.5      104.2414        1.3529      149.0014      150.3543      46.112886       0.30690
   6     533.0      104.3981        1.4889      146.7375      148.2265      43.828359       0.36751
   5     589.8      104.6909        1.6314      143.8730      145.5044      40.813494       0.44750
   4     651.6      105.2724        1.7775      140.0955      141.8730      36.600575       0.57613
   3     718.7      106.3700        1.9257      135.5278      137.4535      31.083482       0.69335
   2     792.3      108.5595        2.0722      130.0690      132.1413      23.581729       0.86037
   1     891.5       46.7313       63.5631        0.1649       63.7280      16.996681       0.56036
   0    1013.0       48.3486       60.7545        0.1525       60.9070      12.558414       0.30817



 Wavenumbers: 12850. - 16000. cm-1, ATM      1
 LEVEL PRESSURE   UPWARD FLUX   DIFDOWN FLUX  DIRDOWN FLUX  DOWNWARD FLUX   NET FLUX    HEATING RATE
          mb          W/m2          W/m2          W/m2        W/m2          W/m2       degree/day
  51    .06700       78.7298        0.0000       98.0872       98.0872      19.357455       0.00000
  50    .07753       78.7298        0.0001       98.0864       98.0864      19.356663       0.63495
  49    .09103       78.7298        0.0002       98.0853       98.0855      19.355668       0.62194
  48    0.1069       78.7298        0.0003       98.0841       98.0843      19.354525       0.60869
  47    0.1255       78.7298        0.0004       98.0826       98.0830      19.353211       0.59574
  46    0.1487       78.7298        0.0005       98.0809       98.0814      19.351552       0.60465
  45    0.1794       78.7299        0.0007       98.0784       98.0792      19.349295       0.61963
  44    0.2165       78.7300        0.0010       98.0756       98.0766      19.346639       0.60416
  43    0.2613       78.7301        0.0013       98.0723       98.0736      19.343514       0.58892
  42    0.3336       78.7303        0.0017       98.0670       98.0687      19.338413       0.59477
  41    0.4307       78.7307        0.0023       98.0602       98.0625      19.331813       0.57385
  40    0.5894       78.7315        0.0034       98.0496       98.0529      19.321406       0.55344
  39     1.339       78.7384        0.0082       98.0043       98.0125      19.274137       0.53216
  38     1.782       78.7446        0.0110       97.9793       97.9903      19.245688       0.54164
  37     2.292       78.7538        0.0143       97.9498       97.9640      19.210205       0.58769
  36     2.964       78.7691        0.0185       97.9088       97.9274      19.158250       0.65219
  35     3.853       78.7937        0.0242       97.8503       97.8745      19.080822       0.73480
  34     5.035       78.8308        0.0317       97.7680       97.7997      18.968940       0.79924
  33     6.613       78.8825        0.0418       97.6562       97.6979      18.815460       0.82051
  32     8.786       78.9498        0.0553       97.5107       97.5659      18.616109       0.77421
  31     11.80       79.0376        0.0746       97.3179       97.3924      18.354886       0.73134
  30     15.07       79.1217        0.0953       97.1283       97.2236      18.101940       0.65306
  29     18.79       79.2077        0.1187       96.9300       97.0487      17.841021       0.59158
  28     23.16       79.2977        0.1460       96.7166       96.8625      17.564844       0.53404
  27     28.12       79.3884        0.1772       96.4935       96.6706      17.282196       0.48048
  26     33.73       79.4726        0.2121       96.2731       96.4851      17.012569       0.40539
  25     40.54       79.5540        0.2542       96.0408       96.2950      16.740954       0.33697
  24     48.69       79.6327        0.3051       95.7946       96.0996      16.466965       0.28354
  23     57.69       79.7001        0.3609       95.5573       95.9182      16.218111       0.23326
  22     68.43       79.7599        0.4275       95.3106       95.7381      15.978223       0.18858
  21     81.20       79.8030        0.5069       95.0643       95.5713      15.768239       0.13875
  20     96.49       79.8285        0.6017       94.8153       95.4169      15.588480       0.09921
  19     114.6       79.8573        0.7152       94.5411       95.2563      15.398972       0.08849
  18     136.5       79.8804        0.8498       94.2320       95.0819      15.201490       0.07594
  17     162.9       79.8978        1.0101       93.8753       94.8854      14.987682       0.06834
  16     196.4       79.8987        1.2180       93.4347       94.6527      14.753954       0.05883
  15     218.7       79.8918        1.3545       93.1513       94.5058      14.614043       0.05312
  14     243.0       79.8812        1.5029       92.8439       94.3468      14.465652       0.05147
  13     269.0       79.8671        1.6637       92.5111       94.1748      14.307705       0.05124
  12     297.5       79.8503        1.8374       92.1495       93.9869      14.136610       0.05074
  11     328.5       79.8330        2.0252       91.7554       93.7805      13.947572       0.05140
  10     361.9       79.8163        2.2272       91.3262       93.5534      13.737098       0.05325
   9     398.1       79.8023        2.4447       90.8575       93.3022      13.499895       0.05526
   8     437.6       79.7945        2.6780       90.3418       93.0198      13.225324       0.05870
   7     480.5       79.7966        2.9279       89.7728       92.7007      12.904131       0.06308
   6     533.0       79.8192        3.2351       89.0428       92.2780      12.458751       0.07165
   5     589.8       79.8804        3.5652       88.2038       91.7690      11.888627       0.08463
   4     651.6       80.0205        3.9176       87.1979       91.1155      11.095040       0.10853
   3     718.7       80.2714        4.2910       86.0161       90.3071      10.035688       0.13313
   2     792.3       80.7273        4.6814       84.5970       89.2784       8.551130       0.17026
   1     891.5       50.7808       57.6267        0.1112       57.7380       6.957156       0.13564
   0    1013.0       51.4932       56.6888        0.1074       56.7962       5.302976       0.11486



 Wavenumbers: 16000. - 22650. cm-1, ATM      1
 LEVEL PRESSURE   UPWARD FLUX   DIFDOWN FLUX  DIRDOWN FLUX  DOWNWARD FLUX   NET FLUX    HEATING RATE
          mb          W/m2          W/m2          W/m2        W/m2          W/m2       degree/day
  51    .06700      140.6398        0.0000      156.3892      156.3892      15.749400       0.00000
  50    .07753      140.6398        0.0004      156.3887      156.3891      15.749253       0.11820
  49    .09103      140.6398        0.0009      156.3879      156.3888      15.749038       0.13407
  48    0.1069      140.6398        0.0015      156.3871      156.3885      15.748751       0.15288
  47    0.1255      140.6398        0.0021      156.3861      156.3882      15.748367       0.17426
  46    0.1487      140.6399        0.0030      156.3847      156.3877      15.747800       0.20650
  45    0.1794      140.6400        0.0041      156.3828      156.3869      15.746914       0.24314
  44    0.2165      140.6402        0.0054      156.3805      156.3859      15.745713       0.27326
  43    0.2613      140.6406        0.0070      156.3776      156.3846      15.744083       0.30721
  42    0.3336      140.6413        0.0096      156.3726      156.3823      15.740985       0.36127
  41    0.4307      140.6425        0.0131      156.3657      156.3788      15.736314       0.40611
  40    0.5894      140.6451        0.0188      156.3537      156.3725      15.727406       0.47370
  39     1.339      140.6676        0.0458      156.2834      156.3292      15.661595       0.74092
  38     1.782      140.6884        0.0616      156.2324      156.2940      15.605531       1.06736
  37     2.292      140.7197        0.0799      156.1641      156.2440      15.524379       1.34410
  36     2.964      140.7716        0.1040      156.0605      156.1645      15.392911       1.65032
  35     3.853      140.8555        0.1357      155.9041      156.0398      15.184304       1.97972
  34     5.035      140.9822        0.1779      155.6774      155.8552      14.873079       2.22326
  33     6.613      141.1591        0.2341      155.3656      155.5997      14.440568       2.31220
  32     8.786      141.3896        0.3097      154.9577      155.2674      13.877776       2.18568
  31     11.80      141.6896        0.4178      154.4153      154.8331      13.143481       2.05579
  30     15.07      141.9770        0.5337      153.8804      154.4141      12.437117       1.82369
  29     18.79      142.2703        0.6644      153.3191      153.9835      11.713163       1.64143
  28     23.16      142.5769        0.8168      152.7126      153.5294      10.952480       1.47092
  27     28.12      142.8853        0.9908      152.0755      153.0663      10.181024       1.31142
  26     33.73      143.1699        1.1854      151.4409      152.6263       9.456401       1.08949
  25     40.54      143.4438        1.4203      150.7637      152.1840       8.740218       0.88851
  24     48.69      143.7058        1.7031      150.0338      151.7370       8.031190       0.73373
  23     57.69      143.9278        2.0135      149.3151      151.3286       7.400798       0.59090
  22     68.43      144.1213        2.3827      148.5476      150.9303       6.809030       0.46521
  21     81.20      144.2544        2.8223      147.7517      150.5739       6.319504       0.32347
  20     96.49      144.3228        3.3455      146.9127      150.2582       5.935352       0.21202
  19     114.6      144.3576        3.9651      145.9763      149.9413       5.583706       0.16419
  18     136.5      144.3676        4.6966      144.9088      149.6053       5.237781       0.13302
  17     162.9      144.3509        5.5636      143.6785      149.2421       4.891267       0.11076
  16     196.4      144.2677        6.6823      142.1651      148.8473       4.579616       0.07845
  15     218.7      144.1906        7.4133      141.2033      148.6166       4.426078       0.05829
  14     243.0      144.0964        8.2045      140.1753      148.3799       4.283465       0.04946
  13     269.0      143.9836        9.0581      139.0797      148.1378       4.154176       0.04194
  12     297.5      143.8516        9.9761      137.9141      147.8902       4.038570       0.03429
  11     328.5      143.7043       10.9628      136.6676      147.6303       3.926010       0.03060
  10     361.9      143.5416       12.0191      135.3392      147.3582       3.816618       0.02768
   9     398.1      143.3630       13.1490      133.9235      147.0725       3.709473       0.02496
   8     437.6      143.1694       14.3546      132.4163      146.7708       3.601388       0.02311
   7     480.5      142.9606       15.6380      130.8147      146.4527       3.492022       0.02148
   6     533.0      142.7040       17.2054      128.8599      146.0654       3.361370       0.02102
   5     589.8      142.4319       18.8802      126.7679      145.6482       3.216288       0.02153
   4     651.6      142.1511       20.6638      124.5274      145.1913       3.040187       0.02408
   3     718.7      141.8685       22.5581      122.1285      144.6866       2.818094       0.02791
   2     792.3      141.6019       24.5608      119.5548      144.1156       2.513716       0.03491
   1     891.5      117.5960      119.5296        0.1566      119.6861       2.090157       0.03604
   0    1013.0      117.8540      119.2189        0.1509      119.3698       1.515724       0.03989



 Wavenumbers: 22650. - 29000. cm-1, ATM      1
 LEVEL PRESSURE   UPWARD FLUX   DIFDOWN FLUX  DIRDOWN FLUX  DOWNWARD FLUX   NET FLUX    HEATING RATE
          mb          W/m2          W/m2          W/m2        W/m2          W/m2       degree/day
  51    .06700       58.4048        0.0000       59.0156       59.0156       0.610852       0.00000
  50    .07753       58.4047        0.0005       59.0151       59.0155       0.610852      -0.00000
  49    .09103       58.4046        0.0010       59.0144       59.0154       0.610852       0.00000
  48    0.1069       58.4044        0.0017       59.0136       59.0153       0.610852      -0.00000
  47    0.1255       58.4043        0.0025       59.0127       59.0151       0.610852       0.00000
  46    0.1487       58.4041        0.0034       59.0115       59.0149       0.610852       0.00000
  45    0.1794       58.4038        0.0048       59.0099       59.0147       0.610852      -0.00000
  44    0.2165       58.4035        0.0063       59.0080       59.0144       0.610852       0.00000
  43    0.2613       58.4032        0.0082       59.0058       59.0140       0.610852       0.00000
  42    0.3336       58.4026        0.0113       59.0022       59.0134       0.610852       0.00000
  41    0.4307       58.4018        0.0153       58.9973       59.0126       0.610852       0.00000
  40    0.5894       58.4005        0.0220       58.9894       59.0113       0.610852       0.00000
  39     1.339       58.3944        0.0534       58.9518       59.0052       0.610852       0.00000
  38     1.782       58.3908        0.0719       58.9297       59.0016       0.610852       0.00000
  37     2.292       58.3866        0.0933       58.9042       58.9974       0.610852      -0.00000
  36     2.964       58.3811        0.1213       58.8706       58.9920       0.610852       0.00000
  35     3.853       58.3739        0.1584       58.8264       58.9848       0.610852      -0.00000
  34     5.035       58.3643        0.2076       58.7676       58.9752       0.610852       0.00000
  33     6.613       58.3515        0.2733       58.6891       58.9624       0.610852       0.00000
  32     8.786       58.3343        0.3617       58.5834       58.9451       0.610852       0.00000
  31     11.80       58.3097        0.4881       58.4324       58.9205       0.610852      -0.00000
  30     15.07       58.2833        0.6235       58.2706       58.8941       0.610852       0.00000
  29     18.79       58.2535        0.7762       58.0882       58.8644       0.610852       0.00000
  28     23.16       58.2189        0.9540       57.8757       58.8297       0.610852       0.00000
  27     28.12       58.1793        1.1569       57.6333       58.7902       0.610852       0.00000
  26     33.73       58.1353        1.3830       57.3631       58.7461       0.610852       0.00000
  25     40.54       58.0822        1.6552       57.0379       58.6931       0.610852      -0.00000
  24     48.69       58.0186        1.9815       56.6479       58.6294       0.610852       0.00000
  23     57.69       57.9491        2.3378       56.2221       58.5599       0.610852      -0.00000
  22     68.43       57.8669        2.7592       55.7186       58.4777       0.610852       0.00000
  21     81.20       57.7698        3.2567       55.1239       58.3806       0.610852      -0.00000
  20     96.49       57.6553        3.8433       54.4228       58.2661       0.610852      -0.00000
  19     114.6       57.5210        4.5309       53.6010       58.1318       0.610852       0.00000
  18     136.5       57.3642        5.3333       52.6418       57.9751       0.610852       0.00000
  17     162.9       57.1808        6.2713       51.5203       57.7916       0.610852       0.00000
  16     196.4       56.9483        7.4597       50.0994       57.5591       0.610852      -0.00000
  15     218.7       56.7987        8.2233       49.1863       57.4096       0.610852       0.00000
  14     243.0       56.6390        9.0386       48.2113       57.2498       0.610852       0.00000
  13     269.0       56.4691        9.9050       47.1749       57.0799       0.610852       0.00000
  12     297.5       56.2891       10.8217       46.0783       56.9000       0.610852      -0.00000
  11     328.5       56.0989       11.7902       44.9195       56.7097       0.610852      -0.00000
  10     361.9       55.8988       12.8078       43.7018       56.5097       0.610852       0.00000
   9     398.1       55.6888       13.8746       42.4250       56.2997       0.610852       0.00000
   8     437.6       55.4693       14.9885       41.0916       56.0801       0.610852      -0.00000
   7     480.5       55.2406       16.1470       39.7045       55.8515       0.610852      -0.00000
   6     533.0       54.9683       17.5249       38.0543       55.5791       0.610852       0.00000
   5     589.8       54.6854       18.9531       36.3431       55.2962       0.610852       0.00000
   4     651.6       54.3933       20.4246       34.5795       55.0041       0.610852       0.00000
   3     718.7       54.0929       21.9336       32.7702       54.7038       0.610852      -0.00000
   2     792.3       53.7860       23.4713       30.9256       54.3968       0.610852      -0.00000
   1     891.5       47.4685       48.0402        0.0386       48.0787       0.610259       0.00005
   0    1013.0       47.4466       48.0218        0.0350       48.0569       0.610259       0.00000



 Wavenumbers: 29000. - 38000. cm-1, ATM      1
 LEVEL PRESSURE   UPWARD FLUX   DIFDOWN FLUX  DIRDOWN FLUX  DOWNWARD FLUX   NET FLUX    HEATING RATE
          mb          W/m2          W/m2          W/m2        W/m2          W/m2       degree/day
  51    .06700        8.7431        0.0000       20.8114       20.8114      12.068290       0.00000
  50    .07753        8.7429        0.0003       20.8070       20.8074      12.064483       3.05153
  49    .09103        8.7427        0.0007       20.8009       20.8016      12.058946       3.46083
  48    0.1069        8.7424        0.0012       20.7928       20.7939      12.051536       3.94427
  47    0.1255        8.7421        0.0017       20.7820       20.7837      12.041631       4.49031
  46    0.1487        8.7418        0.0024       20.7665       20.7688      12.027068       5.30841
  45    0.1794        8.7413        0.0033       20.7424       20.7457      12.004403       6.22200
  44    0.2165        8.7408        0.0044       20.7103       20.7147      11.973881       6.94336
  43    0.2613        8.7402        0.0056       20.6675       20.6731      11.932886       7.72728
  42    0.3336        8.7393        0.0077       20.5880       20.5956      11.856326       8.92619
  41    0.4307        8.7382        0.0104       20.4722       20.4826      11.744374       9.73396
  40    0.5894        8.7367        0.0147       20.2637       20.2784      11.541692      10.77838
  39     1.339        8.7333        0.0331       19.0984       19.1315      10.398226      12.87335
  38     1.782        8.7337        0.0427       18.4394       18.4821       9.748311      12.37333
  37     2.292        8.7364        0.0530       17.7714       17.8244       9.087979      10.93681
  36     2.964        8.7429        0.0657       17.0421       17.1078       8.364876       9.07713
  35     3.853        8.7557        0.0816       16.2678       16.3494       7.593729       7.31833
  34     5.035        8.7768        0.1017       15.4803       15.5820       6.805282       5.63234
  33     6.613        8.8074        0.1275       14.7157       14.8432       6.035762       4.11385
  32     8.786        8.8479        0.1613       13.9936       14.1548       5.306894       2.83066
  31     11.80        8.9008        0.2083       13.2835       13.4918       4.591033       2.00419
  30     15.07        8.9518        0.2571       12.7394       12.9964       4.044653       1.41065
  29     18.79        9.0044        0.3111       12.2666       12.5777       3.573297       1.06871
  28     23.16        9.0603        0.3726       11.8300       12.2026       3.142248       0.83351
  27     28.12        9.1177        0.4414       11.4279       11.8693       2.751640       0.66401
  26     33.73        9.1706        0.5173       11.0695       11.5868       2.416206       0.50433
  25     40.54        9.2208        0.6080       10.7209       11.3289       2.108102       0.38224
  24     48.69        9.2681        0.7155       10.3742       11.0897       1.821600       0.29648
  23     57.69        9.3070        0.8319       10.0549       10.8868       1.579880       0.22658
  22     68.43        9.3384        0.9685        9.7327       10.7012       1.362871       0.17060
  21     81.20        9.3534        1.1298        9.4134       10.5432       1.189822       0.11435
  20     96.49        9.3500        1.3193        9.0887       10.4081       1.058086       0.07271
  19     114.6        9.3363        1.5384        8.7388       10.2771       0.940820       0.05476
  18     136.5        9.3154        1.7888        8.3549       10.1436       0.828295       0.04327
  17     162.9        9.2872        2.0742        7.9311       10.0053       0.718115       0.03522
  16     196.4        9.2399        2.4277        7.4333        9.8610       0.621130       0.02441
  15     218.7        9.2058        2.6501        7.1295        9.7796       0.573826       0.01796
  14     243.0        9.1685        2.8825        6.8161        9.6986       0.530144       0.01515
  13     269.0        9.1276        3.1242        6.4943        9.6186       0.490919       0.01272
  12     297.5        9.0834        3.3740        6.1657        9.5398       0.456340       0.01026
  11     328.5        9.0373        3.6310        5.8295        9.4605       0.423233       0.00900
  10     361.9        8.9896        3.8927        5.4886        9.3814       0.391745       0.00797
   9     398.1        8.9406        4.1585        5.1440        9.3025       0.361903       0.00695
   8     437.6        8.8907        4.4269        4.7969        9.2238       0.333134       0.00615
   7     480.5        8.8403        4.6958        4.4504        9.1461       0.305824       0.00536
   6     533.0        8.7825        5.0023        4.0563        9.0585       0.276051       0.00479
   5     589.8        8.7255        5.3045        3.6682        8.9727       0.247223       0.00428
   4     651.6        8.6701        5.5987        3.2905        8.8892       0.219016       0.00386
   3     718.7        8.6170        5.8832        2.9252        8.8084       0.191386       0.00347
   2     792.3        8.5669        6.1548        2.5764        8.7313       0.164339       0.00310
   1     891.5        7.8281        7.9587        0.0029        7.9617       0.133511       0.00262
   0    1013.0        7.8356        7.9340        0.0024        7.9364       0.100788       0.00227



 Wavenumbers: 38000. - 50000. cm-1, ATM      1
 LEVEL PRESSURE   UPWARD FLUX   DIFDOWN FLUX  DIRDOWN FLUX  DOWNWARD FLUX   NET FLUX    HEATING RATE
          mb          W/m2          W/m2          W/m2        W/m2          W/m2       degree/day
  51    .06700        0.0061        0.0000        1.2836        1.2836       1.277518       0.00000
  50    .07753        0.0061        0.0001        1.2812        1.2812       1.275183       1.87150
  49    .09103        0.0060        0.0002        1.2777        1.2778       1.271851       2.08247
  48    0.1069        0.0059        0.0002        1.2731        1.2734       1.267473       2.33059
  47    0.1255        0.0058        0.0004        1.2672        1.2675       1.261717       2.60908
  46    0.1487        0.0057        0.0005        1.2586        1.2591       1.253391       3.03499
  45    0.1794        0.0055        0.0007        1.2455        1.2462       1.240623       3.50520
  44    0.2165        0.0054        0.0009        1.2282        1.2291       1.223697       3.85037
  43    0.2613        0.0052        0.0011        1.2054        1.2065       1.201348       4.21261
  42    0.3336        0.0049        0.0015        1.1639        1.1654       1.160524       4.75970
  41    0.4307        0.0045        0.0020        1.1051        1.1070       1.102565       5.03943
  40    0.5894        0.0039        0.0026        1.0039        1.0064       1.002524       5.32007
  39     1.339        0.0022        0.0035        0.5438        0.5473       0.545104       5.14971
  38     1.782        0.0016        0.0032        0.3635        0.3666       0.365006       3.42879
  37     2.292        0.0012        0.0027        0.2356        0.2383       0.237058       2.11916
  36     2.964        0.0009        0.0022        0.1455        0.1477       0.146786       1.13318
  35     3.853        0.0006        0.0017        0.0858        0.0875       0.086906       0.56828
  34     5.035        0.0004        0.0013        0.0488        0.0501       0.049701       0.26578
  33     6.613        0.0003        0.0010        0.0273        0.0282       0.027974       0.11615
  32     8.786        0.0002        0.0007        0.0144        0.0151       0.014928       0.05067
  31     11.80        0.0001        0.0004        0.0065        0.0070       0.006903       0.02247
  30     15.07        0.0000        0.0003        0.0031        0.0034       0.003329       0.00923
  29     18.79        0.0000        0.0002        0.0014        0.0016       0.001583       0.00396
  28     23.16        0.0000        0.0001        0.0006        0.0007       0.000720       0.00167
  27     28.12        0.0000        0.0001        0.0003        0.0003       0.000317       0.00069
  26     33.73        0.0000        0.0000        0.0001        0.0001       0.000140       0.00027
  25     40.54        0.0000        0.0000        0.0000        0.0001       0.000057       0.00010
  24     48.69        0.0000        0.0000        0.0000        0.0000       0.000021       0.00004
  23     57.69        0.0000        0.0000        0.0000        0.0000       0.000008       0.00001
  22     68.43        0.0000        0.0000        0.0000        0.0000       0.000003       0.00000
  21     81.20        0.0000        0.0000        0.0000        0.0000       0.000001       0.00000
  20     96.49        0.0000        0.0000        0.0000        0.0000       0.000000       0.00000
  19     114.6        0.0000        0.0000        0.0000        0.0000       0.000000       0.00000
  18     136.5        0.0000        0.0000        0.0000        0.0000       0.000000       0.00000
  17     162.9        0.0000        0.0000        0.0000        0.0000       0.000000       0.00000
  16     196.4        0.0000        0.0000        0.0000        0.0000       0.000000       0.00000
  15     218.7        0.0000        0.0000        0.0000        0.0000       0.000000       0.00000
  14     243.0        0.0000        0.0000        0.0000        0.0000       0.000000       0.00000
  13     269.0        0.0000        0.0000        0.0000        0.0000       0.000000       0.00000
  12     297.5        0.0000        0.0000        0.0000        0.0000       0.000000       0.00000
  11     328.5        0.0000        0.0000        0.0000        0.0000       0.000000       0.00000
  10     361.9        0.0000        0.0000        0.0000        0.0000       0.000000       0.00000
   9     398.1        0.0000        0.0000        0.0000        0.0000       0.000000       0.00000
   8     437.6        0.0000        0.0000        0.0000        0.0000       0.000000       0.00000
   7     480.5        0.0000        0.0000        0.0000        0.0000       0.000000       0.00000
   6     533.0        0.0000        0.0000        0.0000        0.0000       0.000000       0.00000
   5     589.8        0.0000        0.0000        0.0000        0.0000       0.000000       0.00000
   4     651.6        0.0000        0.0000        0.0000        0.0000       0.000000       0.00000
   3     718.7        0.0000        0.0000        0.0000        0.0000       0.000000       0.00000
   2     792.3        0.0000        0.0000        0.0000        0.0000       0.000000       0.00000
   1     891.5        0.0000        0.0000        0.0000        0.0000       0.000000       0.00000
   0    1013.0        0.0000        0.0000        0.0000        0.0000       0.000000       0.00000



 Wavenumbers:   820. -  2600. cm-1, ATM      1
 LEVEL PRESSURE   UPWARD FLUX   DIFDOWN FLUX  DIRDOWN FLUX  DOWNWARD FLUX   NET FLUX    HEATING RATE
          mb          W/m2          W/m2          W/m2        W/m2          W/m2       degree/day
  51    .06700        1.4418        0.0000        6.0047        6.0047       4.562841       0.00000
  50    .07753        1.4418        0.0000        6.0008        6.0008       4.558988       3.08824
  49    .09103        1.4418        0.0000        5.9999        5.9999       4.558102       0.55361
  48    0.1069        1.4418        0.0000        5.9989        5.9989       4.557113       0.52656
  47    0.1255        1.4418        0.0000        5.9978        5.9978       4.555996       0.50653
  46    0.1487        1.4418        0.0000        5.9964        5.9964       4.554639       0.49460
  45    0.1794        1.4418        0.0000        5.9947        5.9947       4.552919       0.47204
  44    0.2165        1.4418        0.0000        5.9929        5.9929       4.551077       0.41914
  43    0.2613        1.4418        0.0000        5.9909        5.9909       4.549117       0.36937
  42    0.3336        1.4418        0.0000        5.9880        5.9880       4.546239       0.33560
  41    0.4307        1.4418        0.0000        5.9846        5.9846       4.542769       0.30169
  40    0.5894        1.4418        0.0000        5.9791        5.9791       4.537263       0.29280
  39     1.339        1.4418        0.0000        5.9536        5.9536       4.511772       0.28699
  38     1.782        1.4418        0.0000        5.9395        5.9395       4.497631       0.26922
  37     2.292        1.4418        0.0000        5.9237        5.9237       4.481877       0.26093
  36     2.964        1.4418        0.0000        5.9039        5.9039       4.462099       0.24827
  35     3.853        1.4418        0.0000        5.8793        5.8793       4.437438       0.23404
  34     5.035        1.4419        0.0000        5.8487        5.8487       4.406869       0.21838
  33     6.613        1.4419        0.0000        5.8108        5.8108       4.368895       0.20301
  32     8.786        1.4419        0.0000        5.7631        5.7631       4.321260       0.18500
  31     11.80        1.4419        0.0000        5.7039        5.7039       4.261985       0.16595
  30     15.07        1.4419        0.0000        5.6539        5.6539       4.211927       0.12924
  29     18.79        1.4420        0.0000        5.6127        5.6127       4.170769       0.09332
  28     23.16        1.4420        0.0000        5.5794        5.5794       4.137365       0.06459
  27     28.12        1.4420        0.0000        5.5518        5.5518       4.109766       0.04692
  26     33.73        1.4421        0.0000        5.5268        5.5268       4.084675       0.03772
  25     40.54        1.4421        0.0000        5.4993        5.4993       4.057185       0.03411
  24     48.69        1.4422        0.0000        5.4678        5.4678       4.025585       0.03270
  23     57.69        1.4423        0.0000        5.4340        5.4340       3.991731       0.03173
  22     68.43        1.4424        0.0000        5.3947        5.3948       3.952377       0.03094
  21     81.20        1.4425        0.0000        5.3497        5.3497       3.907244       0.02982
  20     96.49        1.4426        0.0000        5.2982        5.2982       3.855605       0.02850
  19     114.6        1.4428        0.0000        5.2389        5.2389       3.796129       0.02777
  18     136.5        1.4430        0.0000        5.1716        5.1717       3.728677       0.02594
  17     162.9        1.4433        0.0000        5.0890        5.0891       3.645767       0.02650
  16     196.4        1.4438        0.0000        4.9668        4.9668       3.523043       0.03089
  15     218.7        1.4443        0.0000        4.8585        4.8585       3.414192       0.04133
  14     243.0        1.4451        0.0000        4.7078        4.7079       3.262784       0.05251
  13     269.0        1.4463        0.0000        4.5343        4.5343       3.088029       0.05669
  12     297.5        1.4481        0.0000        4.3419        4.3420       2.893826       0.05760
  11     328.5        1.4507        0.0000        4.1281        4.1281       2.677477       0.05882
  10     361.9        1.4540        0.0000        3.8786        3.8787       2.424651       0.06397
   9     398.1        1.4584        0.0000        3.6159        3.6160       2.157573       0.06222
   8     437.6        1.4640        0.0000        3.3759        3.3759       1.911869       0.05253
   7     480.5        1.4709        0.0000        3.1957        3.1958       1.724847       0.03673
   6     533.0        1.4815        0.0000        3.0467        3.0467       1.565249       0.02567
   5     589.8        1.4970        0.0001        2.9023        2.9023       1.405332       0.02374
   4     651.6        1.5240        0.0001        2.7183        2.7184       1.194328       0.02886
   3     718.7        1.5710        0.0001        2.5058        2.5059       0.934917       0.03260
   2     792.3        1.6616        0.0001        2.2756        2.2757       0.614133       0.03679
   1     891.5        0.4128        0.7508        0.0026        0.7534       0.340635       0.02327
   0    1013.0        0.4926        0.6185        0.0021        0.6205       0.127991       0.01476

  Modules and versions used in this calculation:

       rrtmg_sw.1col.f90:  $Revision$                    rrtmg_sw_init.f90:  $Revision$        
     rrtmgsw_cldprop.f90:  $Revision$                  rrtmgsw_cldprmc.f90:  NOT USED          
     rrtmg_sw_reftra.f90:  $Revision$                  rrtmg_sw_spcvrt.f90:  NOT USED          
     rrtmg_sw_spcvmc.f90:  NOT USED                    rrtmgsw_setcoef.f90:  NOT USED          
     rrtmg_sw_taumol.f90:  $Revision$                  rrtmg_sw_vrtqdr.f90:  NOT USED          
                rrtatm.f:  NOT USED                             util_xxx.f:  NOT USED          
                 extra.f:  NOT USED                       rrtmg_sw_k_g.f90:  $Revision$        

