

 Wavenumbers:   820. - 50000. cm-1, ATM      1
 LEVEL PRESSURE   UPWARD FLUX   DIFDOWN FLUX  DIRDOWN FLUX  DOWNWARD FLUX   NET FLUX    HEATING RATE
          mb          W/m2          W/m2          W/m2        W/m2          W/m2       degree/day
  51    .06700      442.1762        0.0000      617.8126      617.8126     175.636340       0.00000
  50    .07753      442.1759        0.0014      617.7947      617.7961     175.620197      12.93833
  49    .09103      442.1754        0.0031      617.7778      617.7808     175.605385       9.25841
  48    0.1069      442.1750        0.0050      617.7581      617.7631     175.588119       9.19043
  47    0.1255      442.1745        0.0072      617.7340      617.7412     175.566770       9.67890
  46    0.1487      442.1739        0.0101      617.7009      617.7110     175.537077      10.82326
  45    0.1794      442.1732        0.0139      617.6521      617.6660     175.492836      12.14529
  44    0.2165      442.1725        0.0185      617.5895      617.6080     175.435501      13.04269
  43    0.2613      442.1718        0.0239      617.5089      617.5328     175.360970      14.04871
  42    0.3336      442.1710        0.0327      617.3641      617.3968     175.225852      15.75344
  41    0.4307      442.1703        0.0444      617.1591      617.2035     175.033180      16.75240
  40    0.5894      442.1703        0.0632      616.8005      616.8637     174.693398      18.06916
  39     1.339      442.1884        0.1483      614.9443      615.0925     172.904159      20.14359
  38     1.782      442.2118        0.1962      613.9670      614.1632     171.951386      18.13925
  37     2.292      442.2505        0.2506      613.0059      613.2565     171.006046      15.65730
  36     2.964      442.3187        0.3215      611.9577      612.2791     169.960406      13.12594
  35     3.853      442.4332        0.4143      610.8024      611.2167     168.783563      11.16846
  34     5.035      442.6092        0.5369      609.5327      610.0696     167.460456       9.45173
  33     6.613      442.8570        0.6996      608.1464      608.8460     165.989043       7.86618
  32     8.786      443.1798        0.9179      606.6250      607.5429     164.363055       6.31475
  31     11.80      443.5980        1.2286      604.8486      606.0773     162.479241       5.27408
  30     15.07      443.9962        1.5602      603.2440      604.8042     160.808014       4.31478
  29     18.79      444.4005        1.9334      601.6511      603.5845     159.183992       3.68216
  28     23.16      444.8204        2.3669      599.9927      602.3596     157.539198       3.18050
  27     28.12      445.2394        2.8604      598.2881      601.1485     155.909143       2.77098
  26     33.73      445.6185        3.4106      596.5951      600.0057     154.387188       2.28830
  25     40.54      445.9722        4.0731      594.7727      598.8458     152.873521       1.87788
  24     48.69      446.2975        4.8680      592.7865      597.6544     151.356924       1.56944
  23     57.69      446.5567        5.7369      590.7959      596.5328     149.976046       1.29437
  22     68.43      446.7591        6.7664      588.6191      595.3855     148.626381       1.06102
  21     81.20      446.8523        7.9869      586.2690      594.2559     147.403638       0.80797
  20     96.49      446.8263        9.4322      583.6961      593.1283     146.301968       0.60804
  19     114.6      446.7406       11.1325      580.7708      591.9033     145.162717       0.53195
  18     136.5      446.5942       13.1236      577.4359      590.5595     143.965311       0.46043
  17     162.9      446.3818       15.4604      573.5624      589.0229     142.641075       0.42328
  16     196.4      446.0186       18.4408      568.5907      587.0315     141.012903       0.40983
  15     218.7      445.7518       20.3678      565.0572      585.4250     139.673278       0.50861
  14     243.0      445.4543       22.4349      560.7495      583.1845     137.730154       0.67394
  13     269.0      445.1277       24.6435      555.3947      580.0382     134.910416       0.91471
  12     297.5      444.7780       26.9941      548.9964      575.9905     131.212471       1.09677
  11     328.5      444.4156       29.4935      542.0895      571.5830     127.167424       1.09984
  10     361.9      444.0487       32.1377      534.6242      566.7619     122.713202       1.12696
   9     398.1      443.6892       34.9315      526.4204      561.3519     117.662760       1.17664
   8     437.6      443.3599       37.8735      517.3907      555.2642     111.904283       1.23120
   7     480.5      443.0856       40.9618      507.7216      548.6834     105.597809       1.23857
   6     533.0      442.8953       44.6753      495.9006      540.5759      97.680562       1.27363
   5     589.8      442.9595       48.5725      483.0788      531.6513      88.691784       1.33423
   4     651.6      443.5884       52.6406      468.6907      521.3313      77.742908       1.49729
   3     718.7      445.2200       56.8716      453.2257      510.0973      64.877259       1.61686
   2     792.3      449.0188       61.2432      436.4928      497.7360      48.717215       1.85338
   1     891.5      294.4463      329.0544        0.5586      329.6130      35.166735       1.15308
   0    1013.0      297.5536      323.3498        0.5242      323.8740      26.320388       0.61425



 Wavenumbers:  2600. -  3250. cm-1, ATM      1
 LEVEL PRESSURE   UPWARD FLUX   DIFDOWN FLUX  DIRDOWN FLUX  DOWNWARD FLUX   NET FLUX    HEATING RATE
          mb          W/m2          W/m2          W/m2        W/m2          W/m2       degree/day
  51    .06700        1.7211        0.0000        5.4450        5.4450       3.723892       0.00000
  50    .07753        1.7211        0.0000        5.4450        5.4450       3.723884       0.00640
  49    .09103        1.7211        0.0000        5.4450        5.4450       3.723874       0.00627
  48    0.1069        1.7211        0.0000        5.4450        5.4450       3.723862       0.00613
  47    0.1255        1.7211        0.0000        5.4450        5.4450       3.723849       0.00599
  46    0.1487        1.7211        0.0000        5.4450        5.4450       3.723832       0.00608
  45    0.1794        1.7211        0.0000        5.4450        5.4450       3.723809       0.00625
  44    0.2165        1.7211        0.0000        5.4449        5.4449       3.723783       0.00612
  43    0.2613        1.7211        0.0000        5.4449        5.4449       3.723751       0.00600
  42    0.3336        1.7211        0.0000        5.4448        5.4448       3.723698       0.00617
  41    0.4307        1.7211        0.0000        5.4448        5.4448       3.723627       0.00620
  40    0.5894        1.7211        0.0000        5.4446        5.4446       3.723507       0.00637
  39     1.339        1.7211        0.0000        5.4439        5.4439       3.722799       0.00797
  38     1.782        1.7211        0.0000        5.4434        5.4434       3.722256       0.01034
  37     2.292        1.7211        0.0000        5.4427        5.4427       3.721540       0.01186
  36     2.964        1.7211        0.0000        5.4416        5.4416       3.720502       0.01304
  35     3.853        1.7211        0.0000        5.4402        5.4402       3.719024       0.01402
  34     5.035        1.7211        0.0000        5.4381        5.4381       3.716968       0.01469
  33     6.613        1.7211        0.0000        5.4353        5.4353       3.714187       0.01487
  32     8.786        1.7211        0.0000        5.4317        5.4317       3.710554       0.01411
  31     11.80        1.7211        0.0000        5.4269        5.4269       3.705772       0.01339
  30     15.07        1.7211        0.0000        5.4224        5.4224       3.701243       0.01169
  29     18.79        1.7211        0.0000        5.4180        5.4180       3.696828       0.01001
  28     23.16        1.7212        0.0000        5.4135        5.4135       3.692336       0.00868
  27     28.12        1.7212        0.0000        5.4088        5.4088       3.687681       0.00791
  26     33.73        1.7212        0.0000        5.4036        5.4036       3.682430       0.00790
  25     40.54        1.7212        0.0000        5.3966        5.3967       3.675472       0.00863
  24     48.69        1.7212        0.0000        5.3872        5.3872       3.665969       0.00983
  23     57.69        1.7213        0.0000        5.3754        5.3754       3.654150       0.01108
  22     68.43        1.7213        0.0000        5.3599        5.3599       3.638611       0.01222
  21     81.20        1.7214        0.0000        5.3401        5.3401       3.618704       0.01315
  20     96.49        1.7215        0.0000        5.3155        5.3155       3.594034       0.01362
  19     114.6        1.7217        0.0001        5.2853        5.2854       3.563695       0.01417
  18     136.5        1.7219        0.0001        5.2504        5.2505       3.528586       0.01350
  17     162.9        1.7222        0.0001        5.2111        5.2112       3.488953       0.01267
  16     196.4        1.7227        0.0001        5.1640        5.1641       3.441379       0.01197
  15     218.7        1.7233        0.0001        5.1331        5.1332       3.409931       0.01194
  14     243.0        1.7242        0.0001        5.0962        5.0963       3.372164       0.01310
  13     269.0        1.7255        0.0001        5.0511        5.0512       3.325686       0.01508
  12     297.5        1.7276        0.0001        4.9956        4.9957       3.268137       0.01707
  11     328.5        1.7305        0.0001        4.9304        4.9305       3.200014       0.01852
  10     361.9        1.7345        0.0001        4.8511        4.8512       3.116754       0.02107
   9     398.1        1.7400        0.0002        4.7507        4.7508       3.010812       0.02468
   8     437.6        1.7478        0.0002        4.6220        4.6222       2.874456       0.02915
   7     480.5        1.7585        0.0002        4.4625        4.4627       2.704161       0.03345
   6     533.0        1.7761        0.0002        4.2460        4.2462       2.470138       0.03765
   5     589.8        1.8031        0.0002        3.9954        3.9956       2.192504       0.04121
   4     651.6        1.8481        0.0002        3.7089        3.7091       1.861014       0.04533
   3     718.7        1.9232        0.0002        3.4018        3.4020       1.478840       0.04803
   2     792.3        2.0620        0.0002        3.0564        3.0567       0.994630       0.05553
   1     891.5        0.0047        0.6367        0.0035        0.6402       0.635482       0.03056
   0    1013.0        0.0054        0.5290        0.0028        0.5318       0.526374       0.00758



 Wavenumbers:  3250. -  4000. cm-1, ATM      1
 LEVEL PRESSURE   UPWARD FLUX   DIFDOWN FLUX  DIRDOWN FLUX  DOWNWARD FLUX   NET FLUX    HEATING RATE
          mb          W/m2          W/m2          W/m2        W/m2          W/m2       degree/day
  51    .06700        0.0566        0.0000        9.1795        9.1795       9.122938       0.00000
  50    .07753        0.0566        0.0000        9.1747        9.1747       9.118096       3.88148
  49    .09103        0.0566        0.0000        9.1713        9.1713       9.114708       2.11747
  48    0.1069        0.0566        0.0000        9.1688        9.1688       9.112183       1.34402
  47    0.1255        0.0566        0.0000        9.1665        9.1665       9.109924       1.02422
  46    0.1487        0.0566        0.0000        9.1641        9.1641       9.107482       0.88991
  45    0.1794        0.0566        0.0000        9.1612        9.1612       9.104604       0.79008
  44    0.2165        0.0566        0.0000        9.1583        9.1583       9.101684       0.66430
  43    0.2613        0.0566        0.0000        9.1553        9.1553       9.098711       0.56041
  42    0.3336        0.0566        0.0000        9.1511        9.1511       9.094532       0.48723
  41    0.4307        0.0566        0.0000        9.1464        9.1464       9.089764       0.41459
  40    0.5894        0.0566        0.0000        9.1393        9.1394       9.082758       0.37255
  39     1.339        0.0566        0.0000        9.1127        9.1127       9.056144       0.29962
  38     1.782        0.0566        0.0000        9.1011        9.1011       9.044556       0.22062
  37     2.292        0.0566        0.0000        9.0901        9.0901       9.033490       0.18329
  36     2.964        0.0566        0.0000        9.0776        9.0776       9.021060       0.15603
  35     3.853        0.0566        0.0000        9.0629        9.0629       9.006270       0.14036
  34     5.035        0.0566        0.0000        9.0441        9.0441       8.987531       0.13386
  33     6.613        0.0566        0.0000        9.0191        9.0191       8.962529       0.13366
  32     8.786        0.0566        0.0000        8.9843        8.9843       8.927746       0.13509
  31     11.80        0.0566        0.0000        8.9327        8.9327       8.876129       0.14451
  30     15.07        0.0566        0.0000        8.8758        8.8759       8.819284       0.14676
  29     18.79        0.0566        0.0000        8.8110        8.8110       8.754457       0.14698
  28     23.16        0.0566        0.0000        8.7365        8.7366       8.680012       0.14395
  27     28.12        0.0566        0.0000        8.6554        8.6555       8.598899       0.13789
  26     33.73        0.0565        0.0000        8.5719        8.5719       8.515399       0.12554
  25     40.54        0.0565        0.0001        8.4812        8.4812       8.424676       0.11255
  24     48.69        0.0565        0.0001        8.3838        8.3839       8.327374       0.10069
  23     57.69        0.0565        0.0001        8.2861        8.2862       8.229639       0.09161
  22     68.43        0.0565        0.0001        8.1751        8.1751       8.118642       0.08726
  21     81.20        0.0565        0.0001        8.0457        8.0458       7.989284       0.08548
  20     96.49        0.0565        0.0001        7.8949        7.8951       7.838580       0.08318
  19     114.6        0.0564        0.0001        7.7162        7.7163       7.659870       0.08344
  18     136.5        0.0564        0.0002        7.5193        7.5195       7.463026       0.07569
  17     162.9        0.0564        0.0002        7.2913        7.2915       7.235133       0.07284
  16     196.4        0.0564        0.0002        6.9660        6.9662       6.909856       0.08188
  15     218.7        0.0564        0.0002        6.6648        6.6650       6.608658       0.11435
  14     243.0        0.0564        0.0002        6.2619        6.2622       6.205840       0.13971
  13     269.0        0.0564        0.0003        5.7576        5.7579       5.701483       0.16361
  12     297.5        0.0565        0.0003        5.1719        5.1722       5.115669       0.17375
  11     328.5        0.0567        0.0002        4.5757        4.5760       4.519295       0.16215
  10     361.9        0.0570        0.0002        3.9995        3.9998       3.942765       0.14587
   9     398.1        0.0576        0.0002        3.4655        3.4657       3.408126       0.12456
   8     437.6        0.0585        0.0002        2.9740        2.9743       2.915711       0.10528
   7     480.5        0.0601        0.0002        2.5307        2.5309       2.470772       0.08738
   6     533.0        0.0631        0.0002        2.0614        2.0616       1.998454       0.07598
   5     589.8        0.0686        0.0002        1.6150        1.6151       1.546503       0.06708
   4     651.6        0.0802        0.0001        1.1565        1.1566       1.076421       0.06428
   3     718.7        0.1056        0.0001        0.7390        0.7391       0.633489       0.05566
   2     792.3        0.1736        0.0001        0.3985        0.3985       0.224954       0.04685
   1     891.5        0.0000        0.0218        0.0002        0.0219       0.021907       0.01728
   0    1013.0        0.0002        0.0023        0.0000        0.0023       0.002114       0.00137



 Wavenumbers:  4000. -  4650. cm-1, ATM      1
 LEVEL PRESSURE   UPWARD FLUX   DIFDOWN FLUX  DIRDOWN FLUX  DOWNWARD FLUX   NET FLUX    HEATING RATE
          mb          W/m2          W/m2          W/m2        W/m2          W/m2       degree/day
  51    .06700        5.6040        0.0000       10.7795       10.7795       5.175512       0.00000
  50    .07753        5.6040        0.0000       10.7795       10.7795       5.175511       0.00080
  49    .09103        5.6040        0.0000       10.7795       10.7795       5.175510       0.00078
  48    0.1069        5.6040        0.0000       10.7795       10.7795       5.175509       0.00077
  47    0.1255        5.6040        0.0000       10.7795       10.7795       5.175507       0.00075
  46    0.1487        5.6040        0.0000       10.7795       10.7795       5.175505       0.00076
  45    0.1794        5.6040        0.0000       10.7795       10.7795       5.175502       0.00078
  44    0.2165        5.6040        0.0000       10.7795       10.7795       5.175499       0.00076
  43    0.2613        5.6040        0.0000       10.7795       10.7795       5.175495       0.00075
  42    0.3336        5.6040        0.0000       10.7795       10.7795       5.175488       0.00077
  41    0.4307        5.6040        0.0000       10.7795       10.7795       5.175479       0.00077
  40    0.5894        5.6040        0.0000       10.7795       10.7795       5.175464       0.00080
  39     1.339        5.6040        0.0000       10.7794       10.7794       5.175375       0.00101
  38     1.782        5.6040        0.0000       10.7793       10.7793       5.175305       0.00133
  37     2.292        5.6040        0.0000       10.7792       10.7792       5.175211       0.00156
  36     2.964        5.6040        0.0000       10.7791       10.7791       5.175070       0.00177
  35     3.853        5.6040        0.0000       10.7789       10.7789       5.174861       0.00198
  34     5.035        5.6040        0.0000       10.7786       10.7786       5.174554       0.00220
  33     6.613        5.6040        0.0000       10.7781       10.7781       5.174101       0.00242
  32     8.786        5.6040        0.0000       10.7774       10.7775       5.173432       0.00260
  31     11.80        5.6040        0.0001       10.7763       10.7764       5.172381       0.00294
  30     15.07        5.6040        0.0001       10.7751       10.7752       5.171148       0.00318
  29     18.79        5.6040        0.0001       10.7736       10.7737       5.169655       0.00338
  28     23.16        5.6040        0.0001       10.7717       10.7718       5.167801       0.00359
  27     28.12        5.6040        0.0001       10.7695       10.7696       5.165554       0.00382
  26     33.73        5.6041        0.0002       10.7667       10.7668       5.162782       0.00417
  25     40.54        5.6041        0.0002       10.7629       10.7631       5.159018       0.00467
  24     48.69        5.6041        0.0002       10.7579       10.7581       5.153998       0.00520
  23     57.69        5.6042        0.0003       10.7520       10.7523       5.148039       0.00559
  22     68.43        5.6044        0.0003       10.7446       10.7449       5.140561       0.00588
  21     81.20        5.6046        0.0004       10.7355       10.7359       5.131337       0.00609
  20     96.49        5.6048        0.0005       10.7245       10.7249       5.120093       0.00621
  19     114.6        5.6053        0.0005       10.7107       10.7113       5.106004       0.00658
  18     136.5        5.6058        0.0006       10.6942       10.6948       5.088989       0.00654
  17     162.9        5.6067        0.0008       10.6740       10.6748       5.068069       0.00669
  16     196.4        5.6082        0.0009       10.6464       10.6473       5.039103       0.00729
  15     218.7        5.6095        0.0010       10.6255       10.6265       5.016998       0.00839
  14     243.0        5.6114        0.0011       10.5980       10.5992       4.987803       0.01013
  13     269.0        5.6142        0.0013       10.5611       10.5623       4.948151       0.01286
  12     297.5        5.6183        0.0014       10.5119       10.5133       4.895023       0.01576
  11     328.5        5.6240        0.0015       10.4499       10.4514       4.827450       0.01837
  10     361.9        5.6314        0.0017       10.3702       10.3719       4.740493       0.02200
   9     398.1        5.6407        0.0018       10.2678       10.2696       4.628916       0.02599
   8     437.6        5.6527        0.0020       10.1390       10.1410       4.488324       0.03006
   7     480.5        5.6681        0.0022        9.9877        9.9899       4.321794       0.03271
   6     533.0        5.6919        0.0024        9.7937        9.7960       4.104113       0.03502
   5     589.8        5.7267        0.0026        9.5752        9.5777       3.851017       0.03757
   4     651.6        5.7834        0.0028        9.2958        9.2986       3.515201       0.04592
   3     718.7        5.8799        0.0030        8.9267        8.9297       3.049789       0.05849
   2     792.3        6.0650        0.0032        8.4542        8.4574       2.392427       0.07539
   1     891.5        0.2813        2.1552        0.0105        2.1657       1.884396       0.04323
   0    1013.0        0.2988        1.9894        0.0096        1.9989       1.700114       0.01280



 Wavenumbers:  4650. -  5150. cm-1, ATM      1
 LEVEL PRESSURE   UPWARD FLUX   DIFDOWN FLUX  DIRDOWN FLUX  DOWNWARD FLUX   NET FLUX    HEATING RATE
          mb          W/m2          W/m2          W/m2        W/m2          W/m2       degree/day
  51    .06700        4.0165        0.0000       10.2033       10.2033       6.186837       0.00000
  50    .07753        4.0165        0.0000       10.2031       10.2031       6.186601       0.18901
  49    .09103        4.0165        0.0000       10.2028       10.2028       6.186306       0.18428
  48    0.1069        4.0165        0.0000       10.2025       10.2025       6.185969       0.17931
  47    0.1255        4.0165        0.0000       10.2021       10.2021       6.185585       0.17426
  46    0.1487        4.0165        0.0000       10.2016       10.2016       6.185104       0.17536
  45    0.1794        4.0165        0.0000       10.2010       10.2010       6.184453       0.17850
  44    0.2165        4.0165        0.0000       10.2002       10.2002       6.183694       0.17277
  43    0.2613        4.0165        0.0000       10.1993       10.1993       6.182808       0.16690
  42    0.3336        4.0165        0.0000       10.1979       10.1979       6.181376       0.16702
  41    0.4307        4.0165        0.0000       10.1960       10.1960       6.179535       0.16002
  40    0.5894        4.0165        0.0000       10.1932       10.1932       6.176662       0.15283
  39     1.339        4.0165        0.0000       10.1816       10.1816       6.165069       0.13051
  38     1.782        4.0165        0.0000       10.1760       10.1760       6.159540       0.10527
  37     2.292        4.0165        0.0000       10.1706       10.1706       6.154083       0.09038
  36     2.964        4.0165        0.0000       10.1646       10.1647       6.148159       0.07437
  35     3.853        4.0165        0.0000       10.1584       10.1584       6.141943       0.05899
  34     5.035        4.0165        0.0000       10.1521       10.1521       6.135604       0.04528
  33     6.613        4.0165        0.0000       10.1456       10.1456       6.129142       0.03455
  32     8.786        4.0165        0.0001       10.1386       10.1386       6.122122       0.02726
  31     11.80        4.0165        0.0001       10.1295       10.1296       6.113064       0.02536
  30     15.07        4.0166        0.0001       10.1196       10.1197       6.103162       0.02557
  29     18.79        4.0166        0.0001       10.1076       10.1077       6.091121       0.02730
  28     23.16        4.0166        0.0002       10.0923       10.0924       6.075769       0.02969
  27     28.12        4.0167        0.0002       10.0731       10.0733       6.056609       0.03257
  26     33.73        4.0168        0.0002       10.0500       10.0503       6.033428       0.03485
  25     40.54        4.0170        0.0003       10.0201       10.0204       6.003400       0.03725
  24     48.69        4.0172        0.0003        9.9820        9.9823       5.965050       0.03969
  23     57.69        4.0176        0.0004        9.9384        9.9388       5.921283       0.04103
  22     68.43        4.0180        0.0005        9.8858        9.8862       5.868234       0.04170
  21     81.20        4.0186        0.0006        9.8234        9.8240       5.805405       0.04152
  20     96.49        4.0194        0.0007        9.7518        9.7524       5.732980       0.03997
  19     114.6        4.0206        0.0008        9.6719        9.6727       5.652091       0.03777
  18     136.5        4.0222        0.0009        9.5858        9.5867       5.564498       0.03368
  17     162.9        4.0245        0.0011        9.4940        9.4951       5.470662       0.02999
  16     196.4        4.0279        0.0013        9.3883        9.3896       5.361655       0.02744
  15     218.7        4.0306        0.0014        9.3229        9.3243       5.293716       0.02579
  14     243.0        4.0341        0.0016        9.2520        9.2535       5.219407       0.02577
  13     269.0        4.0388        0.0017        9.1717        9.1734       5.134536       0.02753
  12     297.5        4.0454        0.0019        9.0763        9.0782       5.032753       0.03019
  11     328.5        4.0540        0.0021        8.9650        8.9670       4.913060       0.03254
  10     361.9        4.0650        0.0023        8.8349        8.8372       4.772147       0.03565
   9     398.1        4.0794        0.0025        8.6820        8.6845       4.605078       0.03892
   8     437.6        4.0981        0.0027        8.5028        8.5055       4.407361       0.04227
   7     480.5        4.1225        0.0029        8.2948        8.2977       4.175207       0.04559
   6     533.0        4.1597        0.0031        8.0209        8.0240       3.864247       0.05002
   5     589.8        4.2117        0.0033        7.7063        7.7097       3.497937       0.05437
   4     651.6        4.2890        0.0035        7.3412        7.3448       3.055778       0.06047
   3     718.7        4.4067        0.0037        6.9387        6.9424       2.535712       0.06536
   2     792.3        4.5969        0.0039        6.5066        6.5105       1.913637       0.07135
   1     891.5        0.0694        1.5324        0.0080        1.5404       1.471045       0.03766
   0    1013.0        0.0749        1.3911        0.0072        1.3982       1.323335       0.01026



 Wavenumbers:  5150. -  6150. cm-1, ATM      1
 LEVEL PRESSURE   UPWARD FLUX   DIFDOWN FLUX  DIRDOWN FLUX  DOWNWARD FLUX   NET FLUX    HEATING RATE
          mb          W/m2          W/m2          W/m2        W/m2          W/m2       degree/day
  51    .06700        9.6132        0.0000       25.5798       25.5798      15.966615       0.00000
  50    .07753        9.6132        0.0000       25.5798       25.5798      15.966575       0.03162
  49    .09103        9.6132        0.0000       25.5797       25.5797      15.966524       0.03210
  48    0.1069        9.6132        0.0000       25.5797       25.5797      15.966463       0.03261
  47    0.1255        9.6132        0.0000       25.5796       25.5796      15.966390       0.03311
  46    0.1487        9.6132        0.0000       25.5795       25.5795      15.966294       0.03488
  45    0.1794        9.6132        0.0000       25.5794       25.5794      15.966159       0.03712
  44    0.2165        9.6132        0.0000       25.5792       25.5792      15.965993       0.03769
  43    0.2613        9.6132        0.0000       25.5790       25.5790      15.965790       0.03826
  42    0.3336        9.6132        0.0000       25.5786       25.5786      15.965443       0.04043
  41    0.4307        9.6132        0.0000       25.5782       25.5782      15.964972       0.04097
  40    0.5894        9.6132        0.0000       25.5774       25.5774      15.964183       0.04198
  39     1.339        9.6132        0.0000       25.5735       25.5736      15.960379       0.04282
  38     1.782        9.6132        0.0001       25.5713       25.5714      15.958164       0.04217
  37     2.292        9.6132        0.0001       25.5688       25.5688      15.955657       0.04152
  36     2.964        9.6132        0.0001       25.5656       25.5657      15.952471       0.03999
  35     3.853        9.6132        0.0001       25.5615       25.5616      15.948421       0.03843
  34     5.035        9.6132        0.0002       25.5562       25.5564      15.943205       0.03726
  33     6.613        9.6132        0.0002       25.5494       25.5496      15.936436       0.03619
  32     8.786        9.6132        0.0003       25.5406       25.5409      15.927662       0.03407
  31     11.80        9.6132        0.0004       25.5287       25.5290      15.915792       0.03323
  30     15.07        9.6133        0.0005       25.5167       25.5172      15.903883       0.03075
  29     18.79        9.6133        0.0006       25.5042       25.5048      15.891425       0.02824
  28     23.16        9.6134        0.0007       25.4907       25.4914      15.877999       0.02596
  27     28.12        9.6135        0.0009       25.4764       25.4773      15.863831       0.02408
  26     33.73        9.6136        0.0010       25.4620       25.4631      15.849457       0.02161
  25     40.54        9.6138        0.0013       25.4463       25.4475      15.833713       0.01953
  24     48.69        9.6141        0.0015       25.4294       25.4309      15.816817       0.01748
  23     57.69        9.6144        0.0018       25.4126       25.4144      15.800007       0.01576
  22     68.43        9.6148        0.0021       25.3944       25.3965      15.781716       0.01438
  21     81.20        9.6154        0.0025       25.3744       25.3769      15.761548       0.01333
  20     96.49        9.6161        0.0030       25.3519       25.3549      15.738845       0.01253
  19     114.6        9.6169        0.0035       25.3262       25.3297      15.712775       0.01217
  18     136.5        9.6180        0.0042       25.2962       25.3004      15.682397       0.01168
  17     162.9        9.6193        0.0050       25.2521       25.2571      15.637762       0.01427
  16     196.4        9.6212        0.0060       25.1593       25.1653      15.544136       0.02357
  15     218.7        9.6225        0.0067       25.0159       25.0226      15.400088       0.05469
  14     243.0        9.6242        0.0073       24.7089       24.7163      15.092089       0.10682
  13     269.0        9.6263        0.0080       24.1619       24.1699      14.543547       0.17794
  12     297.5        9.6292        0.0087       23.4544       23.4630      13.833795       0.21050
  11     328.5        9.6331        0.0093       22.7355       22.7448      13.111685       0.19634
  10     361.9        9.6383        0.0100       21.9224       21.9324      12.294184       0.20684
   9     398.1        9.6452        0.0107       20.9939       21.0046      11.359384       0.21779
   8     437.6        9.6549        0.0113       19.9833       19.9946      10.339737       0.21801
   7     480.5        9.6684        0.0119       18.9483       18.9602       9.291838       0.20580
   6     533.0        9.6913        0.0126       17.7796       17.7922       8.100860       0.19159
   5     589.8        9.7287        0.0133       16.6726       16.6859       6.957160       0.16976
   4     651.6        9.7974        0.0140       15.6343       15.6483       5.850884       0.15129
   3     718.7        9.9241        0.0148       14.7738       14.7886       4.864518       0.12396
   2     792.3       10.1793        0.0157       14.0291       14.0448       3.865481       0.11458
   1     891.5        0.5999        3.7218        0.0177        3.7394       3.139540       0.06177
   0    1013.0        0.6239        3.4884        0.0162        3.5047       2.880776       0.01797



 Wavenumbers:  6150. -  7700. cm-1, ATM      1
 LEVEL PRESSURE   UPWARD FLUX   DIFDOWN FLUX  DIRDOWN FLUX  DOWNWARD FLUX   NET FLUX    HEATING RATE
          mb          W/m2          W/m2          W/m2        W/m2          W/m2       degree/day
  51    .06700       15.5392        0.0000       47.3109       47.3109      31.771690       0.00000
  50    .07753       15.5392        0.0000       47.3108       47.3108      31.771633       0.04553
  49    .09103       15.5392        0.0000       47.3107       47.3107      31.771559       0.04583
  48    0.1069       15.5392        0.0000       47.3106       47.3106      31.771473       0.04614
  47    0.1255       15.5392        0.0000       47.3105       47.3105      31.771370       0.04645
  46    0.1487       15.5392        0.0000       47.3104       47.3104      31.771237       0.04852
  45    0.1794       15.5392        0.0000       47.3102       47.3102      31.771050       0.05127
  44    0.2165       15.5392        0.0000       47.3100       47.3100      31.770823       0.05167
  43    0.2613       15.5392        0.0000       47.3097       47.3097      31.770547       0.05210
  42    0.3336       15.5391        0.0000       47.3092       47.3092      31.770078       0.05471
  41    0.4307       15.5391        0.0000       47.3085       47.3086      31.769443       0.05521
  40    0.5894       15.5391        0.0001       47.3074       47.3075      31.768383       0.05633
  39     1.339       15.5391        0.0002       47.3022       47.3024      31.763291       0.05733
  38     1.782       15.5390        0.0002       47.2991       47.2994      31.760321       0.05655
  37     2.292       15.5390        0.0003       47.2956       47.2959      31.756945       0.05591
  36     2.964       15.5389        0.0004       47.2912       47.2916      31.752627       0.05421
  35     3.853       15.5389        0.0005       47.2855       47.2860      31.747092       0.05252
  34     5.035       15.5388        0.0006       47.2780       47.2787      31.739912       0.05129
  33     6.613       15.5386        0.0008       47.2683       47.2692      31.730524       0.05019
  32     8.786       15.5385        0.0011       47.2556       47.2567      31.718224       0.04777
  31     11.80       15.5382        0.0015       47.2380       47.2395      31.701320       0.04733
  30     15.07       15.5380        0.0019       47.2201       47.2220      31.684032       0.04463
  29     18.79       15.5377        0.0024       47.2008       47.2032      31.665552       0.04190
  28     23.16       15.5373        0.0030       47.1795       47.1825      31.645161       0.03943
  27     28.12       15.5369        0.0036       47.1565       47.1601      31.623166       0.03739
  26     33.73       15.5365        0.0043       47.1324       47.1367      31.600243       0.03447
  25     40.54       15.5359        0.0052       47.1054       47.1105      31.574604       0.03181
  24     48.69       15.5353        0.0062       47.0754       47.0816      31.546348       0.02924
  23     57.69       15.5346        0.0074       47.0449       47.0523      31.517722       0.02683
  22     68.43       15.5337        0.0087       47.0110       47.0197      31.485981       0.02495
  21     81.20       15.5327        0.0104       46.9729       46.9832      31.450480       0.02346
  20     96.49       15.5315        0.0123       46.9294       46.9417      31.410130       0.02227
  19     114.6       15.5301        0.0146       46.8790       46.8936      31.363484       0.02178
  18     136.5       15.5285        0.0173       46.8200       46.8373      31.308842       0.02101
  17     162.9       15.5265        0.0206       46.7361       46.7567      31.230188       0.02514
  16     196.4       15.5241        0.0248       46.5703       46.5950      31.070906       0.04009
  15     218.7       15.5228        0.0275       46.3473       46.3748      30.852040       0.08310
  14     243.0       15.5216        0.0303       45.9299       45.9602      30.438591       0.14340
  13     269.0       15.5211        0.0332       45.1708       45.2040      29.682831       0.24516
  12     297.5       15.5221        0.0360       44.0115       44.0475      28.525384       0.34329
  11     328.5       15.5249        0.0388       42.7242       42.7631      27.238167       0.34999
  10     361.9       15.5306        0.0417       41.3539       41.3957      25.865092       0.34740
   9     398.1       15.5407        0.0446       39.7953       39.8398      24.299101       0.36484
   8     437.6       15.5581        0.0472       37.9948       38.0420      22.483852       0.38811
   7     480.5       15.5862        0.0498       36.0647       36.1145      20.528262       0.38407
   6     533.0       15.6393        0.0525       33.7773       33.8298      18.190456       0.37608
   5     589.8       15.7323        0.0550       31.4082       31.4632      15.730839       0.36509
   4     651.6       15.9125        0.0570       28.8834       28.9404      13.027894       0.36964
   3     718.7       16.2584        0.0588       26.4104       26.4692      10.210727       0.35404
   2     792.3       16.9982        0.0602       24.0056       24.0659       7.067604       0.36048
   1     891.5        1.2325        6.1626        0.0286        6.1913       4.958808       0.17945
   0    1013.0        1.3174        5.5644        0.0251        5.5895       4.272036       0.04769



 Wavenumbers:  7700. -  8050. cm-1, ATM      1
 LEVEL PRESSURE   UPWARD FLUX   DIFDOWN FLUX  DIRDOWN FLUX  DOWNWARD FLUX   NET FLUX    HEATING RATE
          mb          W/m2          W/m2          W/m2        W/m2          W/m2       degree/day
  51    .06700        7.5774        0.0000       11.1810       11.1810       3.603610       0.00000
  50    .07753        7.5774        0.0000       11.1809       11.1809       3.603587       0.01851
  49    .09103        7.5774        0.0000       11.1809       11.1809       3.603558       0.01814
  48    0.1069        7.5774        0.0000       11.1809       11.1809       3.603524       0.01776
  47    0.1255        7.5774        0.0000       11.1809       11.1809       3.603486       0.01738
  46    0.1487        7.5774        0.0000       11.1808       11.1808       3.603438       0.01763
  45    0.1794        7.5774        0.0000       11.1808       11.1808       3.603372       0.01814
  44    0.2165        7.5774        0.0000       11.1807       11.1807       3.603293       0.01780
  43    0.2613        7.5774        0.0000       11.1806       11.1806       3.603201       0.01746
  42    0.3336        7.5775        0.0000       11.1805       11.1805       3.603047       0.01787
  41    0.4307        7.5775        0.0000       11.1803       11.1804       3.602844       0.01768
  40    0.5894        7.5776        0.0000       11.1801       11.1801       3.602512       0.01766
  39     1.339        7.5779        0.0001       11.1788       11.1789       3.600941       0.01769
  38     1.782        7.5782        0.0001       11.1781       11.1782       3.600019       0.01757
  37     2.292        7.5784        0.0001       11.1772       11.1773       3.598950       0.01769
  36     2.964        7.5787        0.0002       11.1761       11.1762       3.597548       0.01761
  35     3.853        7.5791        0.0002       11.1746       11.1748       3.595695       0.01758
  34     5.035        7.5797        0.0003       11.1726       11.1729       3.593234       0.01758
  33     6.613        7.5804        0.0004       11.1700       11.1703       3.589946       0.01758
  32     8.786        7.5814        0.0005       11.1664       11.1669       3.585516       0.01720
  31     11.80        7.5828        0.0007       11.1613       11.1620       3.579182       0.01773
  30     15.07        7.5843        0.0009       11.1558       11.1567       3.572386       0.01755
  29     18.79        7.5861        0.0011       11.1497       11.1508       3.564714       0.01739
  28     23.16        7.5881        0.0014       11.1425       11.1439       3.555763       0.01731
  27     28.12        7.5904        0.0017       11.1343       11.1360       3.545539       0.01738
  26     33.73        7.5931        0.0020       11.1252       11.1272       3.534115       0.01718
  25     40.54        7.5962        0.0024       11.1142       11.1166       3.520339       0.01709
  24     48.69        7.6001        0.0029       11.1010       11.1039       3.503771       0.01715
  23     57.69        7.6044        0.0034       11.0866       11.0900       3.485623       0.01701
  22     68.43        7.6095        0.0040       11.0695       11.0736       3.464080       0.01694
  21     81.20        7.6156        0.0048       11.0494       11.0541       3.438517       0.01689
  20     96.49        7.6230        0.0057       11.0255       11.0312       3.408201       0.01673
  19     114.6        7.6319        0.0067       10.9975       11.0043       3.372407       0.01671
  18     136.5        7.6425        0.0080       10.9648       10.9727       3.330256       0.01621
  17     162.9        7.6553        0.0095       10.9263       10.9358       3.280426       0.01593
  16     196.4        7.6723        0.0114       10.8773       10.8887       3.216354       0.01613
  15     218.7        7.6836        0.0127       10.8455       10.8582       3.174555       0.01587
  14     243.0        7.6962        0.0140       10.8114       10.8255       3.129304       0.01569
  13     269.0        7.7100        0.0155       10.7749       10.7904       3.080391       0.01587
  12     297.5        7.7253        0.0171       10.7357       10.7528       3.027533       0.01568
  11     328.5        7.7422        0.0189       10.6937       10.7126       2.970350       0.01555
  10     361.9        7.7610        0.0207       10.6489       10.6696       2.908544       0.01564
   9     398.1        7.7820        0.0227       10.6008       10.6235       2.841512       0.01562
   8     437.6        7.8055        0.0249       10.5491       10.5740       2.768505       0.01561
   7     480.5        7.8318        0.0272       10.4934       10.5206       2.688810       0.01565
   6     533.0        7.8662        0.0300       10.4243       10.4543       2.588095       0.01620
   5     589.8        7.9064        0.0331       10.3479       10.3810       2.474621       0.01684
   4     651.6        7.9546        0.0364       10.2613       10.2977       2.343123       0.01798
   3     718.7        8.0138        0.0398       10.1618       10.2016       2.187831       0.01952
   2     792.3        8.0892        0.0435       10.0439       10.0874       1.998242       0.02174
   1     891.5        2.2925        4.1048        0.0133        4.1181       1.825631       0.01469
   0    1013.0        2.3405        4.0164        0.0130        4.0294       1.688840       0.00950



 Wavenumbers:  8050. - 12850. cm-1, ATM      1
 LEVEL PRESSURE   UPWARD FLUX   DIFDOWN FLUX  DIRDOWN FLUX  DOWNWARD FLUX   NET FLUX    HEATING RATE
          mb          W/m2          W/m2          W/m2        W/m2          W/m2       degree/day
  51    .06700      106.8477        0.0000      156.5418      156.5418      49.694068       0.00000
  50    .07753      106.8477        0.0000      156.5417      156.5417      49.694068      -0.00000
  49    .09103      106.8477        0.0001      156.5417      156.5417      49.694068       0.00000
  48    0.1069      106.8476        0.0001      156.5416      156.5417      49.694068       0.00000
  47    0.1255      106.8476        0.0002      156.5415      156.5417      49.694068      -0.00000
  46    0.1487      106.8476        0.0002      156.5414      156.5417      49.694068       0.00000
  45    0.1794      106.8476        0.0003      156.5413      156.5416      49.694068       0.00000
  44    0.2165      106.8475        0.0004      156.5412      156.5416      49.694068      -0.00000
  43    0.2613      106.8475        0.0006      156.5410      156.5416      49.694068       0.00000
  42    0.3336      106.8474        0.0008      156.5407      156.5415      49.694068       0.00000
  41    0.4307      106.8473        0.0011      156.5403      156.5414      49.694068      -0.00000
  40    0.5894      106.8472        0.0015      156.5397      156.5412      49.694068       0.00000
  39     1.339      106.8464        0.0037      156.5367      156.5405      49.694068      -0.00000
  38     1.782      106.8460        0.0050      156.5350      156.5400      49.694068      -0.00000
  37     2.292      106.8455        0.0065      156.5330      156.5395      49.694068       0.00000
  36     2.964      106.8448        0.0085      156.5303      156.5389      49.694068      -0.00000
  35     3.853      106.8439        0.0111      156.5268      156.5380      49.694068       0.00000
  34     5.035      106.8427        0.0146      156.5222      156.5368      49.694068       0.00000
  33     6.613      106.8412        0.0192      156.5160      156.5352      49.694068       0.00000
  32     8.786      106.8390        0.0255      156.5076      156.5331      49.694068      -0.00000
  31     11.80      106.8360        0.0344      156.4957      156.5301      49.694068       0.00000
  30     15.07      106.8327        0.0440      156.4828      156.5268      49.694068       0.00000
  29     18.79      106.8291        0.0549      156.4682      156.5231      49.694068       0.00000
  28     23.16      106.8247        0.0676      156.4512      156.5188      49.694068      -0.00000
  27     28.12      106.8198        0.0822      156.4317      156.5139      49.694068       0.00000
  26     33.73      106.8143        0.0985      156.4099      156.5083      49.694068       0.00000
  25     40.54      106.8076        0.1182      156.3834      156.5016      49.694068      -0.00000
  24     48.69      106.7995        0.1420      156.3515      156.4936      49.694068      -0.00000
  23     57.69      106.7906        0.1682      156.3164      156.4847      49.694068       0.00000
  22     68.43      106.7800        0.1995      156.2746      156.4740      49.694068      -0.00000
  21     81.20      106.7673        0.2368      156.2246      156.4614      49.694068      -0.00000
  20     96.49      106.7522        0.2813      156.1649      156.4463      49.694068       0.00000
  19     114.6      106.7344        0.3343      156.0879      156.4222      49.687797       0.00293
  18     136.5      106.7133        0.3972      155.9962      156.3934      49.680022       0.00299
  17     162.9      106.6882        0.4723      155.8831      156.3553      49.667132       0.00412
  16     196.4      106.6557        0.5699      155.7199      156.2899      49.634147       0.00830
  15     218.7      106.6348        0.6341      155.5733      156.2074      49.572665       0.02334
  14     243.0      106.6131        0.7039      155.3367      156.0406      49.427484       0.05035
  13     269.0      106.5924        0.7794      154.9514      155.7309      49.138504       0.09374
  12     297.5      106.5751        0.8608      154.3896      155.2504      48.675246       0.13740
  11     328.5      106.5631        0.9484      153.7151      154.6635      48.100393       0.15630
  10     361.9      106.5600        1.0426      152.9087      153.9513      47.391262       0.17942
   9     398.1      106.5718        1.1433      151.8986      153.0419      46.470031       0.21463
   8     437.6      106.6089        1.2504      150.6031      151.8535      45.244644       0.26200
   7     480.5      106.6838        1.3637      149.0014      150.3651      43.681273       0.30704
   6     533.0      106.8430        1.5009      146.7375      148.2384      41.395436       0.36772
   5     589.8      107.1392        1.6446      143.8730      145.5176      38.378387       0.44783
   4     651.6      107.7261        1.7921      140.0955      141.8876      34.161513       0.57667
   3     718.7      108.8320        1.9418      135.5278      137.4696      28.637553       0.69421
   2     792.3      111.0354        2.0899      130.0690      132.1589      21.123582       0.86177
   1     891.5       54.8802       69.1600        0.1649       69.3249      14.444688       0.56834
   0    1013.0       56.7125       66.2377        0.1525       66.3902       9.677757       0.33099



 Wavenumbers: 12850. - 16000. cm-1, ATM      1
 LEVEL PRESSURE   UPWARD FLUX   DIFDOWN FLUX  DIRDOWN FLUX  DOWNWARD FLUX   NET FLUX    HEATING RATE
          mb          W/m2          W/m2          W/m2        W/m2          W/m2       degree/day
  51    .06700       81.5623        0.0000       98.0872       98.0872      16.524931       0.00000
  50    .07753       81.5623        0.0001       98.0864       98.0864      16.524138       0.63541
  49    .09103       81.5623        0.0002       98.0853       98.0855      16.523143       0.62245
  48    0.1069       81.5623        0.0003       98.0841       98.0843      16.521998       0.60927
  47    0.1255       81.5623        0.0004       98.0826       98.0830      16.520682       0.59641
  46    0.1487       81.5624        0.0005       98.0809       98.0814      16.519021       0.60545
  45    0.1794       81.5624        0.0007       98.0784       98.0792      16.516761       0.62057
  44    0.2165       81.5625        0.0010       98.0756       98.0766      16.514100       0.60521
  43    0.2613       81.5626        0.0013       98.0723       98.0736      16.510970       0.59010
  42    0.3336       81.5629        0.0017       98.0670       98.0688      16.505857       0.59616
  41    0.4307       81.5633        0.0024       98.0602       98.0626      16.499239       0.57542
  40    0.5894       81.5642        0.0034       98.0496       98.0530      16.488797       0.55526
  39     1.339       81.5713        0.0083       98.0043       98.0126      16.441274       0.53502
  38     1.782       81.5778        0.0111       97.9793       97.9904      16.412608       0.54576
  37     2.292       81.5874        0.0144       97.9498       97.9642      16.376812       0.59288
  36     2.964       81.6032        0.0188       97.9088       97.9276      16.324349       0.65857
  35     3.853       81.6287        0.0245       97.8503       97.8748      16.246115       0.74245
  34     5.035       81.6671        0.0321       97.7680       97.8001      16.133029       0.80784
  33     6.613       81.7206        0.0423       97.6562       97.6984      15.977872       0.82947
  32     8.786       81.7903        0.0559       97.5107       97.5666      15.776333       0.78270
  31     11.80       81.8811        0.0755       97.3179       97.3933      15.512245       0.73936
  30     15.07       81.9682        0.0964       97.1283       97.2248      15.256531       0.66020
  29     18.79       82.0574        0.1201       96.9300       97.0501      14.992762       0.59804
  28     23.16       82.1507        0.1477       96.7166       96.8643      14.713576       0.53986
  27     28.12       82.2449        0.1793       96.4935       96.6728      14.427863       0.48569
  26     33.73       82.3324        0.2146       96.2731       96.4877      14.155339       0.40975
  25     40.54       82.4173        0.2573       96.0408       96.2981      13.880846       0.34054
  24     48.69       82.4994        0.3088       95.7946       96.1034      13.603991       0.28650
  23     57.69       82.5701        0.3654       95.5573       95.9226      13.352576       0.23566
  22     68.43       82.6331        0.4328       95.3106       95.7434      13.110274       0.19048
  21     81.20       82.6792        0.5132       95.0643       95.5775      12.898286       0.14008
  20     96.49       82.7074        0.6091       94.8153       95.4244      12.716946       0.10009
  19     114.6       82.7399        0.7241       94.5411       95.2652      12.525259       0.08950
  18     136.5       82.7669        0.8605       94.2320       95.0925      12.325627       0.07676
  17     162.9       82.7885        1.0228       93.8753       94.8981      12.109657       0.06903
  16     196.4       82.7941        1.2334       93.4347       94.6681      11.873972       0.05932
  15     218.7       82.7899        1.3717       93.1513       94.5230      11.733088       0.05349
  14     243.0       82.7822        1.5220       92.8439       94.3660      11.583781       0.05178
  13     269.0       82.7711        1.6849       92.5111       94.1961      11.424983       0.05151
  12     297.5       82.7574        1.8610       92.1495       94.0105      11.253094       0.05098
  11     328.5       82.7434        2.0512       91.7554       93.8066      11.063243       0.05162
  10     361.9       82.7303        2.2560       91.3262       93.5822      10.851922       0.05347
   9     398.1       82.7201        2.4764       90.8575       93.3339      10.613805       0.05548
   8     437.6       82.7166        2.7130       90.3418       93.0548      10.338189       0.05893
   7     480.5       82.7234        2.9663       89.7728       92.7391      10.015762       0.06332
   6     533.0       82.7521        3.2779       89.0428       92.3207       9.568606       0.07193
   5     589.8       82.8204        3.6126       88.2038       91.8165       8.996031       0.08499
   4     651.6       82.9696        3.9703       87.1979       91.1682       8.198647       0.10904
   3     718.7       83.2317        4.3493       86.0161       90.3654       7.133699       0.13383
   2     792.3       83.7025        4.7458       84.5970       89.3428       5.640306       0.17128
   1     891.5       60.3985       64.2746        0.1112       64.3859       3.987400       0.14065
   0    1013.0       61.2320       63.2791        0.1074       63.3865       2.154584       0.12726



 Wavenumbers: 16000. - 22650. cm-1, ATM      1
 LEVEL PRESSURE   UPWARD FLUX   DIFDOWN FLUX  DIRDOWN FLUX  DOWNWARD FLUX   NET FLUX    HEATING RATE
          mb          W/m2          W/m2          W/m2        W/m2          W/m2       degree/day
  51    .06700      140.8379        0.0000      156.3892      156.3892      15.551319       0.00000
  50    .07753      140.8379        0.0004      156.3887      156.3891      15.551171       0.11827
  49    .09103      140.8379        0.0009      156.3879      156.3888      15.550957       0.13415
  48    0.1069      140.8379        0.0015      156.3871      156.3885      15.550669       0.15297
  47    0.1255      140.8379        0.0021      156.3861      156.3882      15.550285       0.17437
  46    0.1487      140.8380        0.0030      156.3847      156.3877      15.549718       0.20662
  45    0.1794      140.8381        0.0041      156.3828      156.3869      15.548832       0.24328
  44    0.2165      140.8383        0.0054      156.3805      156.3859      15.547630       0.27342
  43    0.2613      140.8386        0.0070      156.3776      156.3846      15.545999       0.30739
  42    0.3336      140.8394        0.0097      156.3726      156.3823      15.542899       0.36148
  41    0.4307      140.8406        0.0131      156.3657      156.3789      15.538225       0.40635
  40    0.5894      140.8432        0.0188      156.3537      156.3725      15.529312       0.47399
  39     1.339      140.8658        0.0458      156.2834      156.3292      15.463461       0.74136
  38     1.782      140.8866        0.0617      156.2324      156.2940      15.407364       1.06800
  37     2.292      140.9179        0.0800      156.1641      156.2441      15.326163       1.34490
  36     2.964      140.9699        0.1041      156.0605      156.1645      15.194616       1.65131
  35     3.853      141.0540        0.1358      155.9041      156.0399      14.985884       1.98091
  34     5.035      141.1809        0.1780      155.6774      155.8553      14.674472       2.22460
  33     6.613      141.3581        0.2342      155.3656      155.5998      14.241701       2.31360
  32     8.786      141.5890        0.3099      154.9577      155.2676      13.678568       2.18700
  31     11.80      141.8895        0.4181      154.4153      154.8333      12.943827       2.05704
  30     15.07      142.1773        0.5340      153.8804      154.4144      12.237032       1.82481
  29     18.79      142.4712        0.6647      153.3191      153.9838      11.512635       1.64243
  28     23.16      142.7783        0.8173      152.7126      153.5298      10.751483       1.47182
  27     28.12      143.0873        0.9914      152.0755      153.0669       9.979550       1.31223
  26     33.73      143.3725        1.1861      151.4409      152.6270       9.254475       1.09017
  25     40.54      143.6469        1.4211      150.7637      152.1848       8.537844       0.88906
  24     48.69      143.9096        1.7041      150.0338      151.7379       7.828370       0.73419
  23     57.69      144.1322        2.0146      149.3151      151.3297       7.197579       0.59127
  22     68.43      144.3262        2.3840      148.5476      150.9316       6.605435       0.46550
  21     81.20      144.4599        2.8239      147.7517      150.5755       6.115596       0.32368
  20     96.49      144.5289        3.3474      146.9127      150.2601       5.731197       0.21216
  19     114.6      144.5643        3.9673      145.9763      149.9436       5.379321       0.16430
  18     136.5      144.5749        4.6993      144.9088      149.6080       5.033169       0.13310
  17     162.9      144.5589        5.5668      143.6785      149.2453       4.686425       0.11083
  16     196.4      144.4766        6.6861      142.1651      148.8512       4.374566       0.07850
  15     218.7      144.4000        7.4176      141.2033      148.6210       4.220925       0.05833
  14     243.0      144.3064        8.2093      140.1753      148.3847       4.078216       0.04950
  13     269.0      144.1943        9.0634      139.0797      148.1431       3.948839       0.04197
  12     297.5      144.0629        9.9820      137.9141      147.8960       3.833155       0.03431
  11     328.5      143.9163       10.9693      136.6676      147.6369       3.720520       0.03063
  10     361.9      143.7544       12.0262      135.3392      147.3654       3.611055       0.02770
   9     398.1      143.5765       13.1569      133.9235      147.0804       3.503839       0.02498
   8     437.6      143.3838       14.3633      132.4163      146.7795       3.395683       0.02312
   7     480.5      143.1759       15.6475      130.8147      146.4622       3.286248       0.02149
   6     533.0      142.9204       17.2160      128.8599      146.0759       3.155515       0.02103
   5     589.8      142.6495       18.8919      126.7679      145.6599       3.010348       0.02155
   4     651.6      142.3701       20.6768      124.5274      145.2042       2.834149       0.02410
   3     718.7      142.0889       22.5724      122.1285      144.7008       2.611938       0.02793
   2     792.3      141.8239       24.5765      119.5548      144.1313       2.307405       0.03493
   1     891.5      118.2855      120.0119        0.1566      120.1684       1.882955       0.03612
   0    1013.0      118.5474      119.7027        0.1509      119.8536       1.306132       0.04005



 Wavenumbers: 22650. - 29000. cm-1, ATM      1
 LEVEL PRESSURE   UPWARD FLUX   DIFDOWN FLUX  DIRDOWN FLUX  DOWNWARD FLUX   NET FLUX    HEATING RATE
          mb          W/m2          W/m2          W/m2        W/m2          W/m2       degree/day
  51    .06700       58.6835        0.0000       59.0156       59.0156       0.332157       0.00000
  50    .07753       58.6834        0.0005       59.0151       59.0155       0.332157      -0.00000
  49    .09103       58.6833        0.0010       59.0144       59.0154       0.332157       0.00000
  48    0.1069       58.6831        0.0017       59.0136       59.0153       0.332157      -0.00000
  47    0.1255       58.6830        0.0025       59.0127       59.0151       0.332157       0.00000
  46    0.1487       58.6828        0.0035       59.0115       59.0149       0.332157      -0.00000
  45    0.1794       58.6825        0.0048       59.0099       59.0147       0.332157       0.00000
  44    0.2165       58.6822        0.0063       59.0080       59.0144       0.332157       0.00000
  43    0.2613       58.6819        0.0082       59.0058       59.0140       0.332157      -0.00000
  42    0.3336       58.6813        0.0113       59.0022       59.0134       0.332157       0.00000
  41    0.4307       58.6805        0.0154       58.9973       59.0127       0.332157      -0.00000
  40    0.5894       58.6792        0.0220       58.9894       59.0114       0.332157       0.00000
  39     1.339       58.6731        0.0535       58.9518       59.0053       0.332157       0.00000
  38     1.782       58.6696        0.0720       58.9297       59.0017       0.332157       0.00000
  37     2.292       58.6655        0.0935       58.9042       58.9976       0.332157      -0.00000
  36     2.964       58.6601        0.1216       58.8706       58.9922       0.332157      -0.00000
  35     3.853       58.6529        0.1587       58.8264       58.9851       0.332157       0.00000
  34     5.035       58.6434        0.2080       58.7676       58.9756       0.332157      -0.00000
  33     6.613       58.6307        0.2738       58.6891       58.9629       0.332157       0.00000
  32     8.786       58.6137        0.3624       58.5834       58.9458       0.332157      -0.00000
  31     11.80       58.5893        0.4890       58.4324       58.9215       0.332157       0.00000
  30     15.07       58.5632        0.6247       58.2706       58.8953       0.332157       0.00000
  29     18.79       58.5337        0.7777       58.0882       58.8659       0.332157       0.00000
  28     23.16       58.4994        0.9559       57.8757       58.8316       0.332157      -0.00000
  27     28.12       58.4603        1.1591       57.6333       58.7924       0.332157       0.00000
  26     33.73       58.4166        1.3857       57.3631       58.7488       0.332157       0.00000
  25     40.54       58.3641        1.6584       57.0379       58.6963       0.332157      -0.00000
  24     48.69       58.3011        1.9854       56.6479       58.6333       0.332157       0.00000
  23     57.69       58.2324        2.3424       56.2221       58.5645       0.332157       0.00000
  22     68.43       58.1510        2.7646       55.7186       58.4832       0.332157       0.00000
  21     81.20       58.0550        3.2632       55.1239       58.3871       0.332157      -0.00000
  20     96.49       57.9417        3.8510       54.4228       58.2738       0.332157       0.00000
  19     114.6       57.8089        4.5400       53.6010       58.1410       0.332157      -0.00000
  18     136.5       57.6538        5.3442       52.6418       57.9859       0.332157       0.00000
  17     162.9       57.4725        6.2843       51.5203       57.8046       0.332157      -0.00000
  16     196.4       57.2426        7.4753       50.0994       57.5748       0.332157       0.00000
  15     218.7       57.0948        8.2407       49.1863       57.4270       0.332157      -0.00000
  14     243.0       56.9370        9.0579       48.2113       57.2692       0.332157       0.00000
  13     269.0       56.7692        9.9264       47.1749       57.1014       0.332157       0.00000
  12     297.5       56.5916       10.8455       46.0783       56.9237       0.332157       0.00000
  11     328.5       56.4038       11.8164       44.9195       56.7359       0.332157      -0.00000
  10     361.9       56.2064       12.8367       43.7018       56.5385       0.332157       0.00000
   9     398.1       55.9993       13.9064       42.4250       56.3314       0.332157      -0.00000
   8     437.6       55.7829       15.0234       41.0916       56.1150       0.332157       0.00000
   7     480.5       55.5576       16.1853       39.7045       55.8897       0.332157      -0.00000
   6     533.0       55.2894       17.5673       38.0543       55.6215       0.332157       0.00000
   5     589.8       55.0110       19.0001       36.3431       55.3432       0.332157       0.00000
   4     651.6       54.7239       20.4765       34.5795       55.0560       0.332157      -0.00000
   3     718.7       54.4289       21.9908       32.7702       54.7610       0.332157      -0.00000
   2     792.3       54.1277       23.5343       30.9256       54.4599       0.332157       0.00000
   1     891.5       48.4452       48.7382        0.0386       48.7768       0.331558       0.00005
   0    1013.0       48.4331       48.7296        0.0350       48.7646       0.331558       0.00000



 Wavenumbers: 29000. - 38000. cm-1, ATM      1
 LEVEL PRESSURE   UPWARD FLUX   DIFDOWN FLUX  DIRDOWN FLUX  DOWNWARD FLUX   NET FLUX    HEATING RATE
          mb          W/m2          W/m2          W/m2        W/m2          W/m2       degree/day
  51    .06700        8.7718        0.0000       20.8114       20.8114      12.039529       0.00000
  50    .07753        8.7716        0.0003       20.8070       20.8074      12.035722       3.05156
  49    .09103        8.7714        0.0007       20.8009       20.8016      12.030184       3.46086
  48    0.1069        8.7712        0.0012       20.7928       20.7939      12.022775       3.94431
  47    0.1255        8.7709        0.0017       20.7820       20.7837      12.012870       4.49036
  46    0.1487        8.7705        0.0024       20.7665       20.7688      11.998307       5.30846
  45    0.1794        8.7701        0.0033       20.7424       20.7457      11.975642       6.22207
  44    0.2165        8.7696        0.0044       20.7103       20.7147      11.945119       6.94343
  43    0.2613        8.7690        0.0056       20.6675       20.6731      11.904124       7.72736
  42    0.3336        8.7681        0.0077       20.5880       20.5957      11.827562       8.92630
  41    0.4307        8.7670        0.0104       20.4722       20.4826      11.715609       9.73408
  40    0.5894        8.7655        0.0147       20.2637       20.2784      11.512924      10.77853
  39     1.339        8.7621        0.0331       19.0984       19.1315      10.369438      12.87358
  38     1.782        8.7626        0.0427       18.4394       18.4821       9.719506      12.37366
  37     2.292        8.7653        0.0530       17.7714       17.8244       9.059151      10.93721
  36     2.964        8.7718        0.0657       17.0421       17.1078       8.336009       9.07761
  35     3.853        8.7847        0.0816       16.2678       16.3495       7.564802       7.31889
  34     5.035        8.8059        0.1018       15.4803       15.5821       6.776267       5.63297
  33     6.613        8.8367        0.1276       14.7157       14.8433       6.006625       4.11451
  32     8.786        8.8774        0.1614       13.9936       14.1550       5.277598       2.83128
  31     11.80        8.9305        0.2085       13.2835       13.4920       4.561528       2.00477
  30     15.07        8.9817        0.2573       12.7394       12.9967       4.014944       1.41117
  29     18.79        9.0346        0.3114       12.2666       12.5780       3.543376       1.06919
  28     23.16        9.0909        0.3730       11.8300       12.2030       3.112098       0.83395
  27     28.12        9.1485        0.4419       11.4279       11.8698       2.721251       0.66441
  26     33.73        9.2017        0.5179       11.0695       11.5873       2.385587       0.50468
  25     40.54        9.2523        0.6086       10.7209       11.3295       2.077248       0.38253
  24     48.69        9.3000        0.7163       10.3742       11.0905       1.790506       0.29673
  23     57.69        9.3393        0.8329       10.0549       10.8878       1.548564       0.22678
  22     68.43        9.3711        0.9697        9.7327       10.7024       1.331340       0.17077
  21     81.20        9.3865        1.1312        9.4134       10.5446       1.158106       0.11447
  20     96.49        9.3835        1.3210        9.0887       10.4098       1.026221       0.07279
  19     114.6        9.3704        1.5404        8.7388       10.2792       0.908813       0.05482
  18     136.5        9.3499        1.7912        8.3549       10.1461       0.796144       0.04332
  17     162.9        9.3224        2.0771        7.9311       10.0082       0.685813       0.03527
  16     196.4        9.2759        2.4312        7.4333        9.8646       0.588684       0.02445
  15     218.7        9.2423        2.6540        7.1295        9.7836       0.541305       0.01799
  14     243.0        9.2055        2.8869        6.8161        9.7030       0.497551       0.01518
  13     269.0        9.1652        3.1291        6.4943        9.6235       0.458259       0.01275
  12     297.5        9.1216        3.3795        6.1657        9.5452       0.423618       0.01027
  11     328.5        9.0761        3.6371        5.8295        9.4665       0.390447       0.00902
  10     361.9        9.0291        3.8994        5.4886        9.3880       0.358895       0.00798
   9     398.1        8.9809        4.1659        5.1440        9.3098       0.328991       0.00697
   8     437.6        8.9318        4.4350        4.7969        9.2320       0.300157       0.00616
   7     480.5        8.8823        4.7047        4.4504        9.1551       0.272783       0.00538
   6     533.0        8.8255        5.0122        4.0563        9.0685       0.242936       0.00480
   5     589.8        8.7697        5.3155        3.6682        8.9837       0.214031       0.00429
   4     651.6        8.7157        5.6109        3.2905        8.9014       0.185744       0.00387
   3     718.7        8.6639        5.8968        2.9252        8.8220       0.158031       0.00348
   2     792.3        8.6153        6.1698        2.5764        8.7462       0.130895       0.00311
   1     891.5        7.9541        8.0510        0.0029        8.0540       0.099817       0.00264
   0    1013.0        7.9643        8.0286        0.0024        8.0310       0.066654       0.00230



 Wavenumbers: 38000. - 50000. cm-1, ATM      1
 LEVEL PRESSURE   UPWARD FLUX   DIFDOWN FLUX  DIRDOWN FLUX  DOWNWARD FLUX   NET FLUX    HEATING RATE
          mb          W/m2          W/m2          W/m2        W/m2          W/m2       degree/day
  51    .06700        0.0061        0.0000        1.2836        1.2836       1.277518       0.00000
  50    .07753        0.0061        0.0001        1.2812        1.2812       1.275183       1.87150
  49    .09103        0.0060        0.0002        1.2777        1.2778       1.271851       2.08247
  48    0.1069        0.0059        0.0002        1.2731        1.2734       1.267473       2.33059
  47    0.1255        0.0058        0.0004        1.2672        1.2675       1.261717       2.60908
  46    0.1487        0.0057        0.0005        1.2586        1.2591       1.253391       3.03499
  45    0.1794        0.0055        0.0007        1.2455        1.2462       1.240623       3.50520
  44    0.2165        0.0054        0.0009        1.2282        1.2291       1.223697       3.85037
  43    0.2613        0.0052        0.0011        1.2054        1.2065       1.201348       4.21261
  42    0.3336        0.0049        0.0015        1.1639        1.1654       1.160524       4.75970
  41    0.4307        0.0045        0.0020        1.1051        1.1070       1.102565       5.03943
  40    0.5894        0.0039        0.0026        1.0039        1.0064       1.002524       5.32007
  39     1.339        0.0022        0.0035        0.5438        0.5473       0.545104       5.14971
  38     1.782        0.0016        0.0032        0.3635        0.3666       0.365006       3.42879
  37     2.292        0.0012        0.0027        0.2356        0.2383       0.237058       2.11916
  36     2.964        0.0009        0.0022        0.1455        0.1477       0.146786       1.13318
  35     3.853        0.0006        0.0017        0.0858        0.0875       0.086906       0.56828
  34     5.035        0.0004        0.0013        0.0488        0.0501       0.049701       0.26578
  33     6.613        0.0003        0.0010        0.0273        0.0282       0.027974       0.11615
  32     8.786        0.0002        0.0007        0.0144        0.0151       0.014928       0.05067
  31     11.80        0.0001        0.0004        0.0065        0.0070       0.006903       0.02247
  30     15.07        0.0000        0.0003        0.0031        0.0034       0.003329       0.00923
  29     18.79        0.0000        0.0002        0.0014        0.0016       0.001583       0.00396
  28     23.16        0.0000        0.0001        0.0006        0.0007       0.000720       0.00167
  27     28.12        0.0000        0.0001        0.0003        0.0003       0.000317       0.00069
  26     33.73        0.0000        0.0000        0.0001        0.0001       0.000140       0.00027
  25     40.54        0.0000        0.0000        0.0000        0.0001       0.000057       0.00010
  24     48.69        0.0000        0.0000        0.0000        0.0000       0.000021       0.00004
  23     57.69        0.0000        0.0000        0.0000        0.0000       0.000008       0.00001
  22     68.43        0.0000        0.0000        0.0000        0.0000       0.000003       0.00000
  21     81.20        0.0000        0.0000        0.0000        0.0000       0.000001       0.00000
  20     96.49        0.0000        0.0000        0.0000        0.0000       0.000000       0.00000
  19     114.6        0.0000        0.0000        0.0000        0.0000       0.000000       0.00000
  18     136.5        0.0000        0.0000        0.0000        0.0000       0.000000       0.00000
  17     162.9        0.0000        0.0000        0.0000        0.0000       0.000000       0.00000
  16     196.4        0.0000        0.0000        0.0000        0.0000       0.000000       0.00000
  15     218.7        0.0000        0.0000        0.0000        0.0000       0.000000       0.00000
  14     243.0        0.0000        0.0000        0.0000        0.0000       0.000000       0.00000
  13     269.0        0.0000        0.0000        0.0000        0.0000       0.000000       0.00000
  12     297.5        0.0000        0.0000        0.0000        0.0000       0.000000       0.00000
  11     328.5        0.0000        0.0000        0.0000        0.0000       0.000000       0.00000
  10     361.9        0.0000        0.0000        0.0000        0.0000       0.000000       0.00000
   9     398.1        0.0000        0.0000        0.0000        0.0000       0.000000       0.00000
   8     437.6        0.0000        0.0000        0.0000        0.0000       0.000000       0.00000
   7     480.5        0.0000        0.0000        0.0000        0.0000       0.000000       0.00000
   6     533.0        0.0000        0.0000        0.0000        0.0000       0.000000       0.00000
   5     589.8        0.0000        0.0000        0.0000        0.0000       0.000000       0.00000
   4     651.6        0.0000        0.0000        0.0000        0.0000       0.000000       0.00000
   3     718.7        0.0000        0.0000        0.0000        0.0000       0.000000       0.00000
   2     792.3        0.0000        0.0000        0.0000        0.0000       0.000000       0.00000
   1     891.5        0.0000        0.0000        0.0000        0.0000       0.000000       0.00000
   0    1013.0        0.0000        0.0000        0.0000        0.0000       0.000000       0.00000



 Wavenumbers:   820. -  2600. cm-1, ATM      1
 LEVEL PRESSURE   UPWARD FLUX   DIFDOWN FLUX  DIRDOWN FLUX  DOWNWARD FLUX   NET FLUX    HEATING RATE
          mb          W/m2          W/m2          W/m2        W/m2          W/m2       degree/day
  51    .06700        1.3389        0.0000        6.0047        6.0047       4.665726       0.00000
  50    .07753        1.3389        0.0000        6.0008        6.0008       4.661873       3.08824
  49    .09103        1.3389        0.0000        5.9999        5.9999       4.660987       0.55361
  48    0.1069        1.3389        0.0000        5.9989        5.9989       4.659998       0.52655
  47    0.1255        1.3389        0.0000        5.9978        5.9978       4.658880       0.50653
  46    0.1487        1.3389        0.0000        5.9964        5.9964       4.657524       0.49460
  45    0.1794        1.3389        0.0000        5.9947        5.9947       4.655804       0.47203
  44    0.2165        1.3389        0.0000        5.9929        5.9929       4.653962       0.41914
  43    0.2613        1.3389        0.0000        5.9909        5.9909       4.652002       0.36937
  42    0.3336        1.3389        0.0000        5.9880        5.9880       4.649124       0.33560
  41    0.4307        1.3389        0.0000        5.9846        5.9846       4.645654       0.30169
  40    0.5894        1.3389        0.0000        5.9791        5.9791       4.640148       0.29280
  39     1.339        1.3389        0.0000        5.9536        5.9536       4.614657       0.28698
  38     1.782        1.3389        0.0000        5.9395        5.9395       4.600516       0.26922
  37     2.292        1.3389        0.0000        5.9237        5.9237       4.584762       0.26093
  36     2.964        1.3389        0.0000        5.9039        5.9039       4.564985       0.24827
  35     3.853        1.3390        0.0000        5.8793        5.8793       4.540324       0.23403
  34     5.035        1.3390        0.0000        5.8487        5.8487       4.509755       0.21837
  33     6.613        1.3390        0.0000        5.8108        5.8108       4.471782       0.20300
  32     8.786        1.3390        0.0000        5.7631        5.7631       4.424147       0.18500
  31     11.80        1.3390        0.0000        5.7039        5.7039       4.364873       0.16595
  30     15.07        1.3390        0.0000        5.6539        5.6539       4.314815       0.12924
  29     18.79        1.3391        0.0000        5.6127        5.6127       4.273658       0.09332
  28     23.16        1.3391        0.0000        5.5794        5.5794       4.240256       0.06459
  27     28.12        1.3392        0.0000        5.5518        5.5518       4.212658       0.04691
  26     33.73        1.3392        0.0000        5.5268        5.5268       4.187569       0.03772
  25     40.54        1.3393        0.0000        5.4993        5.4993       4.160080       0.03410
  24     48.69        1.3393        0.0000        5.4678        5.4678       4.128483       0.03270
  23     57.69        1.3394        0.0000        5.4340        5.4340       4.094631       0.03173
  22     68.43        1.3395        0.0000        5.3947        5.3948       4.055279       0.03094
  21     81.20        1.3396        0.0000        5.3497        5.3497       4.010149       0.02982
  20     96.49        1.3397        0.0000        5.2982        5.2982       3.958515       0.02850
  19     114.6        1.3399        0.0000        5.2389        5.2389       3.899043       0.02777
  18     136.5        1.3401        0.0000        5.1716        5.1717       3.831598       0.02593
  17     162.9        1.3404        0.0000        5.0890        5.0891       3.748697       0.02650
  16     196.4        1.3409        0.0000        4.9668        4.9668       3.625988       0.03089
  15     218.7        1.3413        0.0000        4.8585        4.8585       3.517151       0.04132
  14     243.0        1.3421        0.0000        4.7078        4.7079       3.365767       0.05250
  13     269.0        1.3432        0.0000        4.5343        4.5343       3.191049       0.05668
  12     297.5        1.3451        0.0000        4.3419        4.3420       2.996908       0.05758
  11     328.5        1.3475        0.0000        4.1281        4.1281       2.780642       0.05880
  10     361.9        1.3507        0.0000        3.8786        3.8787       2.527932       0.06394
   9     398.1        1.3549        0.0000        3.6159        3.6160       2.261008       0.06219
   8     437.6        1.3604        0.0000        3.3759        3.3759       2.015508       0.05249
   7     480.5        1.3670        0.0000        3.1957        3.1958       1.828742       0.03668
   6     533.0        1.3772        0.0000        3.0467        3.0467       1.669548       0.02561
   5     589.8        1.3921        0.0000        2.9023        2.9023       1.510247       0.02365
   4     651.6        1.4180        0.0001        2.7183        2.7184       1.300382       0.02870
   3     718.7        1.4629        0.0001        2.5058        2.5059       1.042976       0.03235
   2     792.3        1.5498        0.0001        2.2756        2.2757       0.725896       0.03637
   1     891.5        0.0026        0.4834        0.0026        0.4861       0.483508       0.02063
   0    1013.0        0.0031        0.3911        0.0021        0.3932       0.390115       0.00648

  Modules and versions used in this calculation:

       rrtmg_sw.1col.f90:  $Revision$                    rrtmg_sw_init.f90:  $Revision$        
     rrtmgsw_cldprop.f90:  $Revision$                  rrtmgsw_cldprmc.f90:  NOT USED          
     rrtmg_sw_reftra.f90:  $Revision$                  rrtmg_sw_spcvrt.f90:  NOT USED          
     rrtmg_sw_spcvmc.f90:  NOT USED                    rrtmgsw_setcoef.f90:  NOT USED          
     rrtmg_sw_taumol.f90:  $Revision$                  rrtmg_sw_vrtqdr.f90:  NOT USED          
                rrtatm.f:  NOT USED                             util_xxx.f:  NOT USED          
                 extra.f:  NOT USED                       rrtmg_sw_k_g.f90:  $Revision$        

