

 Wavenumbers:   820. - 50000. cm-1, ATM      1
 LEVEL PRESSURE   UPWARD FLUX   DIFDOWN FLUX  DIRDOWN FLUX  DOWNWARD FLUX   NET FLUX    HEATING RATE
          mb          W/m2          W/m2          W/m2        W/m2          W/m2       degree/day
  51    .06700      457.0119        0.0000      617.8126      617.8126     160.800715       0.00000
  50    .07753      457.0115        0.0014      617.7947      617.7961     160.784571      12.93940
  49    .09103      457.0111        0.0031      617.7778      617.7808     160.769756       9.25955
  48    0.1069      457.0106        0.0050      617.7581      617.7631     160.752489       9.19164
  47    0.1255      457.0101        0.0073      617.7340      617.7412     160.731136       9.68020
  46    0.1487      457.0095        0.0101      617.7009      617.7110     160.701440      10.82472
  45    0.1794      457.0088        0.0139      617.6521      617.6660     160.657192      12.14694
  44    0.2165      457.0081        0.0185      617.5895      617.6080     160.599850      13.04447
  43    0.2613      457.0075        0.0239      617.5089      617.5328     160.525309      14.05064
  42    0.3336      457.0067        0.0327      617.3641      617.3969     160.390172      15.75563
  41    0.4307      457.0061        0.0444      617.1591      617.2035     160.197472      16.75480
  40    0.5894      457.0061        0.0632      616.8005      616.8637     159.857640      18.07187
  39     1.339      457.0246        0.1484      614.9443      615.0927     158.068048      20.14755
  38     1.782      457.0484        0.1964      613.9670      614.1634     157.114987      18.14474
  37     2.292      457.0875        0.2509      613.0059      613.2568     156.169237      15.66409
  36     2.964      457.1565        0.3218      611.9577      612.2795     155.122943      13.13416
  35     3.853      457.2721        0.4148      610.8024      611.2172     153.945070      11.17823
  34     5.035      457.4498        0.5375      609.5327      610.0702     152.620434       9.46265
  33     6.613      457.6999        0.7003      608.1464      608.8468     151.146892       7.87756
  32     8.786      458.0258        0.9188      606.6250      607.5439     149.518116       6.32558
  31     11.80      458.4480        1.2300      604.8486      606.0786     147.630623       5.28439
  30     15.07      458.8501        1.5620      603.2440      604.8059     145.955805       4.32405
  29     18.79      459.2586        1.9355      601.6511      603.5866     144.328050       3.69062
  28     23.16      459.6830        2.3696      599.9927      602.3623     142.679268       3.18821
  27     28.12      460.1066        2.8636      598.2881      601.1517     141.045086       2.77800
  26     33.73      460.4904        3.4145      596.5951      600.0096     139.519145       2.29429
  25     40.54      460.8490        4.0777      594.7727      598.8504     138.001390       1.88295
  24     48.69      461.1794        4.8735      592.7865      597.6600     136.480559       1.57382
  23     57.69      461.4437        5.7435      590.7959      596.5394     135.095692       1.29810
  22     68.43      461.6513        6.7742      588.6191      595.3933     133.741984       1.06420
  21     81.20      461.7498        7.9962      586.2690      594.2652     132.515415       0.81050
  20     96.49      461.7293        9.4432      583.6961      593.1393     131.410082       0.61006
  19     114.6      461.6489       11.1457      580.7708      591.9165     130.267591       0.53346
  18     136.5      461.5087       13.1392      577.4359      590.5751     129.066354       0.46190
  17     162.9      461.3040       15.4790      573.5624      589.0414     127.737446       0.42477
  16     196.4      460.9508       18.4631      568.5907      587.0538     126.103075       0.41139
  15     218.7      460.6910       20.3928      565.0572      585.4500     124.758986       0.51030
  14     243.0      460.4019       22.4626      560.7495      583.2121     122.810232       0.67589
  13     269.0      460.0859       24.6742      555.3947      580.0688     119.982985       0.91715
  12     297.5      459.7500       27.0280      548.9964      576.0244     116.274437       1.09991
  11     328.5      459.4055       29.5309      542.0895      571.6205     112.214953       1.10376
  10     361.9      459.0621       32.1789      534.6242      566.8032     107.741020       1.13195
   9     398.1      458.7339       34.9768      526.4204      561.3972     102.663304       1.18299
   8     437.6      458.4477       37.9231      517.3907      555.3138      96.866092       1.23948
   7     480.5      458.2329       41.0161      507.7216      548.7377      90.504744       1.24934
   6     533.0      458.1413       44.7352      495.9006      540.6359      82.494526       1.28859
   5     589.8      458.3595       48.6384      483.0788      531.7173      73.357732       1.35620
   4     651.6      459.2578       52.7128      468.6907      521.4034      62.145607       1.53329
   3     718.7      461.3717       56.9501      453.2257      510.1758      48.804082       1.67666
   2     792.3      466.1474       61.3281      436.4928      497.8209      31.673557       1.96468
   1     891.5      256.4481      276.9383        0.0000      276.9383      20.490244       0.95165
   0    1013.0      258.2182      274.0580        0.0000      274.0580      15.839756       0.32291



 Wavenumbers:  2600. -  3250. cm-1, ATM      1
 LEVEL PRESSURE   UPWARD FLUX   DIFDOWN FLUX  DIRDOWN FLUX  DOWNWARD FLUX   NET FLUX    HEATING RATE
          mb          W/m2          W/m2          W/m2        W/m2          W/m2       degree/day
  51    .06700        2.0655        0.0000        5.4450        5.4450       3.379573       0.00000
  50    .07753        2.0655        0.0000        5.4450        5.4450       3.379565       0.00640
  49    .09103        2.0655        0.0000        5.4450        5.4450       3.379555       0.00627
  48    0.1069        2.0655        0.0000        5.4450        5.4450       3.379543       0.00613
  47    0.1255        2.0655        0.0000        5.4450        5.4450       3.379530       0.00599
  46    0.1487        2.0655        0.0000        5.4450        5.4450       3.379513       0.00608
  45    0.1794        2.0655        0.0000        5.4450        5.4450       3.379490       0.00625
  44    0.2165        2.0655        0.0000        5.4449        5.4449       3.379464       0.00612
  43    0.2613        2.0655        0.0000        5.4449        5.4449       3.379432       0.00600
  42    0.3336        2.0655        0.0000        5.4448        5.4448       3.379379       0.00617
  41    0.4307        2.0655        0.0000        5.4448        5.4448       3.379307       0.00620
  40    0.5894        2.0655        0.0000        5.4446        5.4446       3.379188       0.00637
  39     1.339        2.0655        0.0000        5.4439        5.4439       3.378480       0.00797
  38     1.782        2.0655        0.0000        5.4434        5.4434       3.377937       0.01034
  37     2.292        2.0655        0.0000        5.4427        5.4427       3.377221       0.01186
  36     2.964        2.0655        0.0000        5.4416        5.4416       3.376182       0.01304
  35     3.853        2.0655        0.0000        5.4402        5.4402       3.374705       0.01402
  34     5.035        2.0655        0.0000        5.4381        5.4381       3.372649       0.01469
  33     6.613        2.0655        0.0000        5.4353        5.4353       3.369868       0.01487
  32     8.786        2.0655        0.0000        5.4317        5.4317       3.366234       0.01411
  31     11.80        2.0655        0.0000        5.4269        5.4269       3.361452       0.01339
  30     15.07        2.0655        0.0000        5.4224        5.4224       3.356922       0.01169
  29     18.79        2.0655        0.0000        5.4180        5.4180       3.352506       0.01001
  28     23.16        2.0655        0.0000        5.4135        5.4135       3.348013       0.00869
  27     28.12        2.0655        0.0000        5.4088        5.4088       3.343356       0.00792
  26     33.73        2.0655        0.0000        5.4036        5.4036       3.338102       0.00790
  25     40.54        2.0655        0.0000        5.3966        5.3967       3.331139       0.00864
  24     48.69        2.0656        0.0000        5.3872        5.3872       3.321629       0.00984
  23     57.69        2.0656        0.0000        5.3754        5.3754       3.309800       0.01109
  22     68.43        2.0657        0.0000        5.3599        5.3599       3.294248       0.01223
  21     81.20        2.0658        0.0000        5.3401        5.3401       3.274322       0.01317
  20     96.49        2.0659        0.0000        5.3155        5.3155       3.249625       0.01363
  19     114.6        2.0661        0.0001        5.2853        5.2854       3.219248       0.01418
  18     136.5        2.0664        0.0001        5.2504        5.2505       3.184087       0.01352
  17     162.9        2.0668        0.0001        5.2111        5.2112       3.144379       0.01269
  16     196.4        2.0674        0.0001        5.1640        5.1641       3.096681       0.01201
  15     218.7        2.0681        0.0001        5.1331        5.1332       3.065112       0.01199
  14     243.0        2.0692        0.0001        5.0962        5.0963       3.027146       0.01317
  13     269.0        2.0708        0.0001        5.0511        5.0512       2.980361       0.01518
  12     297.5        2.0734        0.0001        4.9956        4.9957       2.922345       0.01721
  11     328.5        2.0769        0.0001        4.9304        4.9305       2.853566       0.01870
  10     361.9        2.0819        0.0002        4.8511        4.8513       2.769397       0.02130
   9     398.1        2.0887        0.0002        4.7507        4.7509       2.662193       0.02498
   8     437.6        2.0982        0.0002        4.6220        4.6222       2.524066       0.02953
   7     480.5        2.1114        0.0002        4.4625        4.4627       2.351289       0.03393
   6     533.0        2.1331        0.0002        4.2460        4.2462       2.113173       0.03831
   5     589.8        2.1664        0.0002        3.9954        3.9956       1.829195       0.04215
   4     651.6        2.2221        0.0002        3.7089        3.7091       1.487002       0.04680
   3     718.7        2.3155        0.0002        3.4018        3.4020       1.086580       0.05032
   2     792.3        2.4891        0.0002        3.0564        3.0567       0.567587       0.05952
   1     891.5        0.0020        0.2675        0.0000        0.2675       0.265426       0.02571
   0    1013.0        0.0023        0.2275        0.0000        0.2275       0.225177       0.00279



 Wavenumbers:  3250. -  4000. cm-1, ATM      1
 LEVEL PRESSURE   UPWARD FLUX   DIFDOWN FLUX  DIRDOWN FLUX  DOWNWARD FLUX   NET FLUX    HEATING RATE
          mb          W/m2          W/m2          W/m2        W/m2          W/m2       degree/day
  51    .06700        0.0772        0.0000        9.1795        9.1795       9.102327       0.00000
  50    .07753        0.0772        0.0000        9.1747        9.1747       9.097484       3.88148
  49    .09103        0.0772        0.0000        9.1713        9.1713       9.094096       2.11747
  48    0.1069        0.0772        0.0000        9.1688        9.1688       9.091571       1.34402
  47    0.1255        0.0772        0.0000        9.1665        9.1665       9.089312       1.02422
  46    0.1487        0.0772        0.0000        9.1641        9.1641       9.086871       0.88991
  45    0.1794        0.0772        0.0000        9.1612        9.1612       9.083993       0.79008
  44    0.2165        0.0772        0.0000        9.1583        9.1583       9.081073       0.66430
  43    0.2613        0.0772        0.0000        9.1553        9.1553       9.078100       0.56041
  42    0.3336        0.0772        0.0000        9.1511        9.1511       9.073921       0.48723
  41    0.4307        0.0772        0.0000        9.1464        9.1464       9.069152       0.41459
  40    0.5894        0.0772        0.0000        9.1393        9.1394       9.062147       0.37255
  39     1.339        0.0772        0.0000        9.1127        9.1127       9.035533       0.29962
  38     1.782        0.0772        0.0000        9.1011        9.1011       9.023945       0.22062
  37     2.292        0.0772        0.0000        9.0901        9.0901       9.012878       0.18329
  36     2.964        0.0772        0.0000        9.0776        9.0776       9.000448       0.15603
  35     3.853        0.0772        0.0000        9.0629        9.0629       8.985658       0.14036
  34     5.035        0.0772        0.0000        9.0441        9.0441       8.966920       0.13386
  33     6.613        0.0772        0.0000        9.0191        9.0191       8.941918       0.13366
  32     8.786        0.0772        0.0000        8.9843        8.9843       8.907134       0.13509
  31     11.80        0.0772        0.0000        8.9327        8.9327       8.855518       0.14451
  30     15.07        0.0772        0.0000        8.8758        8.8759       8.798673       0.14676
  29     18.79        0.0772        0.0000        8.8110        8.8110       8.733846       0.14698
  28     23.16        0.0772        0.0000        8.7365        8.7366       8.659401       0.14395
  27     28.12        0.0772        0.0000        8.6554        8.6555       8.578288       0.13789
  26     33.73        0.0772        0.0000        8.5719        8.5719       8.494788       0.12554
  25     40.54        0.0771        0.0001        8.4812        8.4812       8.404064       0.11255
  24     48.69        0.0771        0.0001        8.3838        8.3839       8.306763       0.10069
  23     57.69        0.0771        0.0001        8.2861        8.2862       8.209027       0.09161
  22     68.43        0.0771        0.0001        8.1751        8.1751       8.098031       0.08726
  21     81.20        0.0771        0.0001        8.0457        8.0458       7.968672       0.08548
  20     96.49        0.0771        0.0001        7.8949        7.8951       7.817968       0.08318
  19     114.6        0.0771        0.0001        7.7162        7.7163       7.639258       0.08345
  18     136.5        0.0770        0.0002        7.5193        7.5195       7.442414       0.07569
  17     162.9        0.0770        0.0002        7.2913        7.2915       7.214520       0.07284
  16     196.4        0.0770        0.0002        6.9660        6.9662       6.889242       0.08188
  15     218.7        0.0770        0.0002        6.6648        6.6650       6.588040       0.11436
  14     243.0        0.0770        0.0002        6.2619        6.2622       6.185213       0.13971
  13     269.0        0.0770        0.0003        5.7576        5.7579       5.680835       0.16362
  12     297.5        0.0772        0.0003        5.1719        5.1722       5.094976       0.17376
  11     328.5        0.0775        0.0002        4.5757        4.5760       4.498523       0.16217
  10     361.9        0.0779        0.0002        3.9995        3.9998       3.921862       0.14590
   9     398.1        0.0787        0.0002        3.4655        3.4657       3.387009       0.12461
   8     437.6        0.0800        0.0002        2.9740        2.9743       2.894238       0.10536
   7     480.5        0.0821        0.0002        2.5307        2.5309       2.448723       0.08750
   6     533.0        0.0863        0.0002        2.0614        2.0616       1.975292       0.07616
   5     589.8        0.0938        0.0002        1.6150        1.6151       1.521309       0.06739
   4     651.6        0.1096        0.0001        1.1565        1.1566       1.046977       0.06487
   3     718.7        0.1445        0.0001        0.7390        0.7391       0.594654       0.05684
   2     792.3        0.2378        0.0001        0.3985        0.3985       0.160726       0.04977
   1     891.5        0.0000        0.0049        0.0000        0.0049       0.004894       0.01326
   0    1013.0        0.0000        0.0005        0.0000        0.0005       0.000473       0.00031



 Wavenumbers:  4000. -  4650. cm-1, ATM      1
 LEVEL PRESSURE   UPWARD FLUX   DIFDOWN FLUX  DIRDOWN FLUX  DOWNWARD FLUX   NET FLUX    HEATING RATE
          mb          W/m2          W/m2          W/m2        W/m2          W/m2       degree/day
  51    .06700        6.6067        0.0000       10.7795       10.7795       4.172847       0.00000
  50    .07753        6.6067        0.0000       10.7795       10.7795       4.172846       0.00080
  49    .09103        6.6067        0.0000       10.7795       10.7795       4.172845       0.00078
  48    0.1069        6.6067        0.0000       10.7795       10.7795       4.172843       0.00077
  47    0.1255        6.6067        0.0000       10.7795       10.7795       4.172842       0.00075
  46    0.1487        6.6067        0.0000       10.7795       10.7795       4.172840       0.00076
  45    0.1794        6.6067        0.0000       10.7795       10.7795       4.172837       0.00078
  44    0.2165        6.6067        0.0000       10.7795       10.7795       4.172833       0.00076
  43    0.2613        6.6067        0.0000       10.7795       10.7795       4.172829       0.00075
  42    0.3336        6.6067        0.0000       10.7795       10.7795       4.172823       0.00077
  41    0.4307        6.6067        0.0000       10.7795       10.7795       4.172814       0.00078
  40    0.5894        6.6067        0.0000       10.7795       10.7795       4.172799       0.00080
  39     1.339        6.6067        0.0000       10.7794       10.7794       4.172709       0.00101
  38     1.782        6.6067        0.0000       10.7793       10.7793       4.172639       0.00133
  37     2.292        6.6067        0.0000       10.7792       10.7792       4.172545       0.00156
  36     2.964        6.6067        0.0000       10.7791       10.7791       4.172404       0.00177
  35     3.853        6.6067        0.0000       10.7789       10.7789       4.172196       0.00198
  34     5.035        6.6067        0.0000       10.7786       10.7786       4.171888       0.00220
  33     6.613        6.6067        0.0000       10.7781       10.7781       4.171434       0.00242
  32     8.786        6.6067        0.0000       10.7774       10.7775       4.170765       0.00260
  31     11.80        6.6067        0.0001       10.7763       10.7764       4.169713       0.00295
  30     15.07        6.6067        0.0001       10.7751       10.7752       4.168477       0.00319
  29     18.79        6.6067        0.0001       10.7736       10.7737       4.166982       0.00339
  28     23.16        6.6067        0.0001       10.7717       10.7718       4.165124       0.00359
  27     28.12        6.6067        0.0001       10.7695       10.7696       4.162872       0.00383
  26     33.73        6.6068        0.0002       10.7667       10.7668       4.160092       0.00418
  25     40.54        6.6068        0.0002       10.7629       10.7631       4.156316       0.00468
  24     48.69        6.6069        0.0002       10.7579       10.7582       4.151278       0.00521
  23     57.69        6.6070        0.0003       10.7520       10.7523       4.145294       0.00561
  22     68.43        6.6072        0.0003       10.7446       10.7449       4.137780       0.00591
  21     81.20        6.6074        0.0004       10.7355       10.7359       4.128505       0.00613
  20     96.49        6.6078        0.0005       10.7245       10.7250       4.117190       0.00625
  19     114.6        6.6083        0.0006       10.7107       10.7113       4.102997       0.00663
  18     136.5        6.6090        0.0007       10.6942       10.6949       4.085841       0.00660
  17     162.9        6.6101        0.0008       10.6740       10.6748       4.064718       0.00675
  16     196.4        6.6119        0.0010       10.6464       10.6473       4.035419       0.00737
  15     218.7        6.6135        0.0011       10.6255       10.6265       4.013025       0.00850
  14     243.0        6.6158        0.0012       10.5980       10.5992       3.983420       0.01027
  13     269.0        6.6192        0.0013       10.5611       10.5624       3.943171       0.01306
  12     297.5        6.6242        0.0015       10.5119       10.5134       3.889180       0.01601
  11     328.5        6.6310        0.0016       10.4499       10.4515       3.820431       0.01869
  10     361.9        6.6400        0.0018       10.3702       10.3719       3.731930       0.02239
   9     398.1        6.6513        0.0019       10.2678       10.2697       3.618397       0.02645
   8     437.6        6.6658        0.0021       10.1390       10.1411       3.475273       0.03060
   7     480.5        6.6845        0.0023        9.9877        9.9900       3.305440       0.03335
   6     533.0        6.7136        0.0025        9.7937        9.7962       3.082561       0.03585
   5     589.8        6.7561        0.0027        9.5752        9.5779       2.821734       0.03872
   4     651.6        6.8258        0.0029        9.2958        9.2987       2.472955       0.04770
   3     718.7        6.9453        0.0031        8.9267        8.9299       1.984577       0.06138
   2     792.3        7.1771        0.0033        8.4542        8.4576       1.280482       0.08075
   1     891.5        0.1298        0.9831        0.0000        0.9831       0.853301       0.03635
   0    1013.0        0.1370        0.9178        0.0000        0.9178       0.780756       0.00504



 Wavenumbers:  4650. -  5150. cm-1, ATM      1
 LEVEL PRESSURE   UPWARD FLUX   DIFDOWN FLUX  DIRDOWN FLUX  DOWNWARD FLUX   NET FLUX    HEATING RATE
          mb          W/m2          W/m2          W/m2        W/m2          W/m2       degree/day
  51    .06700        4.7750        0.0000       10.2033       10.2033       5.428302       0.00000
  50    .07753        4.7750        0.0000       10.2031       10.2031       5.428066       0.18901
  49    .09103        4.7750        0.0000       10.2028       10.2028       5.427771       0.18428
  48    0.1069        4.7750        0.0000       10.2025       10.2025       5.427434       0.17931
  47    0.1255        4.7750        0.0000       10.2021       10.2021       5.427050       0.17426
  46    0.1487        4.7750        0.0000       10.2016       10.2016       5.426569       0.17536
  45    0.1794        4.7750        0.0000       10.2010       10.2010       5.425918       0.17850
  44    0.2165        4.7750        0.0000       10.2002       10.2002       5.425159       0.17277
  43    0.2613        4.7750        0.0000       10.1993       10.1993       5.424273       0.16690
  42    0.3336        4.7750        0.0000       10.1979       10.1979       5.422841       0.16702
  41    0.4307        4.7750        0.0000       10.1960       10.1960       5.421000       0.16002
  40    0.5894        4.7750        0.0000       10.1932       10.1932       5.418127       0.15283
  39     1.339        4.7750        0.0000       10.1816       10.1816       5.406534       0.13051
  38     1.782        4.7750        0.0000       10.1760       10.1760       5.401005       0.10527
  37     2.292        4.7750        0.0000       10.1706       10.1706       5.395548       0.09039
  36     2.964        4.7750        0.0000       10.1646       10.1647       5.389623       0.07437
  35     3.853        4.7750        0.0000       10.1584       10.1584       5.383406       0.05900
  34     5.035        4.7750        0.0000       10.1521       10.1521       5.377066       0.04529
  33     6.613        4.7750        0.0000       10.1456       10.1456       5.370602       0.03456
  32     8.786        4.7751        0.0001       10.1386       10.1386       5.363579       0.02728
  31     11.80        4.7751        0.0001       10.1295       10.1296       5.354515       0.02538
  30     15.07        4.7751        0.0001       10.1196       10.1197       5.344604       0.02559
  29     18.79        4.7752        0.0001       10.1076       10.1077       5.332552       0.02733
  28     23.16        4.7752        0.0002       10.0923       10.0924       5.317184       0.02972
  27     28.12        4.7753        0.0002       10.0731       10.0733       5.298003       0.03261
  26     33.73        4.7755        0.0002       10.0500       10.0503       5.274792       0.03490
  25     40.54        4.7757        0.0003       10.0201       10.0204       5.244723       0.03730
  24     48.69        4.7760        0.0003        9.9820        9.9823       5.206315       0.03975
  23     57.69        4.7764        0.0004        9.9384        9.9389       5.162474       0.04109
  22     68.43        4.7769        0.0005        9.8858        9.8862       5.109323       0.04178
  21     81.20        4.7777        0.0006        9.8234        9.8240       5.046353       0.04161
  20     96.49        4.7787        0.0007        9.7518        9.7524       4.973734       0.04008
  19     114.6        4.7801        0.0008        9.6719        9.6727       4.892580       0.03789
  18     136.5        4.7821        0.0009        9.5858        9.5867       4.804623       0.03382
  17     162.9        4.7849        0.0011        9.4940        9.4952       4.710284       0.03015
  16     196.4        4.7891        0.0013        9.3883        9.3896       4.600508       0.02763
  15     218.7        4.7924        0.0015        9.3229        9.3244       4.531969       0.02602
  14     243.0        4.7967        0.0016        9.2520        9.2536       4.456888       0.02604
  13     269.0        4.8025        0.0018        9.1717        9.1735       4.370991       0.02786
  12     297.5        4.8105        0.0020        9.0763        9.0783       4.267788       0.03061
  11     328.5        4.8209        0.0022        8.9650        8.9671       4.146252       0.03305
  10     361.9        4.8343        0.0024        8.8349        8.8373       4.002965       0.03625
   9     398.1        4.8518        0.0026        8.6820        8.6846       3.832811       0.03964
   8     437.6        4.8745        0.0028        8.5028        8.5056       3.631077       0.04313
   7     480.5        4.9041        0.0030        8.2948        8.2978       3.393681       0.04662
   6     533.0        4.9494        0.0032        8.0209        8.0241       3.074684       0.05132
   5     589.8        5.0127        0.0035        7.7063        7.7098       2.697115       0.05604
   4     651.6        5.1069        0.0037        7.3412        7.3449       2.238080       0.06277
   3     718.7        5.2507        0.0039        6.9387        6.9426       1.691909       0.06864
   2     792.3        5.4845        0.0041        6.5066        6.5107       1.026246       0.07634
   1     891.5        0.0311        0.6767        0.0000        0.6767       0.645685       0.03238
   0    1013.0        0.0333        0.6217        0.0000        0.6217       0.588477       0.00397



 Wavenumbers:  5150. -  6150. cm-1, ATM      1
 LEVEL PRESSURE   UPWARD FLUX   DIFDOWN FLUX  DIRDOWN FLUX  DOWNWARD FLUX   NET FLUX    HEATING RATE
          mb          W/m2          W/m2          W/m2        W/m2          W/m2       degree/day
  51    .06700       11.2936        0.0000       25.5798       25.5798      14.286261       0.00000
  50    .07753       11.2936        0.0000       25.5798       25.5798      14.286221       0.03163
  49    .09103       11.2936        0.0000       25.5797       25.5797      14.286170       0.03211
  48    0.1069       11.2936        0.0000       25.5797       25.5797      14.286108       0.03262
  47    0.1255       11.2936        0.0000       25.5796       25.5796      14.286035       0.03312
  46    0.1487       11.2936        0.0000       25.5795       25.5795      14.285940       0.03489
  45    0.1794       11.2936        0.0000       25.5794       25.5794      14.285804       0.03714
  44    0.2165       11.2936        0.0000       25.5792       25.5792      14.285639       0.03770
  43    0.2613       11.2936        0.0000       25.5790       25.5790      14.285436       0.03827
  42    0.3336       11.2936        0.0000       25.5786       25.5786      14.285089       0.04044
  41    0.4307       11.2936        0.0000       25.5782       25.5782      14.284617       0.04098
  40    0.5894       11.2936        0.0000       25.5774       25.5774      14.283828       0.04199
  39     1.339       11.2936        0.0000       25.5735       25.5736      14.280023       0.04284
  38     1.782       11.2936        0.0001       25.5713       25.5714      14.277807       0.04219
  37     2.292       11.2936        0.0001       25.5688       25.5688      14.275298       0.04155
  36     2.964       11.2936        0.0001       25.5656       25.5657      14.272110       0.04002
  35     3.853       11.2936        0.0001       25.5615       25.5616      14.268057       0.03846
  34     5.035       11.2936        0.0002       25.5562       25.5564      14.262836       0.03730
  33     6.613       11.2936        0.0002       25.5494       25.5496      14.256060       0.03622
  32     8.786       11.2936        0.0003       25.5406       25.5409      14.247276       0.03411
  31     11.80       11.2937        0.0004       25.5287       25.5290      14.235389       0.03328
  30     15.07       11.2937        0.0005       25.5167       25.5172      14.223461       0.03080
  29     18.79       11.2938        0.0006       25.5042       25.5048      14.210980       0.02830
  28     23.16       11.2939        0.0007       25.4907       25.4914      14.197524       0.02602
  27     28.12       11.2940        0.0009       25.4764       25.4773      14.183321       0.02414
  26     33.73       11.2942        0.0011       25.4620       25.4631      14.168902       0.02168
  25     40.54       11.2945        0.0013       25.4463       25.4476      14.153098       0.01961
  24     48.69       11.2948        0.0016       25.4294       25.4309      14.136121       0.01757
  23     57.69       11.2953        0.0019       25.4126       25.4145      14.119213       0.01585
  22     68.43       11.2958        0.0022       25.3944       25.3966      14.100798       0.01448
  21     81.20       11.2965        0.0026       25.3744       25.3770      14.080475       0.01343
  20     96.49       11.2975        0.0031       25.3519       25.3550      14.057581       0.01264
  19     114.6       11.2986        0.0037       25.3262       25.3298      14.031276       0.01228
  18     136.5       11.2999        0.0044       25.2962       25.3006      14.000611       0.01179
  17     162.9       11.3017        0.0052       25.2521       25.2573      13.955622       0.01438
  16     196.4       11.3040        0.0062       25.1593       25.1655      13.861513       0.02369
  15     218.7       11.3057        0.0069       25.0159       25.0228      13.717123       0.05482
  14     243.0       11.3078        0.0076       24.7089       24.7165      13.408708       0.10697
  13     269.0       11.3105        0.0083       24.1619       24.1702      12.859643       0.17811
  12     297.5       11.3142        0.0090       23.4544       23.4634      12.149194       0.21071
  11     328.5       11.3190        0.0097       22.7355       22.7452      11.426180       0.19659
  10     361.9       11.3253        0.0104       21.9224       21.9328      10.607489       0.20714
   9     398.1       11.3339        0.0111       20.9939       21.0050       9.671091       0.21816
   8     437.6       11.3459        0.0118       19.9833       19.9951       8.649218       0.21848
   7     480.5       11.3625        0.0124       18.9483       18.9607       7.598222       0.20641
   6     533.0       11.3908        0.0132       17.7796       17.7928       6.401950       0.19244
   5     589.8       11.4369        0.0139       16.6726       16.6865       5.249591       0.17105
   4     651.6       11.5218        0.0147       15.6343       15.6490       4.127270       0.15348
   3     718.7       11.6785        0.0156       14.7738       14.7894       3.110912       0.12773
   2     792.3       11.9969        0.0165       14.0291       14.0456       2.048696       0.12182
   1     891.5        0.2825        1.7267        0.0000        1.7267       1.444183       0.05144
   0    1013.0        0.2918        1.6414        0.0000        1.6414       1.349578       0.00657



 Wavenumbers:  6150. -  7700. cm-1, ATM      1
 LEVEL PRESSURE   UPWARD FLUX   DIFDOWN FLUX  DIRDOWN FLUX  DOWNWARD FLUX   NET FLUX    HEATING RATE
          mb          W/m2          W/m2          W/m2        W/m2          W/m2       degree/day
  51    .06700       18.2323        0.0000       47.3109       47.3109      29.078531       0.00000
  50    .07753       18.2323        0.0000       47.3108       47.3108      29.078474       0.04553
  49    .09103       18.2323        0.0000       47.3107       47.3107      29.078400       0.04583
  48    0.1069       18.2323        0.0000       47.3106       47.3106      29.078314       0.04614
  47    0.1255       18.2323        0.0000       47.3105       47.3105      29.078211       0.04645
  46    0.1487       18.2323        0.0000       47.3104       47.3104      29.078078       0.04852
  45    0.1794       18.2323        0.0000       47.3102       47.3102      29.077891       0.05127
  44    0.2165       18.2323        0.0000       47.3100       47.3100      29.077664       0.05167
  43    0.2613       18.2323        0.0000       47.3097       47.3097      29.077388       0.05210
  42    0.3336       18.2323        0.0000       47.3092       47.3092      29.076919       0.05471
  41    0.4307       18.2323        0.0000       47.3085       47.3086      29.076284       0.05521
  40    0.5894       18.2323        0.0001       47.3074       47.3075      29.075224       0.05633
  39     1.339       18.2322        0.0002       47.3022       47.3024      29.070132       0.05733
  38     1.782       18.2322        0.0002       47.2991       47.2994      29.067162       0.05655
  37     2.292       18.2322        0.0003       47.2956       47.2959      29.063786       0.05591
  36     2.964       18.2321        0.0004       47.2912       47.2916      29.059468       0.05421
  35     3.853       18.2320        0.0005       47.2855       47.2860      29.053933       0.05252
  34     5.035       18.2319        0.0007       47.2780       47.2787      29.046753       0.05130
  33     6.613       18.2318        0.0009       47.2683       47.2692      29.037365       0.05019
  32     8.786       18.2317        0.0012       47.2556       47.2567      29.025065       0.04777
  31     11.80       18.2314        0.0016       47.2380       47.2396      29.008161       0.04733
  30     15.07       18.2312        0.0020       47.2201       47.2221      28.990872       0.04464
  29     18.79       18.2309        0.0025       47.2008       47.2033      28.972392       0.04190
  28     23.16       18.2306        0.0031       47.1795       47.1826      28.952000       0.03943
  27     28.12       18.2302        0.0037       47.1565       47.1602      28.930004       0.03739
  26     33.73       18.2298        0.0044       47.1324       47.1369      28.907080       0.03447
  25     40.54       18.2293        0.0053       47.1054       47.1107      28.881440       0.03181
  24     48.69       18.2287        0.0064       47.0754       47.0818      28.853182       0.02924
  23     57.69       18.2280        0.0076       47.0449       47.0525      28.824554       0.02683
  22     68.43       18.2272        0.0090       47.0110       47.0200      28.792809       0.02496
  21     81.20       18.2262        0.0107       46.9729       46.9835      28.757304       0.02346
  20     96.49       18.2251        0.0127       46.9294       46.9421      28.716948       0.02227
  19     114.6       18.2238        0.0151       46.8790       46.8941      28.670292       0.02178
  18     136.5       18.2222        0.0179       46.8200       46.8379      28.615637       0.02102
  17     162.9       18.2204        0.0212       46.7361       46.7574      28.536957       0.02515
  16     196.4       18.2182        0.0256       46.5703       46.5958      28.377613       0.04011
  15     218.7       18.2170        0.0284       46.3473       46.3757      28.158668       0.08313
  14     243.0       18.2161        0.0313       45.9299       45.9612      27.745056       0.14345
  13     269.0       18.2161        0.0343       45.1708       45.2051      26.988955       0.24528
  12     297.5       18.2178        0.0372       44.0115       44.0487      25.830817       0.34349
  11     328.5       18.2219        0.0402       42.7242       42.7644      24.542444       0.35030
  10     361.9       18.2296        0.0432       41.3539       41.3971      23.167514       0.34787
   9     398.1       18.2429        0.0462       39.7953       39.8414      21.598577       0.36553
   8     437.6       18.2651        0.0490       37.9948       38.0438      19.778614       0.38912
   7     480.5       18.3007        0.0517       36.0647       36.1164      17.815698       0.38551
   6     533.0       18.3676        0.0546       33.7773       33.8319      15.464347       0.37826
   5     589.8       18.4843        0.0574       31.4082       31.4655      12.981270       0.36857
   4     651.6       18.7102        0.0596       28.8834       28.9430      10.232752       0.37587
   3     718.7       19.1461        0.0616       26.4104       26.4720       7.325881       0.36531
   2     792.3       20.0906        0.0633       24.0056       24.0689       3.978254       0.38394
   1     891.5        0.5802        2.8269        0.0000        2.8269       2.246754       0.14734
   0    1013.0        0.6140        2.6050        0.0000        2.6050       1.991029       0.01776



 Wavenumbers:  7700. -  8050. cm-1, ATM      1
 LEVEL PRESSURE   UPWARD FLUX   DIFDOWN FLUX  DIRDOWN FLUX  DOWNWARD FLUX   NET FLUX    HEATING RATE
          mb          W/m2          W/m2          W/m2        W/m2          W/m2       degree/day
  51    .06700        8.3871        0.0000       11.1810       11.1810       2.793868       0.00000
  50    .07753        8.3871        0.0000       11.1809       11.1809       2.793844       0.01901
  49    .09103        8.3871        0.0000       11.1809       11.1809       2.793814       0.01863
  48    0.1069        8.3871        0.0000       11.1809       11.1809       2.793780       0.01824
  47    0.1255        8.3871        0.0000       11.1809       11.1809       2.793741       0.01785
  46    0.1487        8.3871        0.0000       11.1808       11.1808       2.793691       0.01811
  45    0.1794        8.3872        0.0000       11.1808       11.1808       2.793623       0.01863
  44    0.2165        8.3872        0.0000       11.1807       11.1807       2.793543       0.01828
  43    0.2613        8.3872        0.0000       11.1806       11.1806       2.793448       0.01794
  42    0.3336        8.3872        0.0000       11.1805       11.1805       2.793290       0.01835
  41    0.4307        8.3873        0.0000       11.1803       11.1804       2.793081       0.01815
  40    0.5894        8.3874        0.0000       11.1801       11.1801       2.792740       0.01813
  39     1.339        8.3878        0.0001       11.1788       11.1789       2.791127       0.01816
  38     1.782        8.3880        0.0001       11.1781       11.1782       2.790179       0.01804
  37     2.292        8.3883        0.0001       11.1772       11.1773       2.789082       0.01817
  36     2.964        8.3886        0.0002       11.1761       11.1763       2.787641       0.01808
  35     3.853        8.3891        0.0002       11.1746       11.1748       2.785738       0.01806
  34     5.035        8.3897        0.0003       11.1726       11.1729       2.783210       0.01806
  33     6.613        8.3905        0.0004       11.1700       11.1704       2.779833       0.01806
  32     8.786        8.3916        0.0005       11.1664       11.1669       2.775282       0.01767
  31     11.80        8.3932        0.0007       11.1613       11.1620       2.768775       0.01822
  30     15.07        8.3950        0.0009       11.1558       11.1568       2.761792       0.01803
  29     18.79        8.3969        0.0011       11.1497       11.1508       2.753909       0.01787
  28     23.16        8.3992        0.0014       11.1425       11.1439       2.744709       0.01779
  27     28.12        8.4018        0.0017       11.1343       11.1360       2.734201       0.01786
  26     33.73        8.4048        0.0021       11.1252       11.1273       2.722457       0.01766
  25     40.54        8.4084        0.0025       11.1142       11.1167       2.708293       0.01757
  24     48.69        8.4127        0.0030       11.1010       11.1040       2.691255       0.01763
  23     57.69        8.4175        0.0035       11.0866       11.0901       2.672586       0.01750
  22     68.43        8.4233        0.0042       11.0695       11.0737       2.650419       0.01743
  21     81.20        8.4302        0.0049       11.0494       11.0543       2.624107       0.01739
  20     96.49        8.4385        0.0059       11.0255       11.0314       2.592889       0.01723
  19     114.6        8.4485        0.0069       10.9975       11.0045       2.556012       0.01722
  18     136.5        8.4605        0.0082       10.9648       10.9730       2.512561       0.01671
  17     162.9        8.4749        0.0098       10.9263       10.9361       2.461158       0.01643
  16     196.4        8.4940        0.0118       10.8773       10.8890       2.395006       0.01665
  15     218.7        8.5068        0.0131       10.8455       10.8586       2.351816       0.01640
  14     243.0        8.5209        0.0145       10.8114       10.8260       2.305027       0.01623
  13     269.0        8.5365        0.0161       10.7749       10.7909       2.254414       0.01642
  12     297.5        8.5537        0.0177       10.7357       10.7534       2.199676       0.01623
  11     328.5        8.5728        0.0195       10.6937       10.7132       2.140409       0.01611
  10     361.9        8.5940        0.0214       10.6489       10.6703       2.076290       0.01622
   9     398.1        8.6176        0.0235       10.6008       10.6243       2.006681       0.01622
   8     437.6        8.6440        0.0258       10.5491       10.5748       1.930786       0.01623
   7     480.5        8.6737        0.0282       10.4934       10.5216       1.847847       0.01629
   6     533.0        8.7125        0.0311       10.4243       10.4554       1.742898       0.01688
   5     589.8        8.7577        0.0343       10.3479       10.3822       1.624482       0.01758
   4     651.6        8.8120        0.0377       10.2613       10.2990       1.487040       0.01880
   3     718.7        8.8786        0.0413       10.1618       10.2030       1.324436       0.02043
   2     792.3        8.9635        0.0451       10.0439       10.0890       1.125477       0.02282
   1     891.5        1.2296        2.2067        0.0000        2.2067       0.977157       0.01262
   0    1013.0        1.2547        2.1607        0.0000        2.1607       0.905974       0.00494



 Wavenumbers:  8050. - 12850. cm-1, ATM      1
 LEVEL PRESSURE   UPWARD FLUX   DIFDOWN FLUX  DIRDOWN FLUX  DOWNWARD FLUX   NET FLUX    HEATING RATE
          mb          W/m2          W/m2          W/m2        W/m2          W/m2       degree/day
  51    .06700      112.8572        0.0000      156.5418      156.5418      43.684558       0.00000
  50    .07753      112.8572        0.0000      156.5417      156.5417      43.684558      -0.00000
  49    .09103      112.8572        0.0001      156.5417      156.5417      43.684558       0.00000
  48    0.1069      112.8572        0.0001      156.5416      156.5417      43.684558      -0.00000
  47    0.1255      112.8571        0.0002      156.5415      156.5417      43.684558      -0.00000
  46    0.1487      112.8571        0.0002      156.5414      156.5417      43.684558       0.00000
  45    0.1794      112.8571        0.0003      156.5413      156.5416      43.684558       0.00000
  44    0.2165      112.8570        0.0005      156.5412      156.5416      43.684558      -0.00000
  43    0.2613      112.8570        0.0006      156.5410      156.5416      43.684558       0.00000
  42    0.3336      112.8569        0.0008      156.5407      156.5415      43.684558      -0.00000
  41    0.4307      112.8568        0.0011      156.5403      156.5414      43.684558      -0.00000
  40    0.5894      112.8567        0.0016      156.5397      156.5413      43.684558       0.00000
  39     1.339      112.8560        0.0038      156.5367      156.5405      43.684558      -0.00000
  38     1.782      112.8556        0.0051      156.5350      156.5401      43.684558      -0.00000
  37     2.292      112.8551        0.0067      156.5330      156.5396      43.684558       0.00000
  36     2.964      112.8544        0.0087      156.5303      156.5390      43.684558       0.00000
  35     3.853      112.8536        0.0113      156.5268      156.5382      43.684558       0.00000
  34     5.035      112.8525        0.0148      156.5222      156.5371      43.684558       0.00000
  33     6.613      112.8510        0.0196      156.5160      156.5356      43.684558       0.00000
  32     8.786      112.8490        0.0259      156.5076      156.5336      43.684558      -0.00000
  31     11.80      112.8461        0.0350      156.4957      156.5307      43.684558       0.00000
  30     15.07      112.8430        0.0448      156.4828      156.5276      43.684558       0.00000
  29     18.79      112.8395        0.0559      156.4682      156.5241      43.684558      -0.00000
  28     23.16      112.8354        0.0688      156.4512      156.5200      43.684558       0.00000
  27     28.12      112.8307        0.0836      156.4317      156.5153      43.684558       0.00000
  26     33.73      112.8255        0.1002      156.4099      156.5100      43.684558       0.00000
  25     40.54      112.8191        0.1203      156.3834      156.5037      43.684558       0.00000
  24     48.69      112.8115        0.1445      156.3515      156.4960      43.684558      -0.00000
  23     57.69      112.8030        0.1712      156.3164      156.4876      43.684558       0.00000
  22     68.43      112.7929        0.2030      156.2746      156.4775      43.684558      -0.00000
  21     81.20      112.7809        0.2409      156.2246      156.4655      43.684558      -0.00000
  20     96.49      112.7666        0.2862      156.1649      156.4511      43.684558       0.00000
  19     114.6      112.7498        0.3401      156.0879      156.4280      43.678266       0.00294
  18     136.5      112.7298        0.4041      155.9962      156.4003      43.670464       0.00300
  17     162.9      112.7060        0.4805      155.8831      156.3636      43.657537       0.00413
  16     196.4      112.6753        0.5798      155.7199      156.2998      43.624480       0.00832
  15     218.7      112.6556        0.6452      155.5733      156.2185      43.562870       0.02339
  14     243.0      112.6355        0.7162      155.3367      156.0529      43.417344       0.05047
  13     269.0      112.6169        0.7930      154.9514      155.7444      43.127512       0.09402
  12     297.5      112.6030        0.8758      154.3896      155.2654      42.662418       0.13794
  11     328.5      112.5957        0.9650      153.7151      154.6801      42.084417       0.15716
  10     361.9      112.5994        1.0608      152.9087      153.9696      41.370175       0.18071
   9     398.1      112.6212        1.1633      151.8986      153.0620      40.440773       0.21653
   8     437.6      112.6733        1.2724      150.6031      151.8756      39.202278       0.26480
   7     480.5      112.7707        1.3878      149.0014      150.3892      37.618551       0.31104
   6     533.0      112.9695        1.5275      146.7375      148.2651      35.295590       0.37369
   5     589.8      113.3313        1.6740      143.8730      145.5470      32.215687       0.45716
   4     651.6      114.0388        1.8243      140.0955      141.9198      27.880958       0.59279
   3     718.7      115.3679        1.9768      135.5278      137.5046      22.136680       0.72190
   2     792.3      118.0281        2.1277      130.0690      132.1967      14.168580       0.91385
   1     891.5       36.5637       45.3031        0.0000       45.3032       8.739465       0.46199
   0    1013.0       37.5004       43.9012        0.0000       43.9012       6.400789       0.16239



 Wavenumbers: 12850. - 16000. cm-1, ATM      1
 LEVEL PRESSURE   UPWARD FLUX   DIFDOWN FLUX  DIRDOWN FLUX  DOWNWARD FLUX   NET FLUX    HEATING RATE
          mb          W/m2          W/m2          W/m2        W/m2          W/m2       degree/day
  51    .06700       82.6083        0.0000       98.0872       98.0872      15.478891       0.00000
  50    .07753       82.6083        0.0001       98.0864       98.0864      15.478098       0.63581
  49    .09103       82.6084        0.0002       98.0853       98.0855      15.477101       0.62291
  48    0.1069       82.6084        0.0003       98.0841       98.0843      15.475956       0.60979
  47    0.1255       82.6084        0.0004       98.0826       98.0830      15.474639       0.59700
  46    0.1487       82.6084        0.0005       98.0809       98.0814      15.472976       0.60615
  45    0.1794       82.6085        0.0007       98.0784       98.0792      15.470713       0.62140
  44    0.2165       82.6086        0.0010       98.0756       98.0766      15.468048       0.60614
  43    0.2613       82.6087        0.0013       98.0723       98.0736      15.464912       0.59114
  42    0.3336       82.6090        0.0018       98.0670       98.0688      15.459788       0.59739
  41    0.4307       82.6094        0.0024       98.0602       98.0626      15.453154       0.57680
  40    0.5894       82.6103        0.0034       98.0496       98.0530      15.442682       0.55687
  39     1.339       82.6177        0.0083       98.0043       98.0127      15.394936       0.53754
  38     1.782       82.6244        0.0112       97.9793       97.9905      15.366079       0.54939
  37     2.292       82.6343        0.0145       97.9498       97.9643      15.330007       0.59745
  36     2.964       82.6506        0.0189       97.9088       97.9277      15.277097       0.66418
  35     3.853       82.6768        0.0246       97.8503       97.8750      15.198153       0.74919
  34     5.035       82.7163        0.0323       97.7680       97.8003      15.084006       0.81542
  33     6.613       82.7713        0.0425       97.6562       97.6987      14.927370       0.83738
  32     8.786       82.8430        0.0563       97.5107       97.5669      14.723902       0.79020
  31     11.80       82.9365        0.0759       97.3179       97.3938      14.457286       0.74644
  30     15.07       83.0262        0.0970       97.1283       97.2253      14.199129       0.66651
  29     18.79       83.1180        0.1208       96.9300       97.0508      13.932845       0.60375
  28     23.16       83.2141        0.1486       96.7166       96.8651      13.651001       0.54499
  27     28.12       83.3112        0.1803       96.4935       96.6738      13.362577       0.49030
  26     33.73       83.4015        0.2159       96.2731       96.4890      13.087492       0.41360
  25     40.54       83.4891        0.2588       96.0408       96.2996      12.810447       0.34371
  24     48.69       83.5741        0.3106       95.7946       96.1052      12.531037       0.28915
  23     57.69       83.6474        0.3675       95.5573       95.9248      12.277309       0.23783
  22     68.43       83.7131        0.4353       95.3106       95.7459      12.032780       0.19223
  21     81.20       83.7616        0.5162       95.0643       95.5805      11.818863       0.14135
  20     96.49       83.7921        0.6127       94.8153       95.4279      11.635883       0.10099
  19     114.6       83.8261        0.7283       94.5411       95.2694      11.443242       0.08995
  18     136.5       83.8550        0.8654       94.2320       95.0975      11.242508       0.07719
  17     162.9       83.8788        1.0287       93.8753       94.9040      11.025213       0.06946
  16     196.4       83.8873        1.2404       93.4347       94.6751      10.787838       0.05975
  15     218.7       83.8850        1.3795       93.1513       94.5308      10.645792       0.05393
  14     243.0       83.8795        1.5307       92.8439       94.3746      10.495114       0.05226
  13     269.0       83.8710        1.6945       92.5111       94.2056      10.334664       0.05205
  12     297.5       83.8603        1.8715       92.1495       94.0210      10.160721       0.05159
  11     328.5       83.8499        2.0628       91.7554       93.8182       9.968302       0.05232
  10     361.9       83.8412        2.2688       91.3262       93.5950       9.753736       0.05429
   9     398.1       83.8364        2.4903       90.8575       93.3479       9.511468       0.05644
   8     437.6       83.8396        2.7282       90.3418       93.0700       9.230414       0.06009
   7     480.5       83.8549        2.9829       89.7728       92.7557       8.900832       0.06473
   6     533.0       83.8964        3.2960       89.0428       92.3389       8.442515       0.07373
   5     589.8       83.9825        3.6325       88.2038       91.8363       7.853842       0.08738
   4     651.6       84.1584        3.9918       87.1979       91.1897       7.031272       0.11249
   3     718.7       84.4607        4.3725       86.0161       90.3886       5.927931       0.13866
   2     792.3       84.9958        4.7707       84.5970       89.3677       4.371874       0.17846
   1     891.5       50.9117       53.9033        0.0000       53.9033       2.991634       0.11745
   0    1013.0       51.4565       53.2676        0.0000       53.2676       1.811097       0.08197



 Wavenumbers: 16000. - 22650. cm-1, ATM      1
 LEVEL PRESSURE   UPWARD FLUX   DIFDOWN FLUX  DIRDOWN FLUX  DOWNWARD FLUX   NET FLUX    HEATING RATE
          mb          W/m2          W/m2          W/m2        W/m2          W/m2       degree/day
  51    .06700      141.0317        0.0000      156.3892      156.3892      15.357583       0.00000
  50    .07753      141.0316        0.0004      156.3887      156.3891      15.357435       0.11841
  49    .09103      141.0316        0.0009      156.3879      156.3888      15.357220       0.13430
  48    0.1069      141.0316        0.0015      156.3871      156.3885      15.356933       0.15314
  47    0.1255      141.0316        0.0021      156.3861      156.3882      15.356548       0.17456
  46    0.1487      141.0317        0.0030      156.3847      156.3877      15.355980       0.20685
  45    0.1794      141.0318        0.0041      156.3828      156.3869      15.355093       0.24356
  44    0.2165      141.0320        0.0054      156.3805      156.3859      15.353890       0.27373
  43    0.2613      141.0324        0.0070      156.3776      156.3846      15.352257       0.30774
  42    0.3336      141.0331        0.0097      156.3726      156.3823      15.349153       0.36189
  41    0.4307      141.0344        0.0131      156.3657      156.3789      15.344474       0.40681
  40    0.5894      141.0370        0.0188      156.3537      156.3725      15.335551       0.47452
  39     1.339      141.0596        0.0458      156.2834      156.3293      15.269626       0.74220
  38     1.782      141.0806        0.0617      156.2324      156.2940      15.213465       1.06921
  37     2.292      141.1119        0.0800      156.1641      156.2441      15.132173       1.34642
  36     2.964      141.1641        0.1041      156.0605      156.1646      15.000477       1.65318
  35     3.853      141.2484        0.1359      155.9041      156.0399      14.791508       1.98315
  34     5.035      141.3757        0.1780      155.6774      155.8554      14.479743       2.22712
  33     6.613      141.5534        0.2343      155.3656      155.5999      14.046478       2.31623
  32     8.786      141.7850        0.3100      154.9577      155.2677      13.482701       2.18951
  31     11.80      142.0864        0.4182      154.4153      154.8335      12.747115       2.05941
  30     15.07      142.3751        0.5342      153.8804      154.4146      12.039503       1.82692
  29     18.79      142.6698        0.6650      153.3191      153.9841      11.314263       1.64434
  28     23.16      142.9779        0.8176      152.7126      153.5301      10.552219       1.47355
  27     28.12      143.2879        0.9918      152.0755      153.0673       9.779376       1.31378
  26     33.73      143.5740        1.1865      151.4409      152.6275       9.053441       1.09146
  25     40.54      143.8494        1.4217      150.7637      152.1853       8.335954       0.89012
  24     48.69      144.1130        1.7048      150.0338      151.7386       7.625628       0.73508
  23     57.69      144.3365        2.0154      149.3151      151.3306       6.994073       0.59199
  22     68.43      144.5314        2.3850      148.5476      150.9326       6.401209       0.46607
  21     81.20      144.6659        2.8250      147.7517      150.5767       5.910769       0.32407
  20     96.49      144.7356        3.3488      146.9127      150.2615       5.525897       0.21242
  19     114.6      144.7716        3.9690      145.9763      149.9452       5.173652       0.16447
  18     136.5      144.7828        4.7012      144.9088      149.6100       4.827135       0.13324
  17     162.9      144.7676        5.5691      143.6785      149.2477       4.480024       0.11095
  16     196.4      144.6862        6.6890      142.1651      148.8540       4.167830       0.07858
  15     218.7      144.6101        7.4208      141.2033      148.6241       4.014022       0.05840
  14     243.0      144.5170        8.2128      140.1753      148.3882       3.871149       0.04955
  13     269.0      144.4054        9.0673      139.0797      148.1470       3.741604       0.04202
  12     297.5      144.2746        9.9863      137.9141      147.9004       3.625737       0.03436
  11     328.5      144.1287       10.9740      136.6676      147.6416       3.512886       0.03068
  10     361.9      143.9675       12.0315      135.3392      147.3707       3.403162       0.02776
   9     398.1      143.7905       13.1627      133.9235      147.0862       3.295625       0.02505
   8     437.6      143.5988       14.3696      132.4163      146.7859       3.187050       0.02321
   7     480.5      143.3921       15.6545      130.8147      146.4692       3.077070       0.02160
   6     533.0      143.1382       17.2238      128.8599      146.0837       2.945494       0.02117
   5     589.8      142.8693       18.9005      126.7679      145.6684       2.799113       0.02173
   4     651.6      142.5927       20.6862      124.5274      145.2137       2.620994       0.02436
   3     718.7      142.3154       22.5827      122.1285      144.7112       2.395818       0.02830
   2     792.3      142.0561       24.5878      119.5548      144.1427       2.086584       0.03547
   1     891.5      111.8908      113.5945        0.0000      113.5945       1.703653       0.03259
   0    1013.0      112.1033      113.3387        0.0000      113.3387       1.235392       0.03251



 Wavenumbers: 22650. - 29000. cm-1, ATM      1
 LEVEL PRESSURE   UPWARD FLUX   DIFDOWN FLUX  DIRDOWN FLUX  DOWNWARD FLUX   NET FLUX    HEATING RATE
          mb          W/m2          W/m2          W/m2        W/m2          W/m2       degree/day
  51    .06700       58.6906        0.0000       59.0156       59.0156       0.324984       0.00000
  50    .07753       58.6905        0.0005       59.0151       59.0155       0.324984       0.00000
  49    .09103       58.6904        0.0010       59.0144       59.0154       0.324984      -0.00000
  48    0.1069       58.6903        0.0017       59.0136       59.0153       0.324984       0.00000
  47    0.1255       58.6901        0.0025       59.0127       59.0151       0.324984       0.00000
  46    0.1487       58.6900        0.0035       59.0115       59.0149       0.324984       0.00000
  45    0.1794       58.6897        0.0048       59.0099       59.0147       0.324984       0.00000
  44    0.2165       58.6894        0.0063       59.0080       59.0144       0.324984      -0.00000
  43    0.2613       58.6890        0.0082       59.0058       59.0140       0.324984       0.00000
  42    0.3336       58.6885        0.0113       59.0022       59.0134       0.324984      -0.00000
  41    0.4307       58.6877        0.0154       58.9973       59.0127       0.324984       0.00000
  40    0.5894       58.6864        0.0220       58.9894       59.0114       0.324984       0.00000
  39     1.339       58.6803        0.0535       58.9518       59.0053       0.324984       0.00000
  38     1.782       58.6768        0.0720       58.9297       59.0017       0.324984       0.00000
  37     2.292       58.6726        0.0935       58.9042       58.9976       0.324984       0.00000
  36     2.964       58.6672        0.1216       58.8706       58.9922       0.324984       0.00000
  35     3.853       58.6601        0.1587       58.8264       58.9851       0.324984       0.00000
  34     5.035       58.6506        0.2080       58.7676       58.9756       0.324984      -0.00000
  33     6.613       58.6379        0.2738       58.6891       58.9629       0.324984       0.00000
  32     8.786       58.6209        0.3624       58.5834       58.9459       0.324984       0.00000
  31     11.80       58.5965        0.4890       58.4324       58.9215       0.324984      -0.00000
  30     15.07       58.5704        0.6247       58.2706       58.8954       0.324984      -0.00000
  29     18.79       58.5409        0.7777       58.0882       58.8659       0.324984       0.00000
  28     23.16       58.5066        0.9559       57.8757       58.8316       0.324984      -0.00000
  27     28.12       58.4675        1.1592       57.6333       58.7925       0.324984       0.00000
  26     33.73       58.4239        1.3858       57.3631       58.7489       0.324984       0.00000
  25     40.54       58.3714        1.6585       57.0379       58.6964       0.324984      -0.00000
  24     48.69       58.3084        1.9855       56.6479       58.6334       0.324984      -0.00000
  23     57.69       58.2397        2.3426       56.2221       58.5646       0.324984      -0.00000
  22     68.43       58.1583        2.7648       55.7186       58.4833       0.324984       0.00000
  21     81.20       58.0623        3.2634       55.1239       58.3873       0.324984       0.00000
  20     96.49       57.9490        3.8512       54.4228       58.2740       0.324984       0.00000
  19     114.6       57.8163        4.5403       53.6010       58.1412       0.324984       0.00000
  18     136.5       57.6612        5.3445       52.6418       57.9862       0.324984       0.00000
  17     162.9       57.4800        6.2846       51.5203       57.8049       0.324984      -0.00000
  16     196.4       57.2502        7.4757       50.0994       57.5752       0.324984       0.00000
  15     218.7       57.1025        8.2412       49.1863       57.4274       0.324984      -0.00000
  14     243.0       56.9447        9.0584       48.2113       57.2697       0.324984       0.00000
  13     269.0       56.7769        9.9270       47.1749       57.1019       0.324984       0.00000
  12     297.5       56.5993       10.8461       46.0783       56.9243       0.324984      -0.00000
  11     328.5       56.4116       11.8171       44.9195       56.7366       0.324984       0.00000
  10     361.9       56.2143       12.8374       43.7018       56.5393       0.324984       0.00000
   9     398.1       56.0073       13.9072       42.4250       56.3322       0.324984       0.00000
   8     437.6       55.7909       15.0243       41.0916       56.1159       0.324984      -0.00000
   7     480.5       55.5657       16.1863       39.7045       55.8907       0.324984       0.00000
   6     533.0       55.2976       17.5684       38.0543       55.6226       0.324984       0.00000
   5     589.8       55.0194       19.0013       36.3431       55.3444       0.324984      -0.00000
   4     651.6       54.7324       20.4778       34.5795       55.0573       0.324984       0.00000
   3     718.7       54.4375       21.9923       32.7702       54.7625       0.324984       0.00000
   2     792.3       54.1365       23.5359       30.9256       54.4615       0.324984      -0.00000
   1     891.5       47.2501       47.5735        0.0000       47.5735       0.323423       0.00013
   0    1013.0       47.2388       47.5623        0.0000       47.5623       0.323423      -0.00000



 Wavenumbers: 29000. - 38000. cm-1, ATM      1
 LEVEL PRESSURE   UPWARD FLUX   DIFDOWN FLUX  DIRDOWN FLUX  DOWNWARD FLUX   NET FLUX    HEATING RATE
          mb          W/m2          W/m2          W/m2        W/m2          W/m2       degree/day
  51    .06700        8.7760        0.0000       20.8114       20.8114      12.035398       0.00000
  50    .07753        8.7758        0.0003       20.8070       20.8074      12.031590       3.05158
  49    .09103        8.7755        0.0007       20.8009       20.8016      12.026053       3.46088
  48    0.1069        8.7753        0.0012       20.7928       20.7939      12.018643       3.94432
  47    0.1255        8.7750        0.0017       20.7820       20.7837      12.008739       4.49038
  46    0.1487        8.7747        0.0024       20.7665       20.7688      11.994175       5.30849
  45    0.1794        8.7742        0.0033       20.7424       20.7457      11.971510       6.22210
  44    0.2165        8.7737        0.0044       20.7103       20.7147      11.940987       6.94347
  43    0.2613        8.7731        0.0056       20.6675       20.6731      11.899992       7.72740
  42    0.3336        8.7722        0.0077       20.5880       20.5957      11.823430       8.92634
  41    0.4307        8.7711        0.0104       20.4722       20.4826      11.711477       9.73413
  40    0.5894        8.7696        0.0147       20.2637       20.2784      11.508791      10.77858
  39     1.339        8.7662        0.0331       19.0984       19.1315      10.365296      12.87367
  38     1.782        8.7667        0.0427       18.4394       18.4821       9.715357      12.37379
  37     2.292        8.7694        0.0530       17.7714       17.8244       9.054991      10.93738
  36     2.964        8.7760        0.0657       17.0421       17.1078       8.331834       9.07782
  35     3.853        8.7889        0.0816       16.2678       16.3495       7.560601       7.31914
  34     5.035        8.8101        0.1018       15.4803       15.5821       6.772026       5.63325
  33     6.613        8.8410        0.1276       14.7157       14.8433       6.002328       4.11480
  32     8.786        8.8818        0.1614       13.9936       14.1550       5.273226       2.83157
  31     11.80        8.9350        0.2085       13.2835       13.4920       4.557052       2.00506
  30     15.07        8.9863        0.2573       12.7394       12.9967       4.010362       1.41145
  29     18.79        9.0394        0.3115       12.2666       12.5781       3.538677       1.06945
  28     23.16        9.0958        0.3730       11.8300       12.2030       3.107267       0.83421
  27     28.12        9.1536        0.4420       11.4279       11.8698       2.716274       0.66466
  26     33.73        9.2070        0.5180       11.0695       11.5874       2.380460       0.50491
  25     40.54        9.2577        0.6088       10.7209       11.3297       2.071960       0.38273
  24     48.69        9.3056        0.7165       10.3742       11.0907       1.785044       0.29691
  23     57.69        9.3451        0.8331       10.0549       10.8880       1.542933       0.22694
  22     68.43        9.3771        0.9699        9.7327       10.7026       1.325537       0.17090
  21     81.20        9.3927        1.1314        9.4134       10.5449       1.152149       0.11457
  20     96.49        9.3899        1.3213        9.0887       10.4101       1.020134       0.07286
  19     114.6        9.3769        1.5408        8.7388       10.2795       0.902600       0.05488
  18     136.5        9.3567        1.7916        8.3549       10.1465       0.789798       0.04338
  17     162.9        9.3295        2.0777        7.9311       10.0088       0.679323       0.03531
  16     196.4        9.2832        2.4319        7.4333        9.8653       0.582054       0.02448
  15     218.7        9.2498        2.6548        7.1295        9.7844       0.534602       0.01802
  14     243.0        9.2131        2.8878        6.8161        9.7039       0.490776       0.01520
  13     269.0        9.1731        3.1301        6.4943        9.6245       0.451415       0.01277
  12     297.5        9.1296        3.3806        6.1657        9.5464       0.416709       0.01029
  11     328.5        9.0843        3.6384        5.8295        9.4678       0.383474       0.00904
  10     361.9        9.0376        3.9008        5.4886        9.3895       0.351857       0.00800
   9     398.1        8.9895        4.1675        5.1440        9.3114       0.321887       0.00698
   8     437.6        8.9407        4.4368        4.7969        9.2337       0.292987       0.00618
   7     480.5        8.8915        4.7067        4.4504        9.1570       0.265545       0.00539
   6     533.0        8.8351        5.0144        4.0563        9.0707       0.235620       0.00481
   5     589.8        8.7796        5.3180        3.6682        8.9862       0.206633       0.00430
   4     651.6        8.7259        5.6137        3.2905        8.9042       0.178260       0.00388
   3     718.7        8.6746        5.8999        2.9252        8.8251       0.150456       0.00349
   2     792.3        8.6265        6.1732        2.5764        8.7497       0.123225       0.00312
   1     891.5        7.5756        7.6692        0.0000        7.6692       0.093592       0.00252
   0    1013.0        7.5847        7.6482        0.0000        7.6482       0.063480       0.00209



 Wavenumbers: 38000. - 50000. cm-1, ATM      1
 LEVEL PRESSURE   UPWARD FLUX   DIFDOWN FLUX  DIRDOWN FLUX  DOWNWARD FLUX   NET FLUX    HEATING RATE
          mb          W/m2          W/m2          W/m2        W/m2          W/m2       degree/day
  51    .06700        0.0061        0.0000        1.2836        1.2836       1.277518       0.00000
  50    .07753        0.0061        0.0001        1.2812        1.2812       1.275183       1.87150
  49    .09103        0.0060        0.0002        1.2777        1.2778       1.271851       2.08247
  48    0.1069        0.0059        0.0002        1.2731        1.2734       1.267473       2.33059
  47    0.1255        0.0058        0.0004        1.2672        1.2675       1.261717       2.60908
  46    0.1487        0.0057        0.0005        1.2586        1.2591       1.253391       3.03499
  45    0.1794        0.0055        0.0007        1.2455        1.2462       1.240623       3.50520
  44    0.2165        0.0054        0.0009        1.2282        1.2291       1.223697       3.85037
  43    0.2613        0.0052        0.0011        1.2054        1.2065       1.201348       4.21261
  42    0.3336        0.0049        0.0015        1.1639        1.1654       1.160524       4.75970
  41    0.4307        0.0045        0.0020        1.1051        1.1070       1.102565       5.03943
  40    0.5894        0.0039        0.0026        1.0039        1.0064       1.002524       5.32007
  39     1.339        0.0022        0.0035        0.5438        0.5473       0.545104       5.14971
  38     1.782        0.0016        0.0032        0.3635        0.3666       0.365006       3.42879
  37     2.292        0.0012        0.0027        0.2356        0.2383       0.237058       2.11916
  36     2.964        0.0009        0.0022        0.1455        0.1477       0.146786       1.13318
  35     3.853        0.0006        0.0017        0.0858        0.0875       0.086906       0.56828
  34     5.035        0.0004        0.0013        0.0488        0.0501       0.049701       0.26578
  33     6.613        0.0003        0.0010        0.0273        0.0282       0.027974       0.11615
  32     8.786        0.0002        0.0007        0.0144        0.0151       0.014928       0.05067
  31     11.80        0.0001        0.0004        0.0065        0.0070       0.006903       0.02247
  30     15.07        0.0000        0.0003        0.0031        0.0034       0.003329       0.00923
  29     18.79        0.0000        0.0002        0.0014        0.0016       0.001583       0.00396
  28     23.16        0.0000        0.0001        0.0006        0.0007       0.000720       0.00167
  27     28.12        0.0000        0.0001        0.0003        0.0003       0.000317       0.00069
  26     33.73        0.0000        0.0000        0.0001        0.0001       0.000140       0.00027
  25     40.54        0.0000        0.0000        0.0000        0.0001       0.000057       0.00010
  24     48.69        0.0000        0.0000        0.0000        0.0000       0.000021       0.00004
  23     57.69        0.0000        0.0000        0.0000        0.0000       0.000008       0.00001
  22     68.43        0.0000        0.0000        0.0000        0.0000       0.000003       0.00000
  21     81.20        0.0000        0.0000        0.0000        0.0000       0.000001       0.00000
  20     96.49        0.0000        0.0000        0.0000        0.0000       0.000000       0.00000
  19     114.6        0.0000        0.0000        0.0000        0.0000       0.000000       0.00000
  18     136.5        0.0000        0.0000        0.0000        0.0000       0.000000       0.00000
  17     162.9        0.0000        0.0000        0.0000        0.0000       0.000000       0.00000
  16     196.4        0.0000        0.0000        0.0000        0.0000       0.000000       0.00000
  15     218.7        0.0000        0.0000        0.0000        0.0000       0.000000       0.00000
  14     243.0        0.0000        0.0000        0.0000        0.0000       0.000000       0.00000
  13     269.0        0.0000        0.0000        0.0000        0.0000       0.000000       0.00000
  12     297.5        0.0000        0.0000        0.0000        0.0000       0.000000       0.00000
  11     328.5        0.0000        0.0000        0.0000        0.0000       0.000000       0.00000
  10     361.9        0.0000        0.0000        0.0000        0.0000       0.000000       0.00000
   9     398.1        0.0000        0.0000        0.0000        0.0000       0.000000       0.00000
   8     437.6        0.0000        0.0000        0.0000        0.0000       0.000000       0.00000
   7     480.5        0.0000        0.0000        0.0000        0.0000       0.000000       0.00000
   6     533.0        0.0000        0.0000        0.0000        0.0000       0.000000       0.00000
   5     589.8        0.0000        0.0000        0.0000        0.0000       0.000000       0.00000
   4     651.6        0.0000        0.0000        0.0000        0.0000       0.000000       0.00000
   3     718.7        0.0000        0.0000        0.0000        0.0000       0.000000       0.00000
   2     792.3        0.0000        0.0000        0.0000        0.0000       0.000000       0.00000
   1     891.5        0.0000        0.0000        0.0000        0.0000       0.000000       0.00000
   0    1013.0        0.0000        0.0000        0.0000        0.0000       0.000000       0.00000



 Wavenumbers:   820. -  2600. cm-1, ATM      1
 LEVEL PRESSURE   UPWARD FLUX   DIFDOWN FLUX  DIRDOWN FLUX  DOWNWARD FLUX   NET FLUX    HEATING RATE
          mb          W/m2          W/m2          W/m2        W/m2          W/m2       degree/day
  51    .06700        1.6046        0.0000        6.0047        6.0047       4.400077       0.00000
  50    .07753        1.6046        0.0000        6.0008        6.0008       4.396224       3.08825
  49    .09103        1.6046        0.0000        5.9999        5.9999       4.395338       0.55362
  48    0.1069        1.6046        0.0000        5.9989        5.9989       4.394349       0.52657
  47    0.1255        1.6046        0.0000        5.9978        5.9978       4.393231       0.50654
  46    0.1487        1.6046        0.0000        5.9964        5.9964       4.391874       0.49462
  45    0.1794        1.6046        0.0000        5.9947        5.9947       4.390155       0.47205
  44    0.2165        1.6046        0.0000        5.9929        5.9929       4.388312       0.41915
  43    0.2613        1.6046        0.0000        5.9909        5.9909       4.386353       0.36938
  42    0.3336        1.6046        0.0000        5.9880        5.9880       4.383474       0.33562
  41    0.4307        1.6046        0.0000        5.9846        5.9846       4.380004       0.30170
  40    0.5894        1.6046        0.0000        5.9791        5.9791       4.374498       0.29282
  39     1.339        1.6046        0.0000        5.9536        5.9536       4.349005       0.28700
  38     1.782        1.6046        0.0000        5.9395        5.9395       4.334864       0.26923
  37     2.292        1.6046        0.0000        5.9237        5.9237       4.319109       0.26094
  36     2.964        1.6046        0.0000        5.9039        5.9039       4.299330       0.24828
  35     3.853        1.6046        0.0000        5.8793        5.8793       4.274668       0.23405
  34     5.035        1.6046        0.0000        5.8487        5.8487       4.244096       0.21839
  33     6.613        1.6046        0.0000        5.8108        5.8108       4.206120       0.20302
  32     8.786        1.6047        0.0000        5.7631        5.7631       4.158482       0.18501
  31     11.80        1.6047        0.0000        5.7039        5.7039       4.099202       0.16596
  30     15.07        1.6047        0.0000        5.6539        5.6539       4.049139       0.12925
  29     18.79        1.6048        0.0000        5.6127        5.6127       4.007975       0.09333
  28     23.16        1.6048        0.0000        5.5794        5.5794       3.974564       0.06461
  27     28.12        1.6049        0.0000        5.5518        5.5518       3.946957       0.04693
  26     33.73        1.6049        0.0000        5.5268        5.5268       3.921858       0.03774
  25     40.54        1.6050        0.0000        5.4993        5.4993       3.894357       0.03412
  24     48.69        1.6051        0.0000        5.4678        5.4678       3.862746       0.03271
  23     57.69        1.6051        0.0000        5.4340        5.4340       3.828878       0.03175
  22     68.43        1.6052        0.0000        5.3947        5.3948       3.789507       0.03095
  21     81.20        1.6054        0.0000        5.3497        5.3497       3.744354       0.02984
  20     96.49        1.6055        0.0000        5.2982        5.2982       3.692690       0.02851
  19     114.6        1.6057        0.0000        5.2389        5.2389       3.633183       0.02779
  18     136.5        1.6060        0.0000        5.1716        5.1717       3.565692       0.02595
  17     162.9        1.6063        0.0000        5.0890        5.0891       3.482728       0.02652
  16     196.4        1.6069        0.0000        4.9668        4.9668       3.359907       0.03092
  15     218.7        1.6075        0.0000        4.8585        4.8585       3.250964       0.04136
  14     243.0        1.6085        0.0000        4.7078        4.7079       3.099409       0.05256
  13     269.0        1.6098        0.0000        4.5343        4.5343       2.924438       0.05676
  12     297.5        1.6121        0.0000        4.3419        4.3420       2.729892       0.05770
  11     328.5        1.6151        0.0000        4.1281        4.1281       2.513087       0.05895
  10     361.9        1.6190        0.0000        3.8786        3.8787       2.259660       0.06412
   9     398.1        1.6241        0.0000        3.6159        3.6160       1.991809       0.06240
   8     437.6        1.6308        0.0000        3.3759        3.3759       1.745107       0.05275
   7     480.5        1.6389        0.0000        3.1957        3.1958       1.556863       0.03697
   6     533.0        1.6513        0.0000        3.0467        3.0467       1.395419       0.02597
   5     589.8        1.6696        0.0001        2.9023        2.9023       1.232777       0.02414
   4     651.6        1.7013        0.0001        2.7183        2.7184       1.017064       0.02950
   3     718.7        1.7566        0.0001        2.5058        2.5059       0.749266       0.03365
   2     792.3        1.8648        0.0001        2.2756        2.2757       0.410842       0.03881
   1     891.5        0.0011        0.2022        0.0000        0.2022       0.201077       0.01785
   0    1013.0        0.0013        0.1654        0.0000        0.1654       0.164110       0.00257

  Modules and versions used in this calculation:

       rrtmg_sw.1col.f90:  $Revision$                    rrtmg_sw_init.f90:  $Revision$        
     rrtmgsw_cldprop.f90:  $Revision$                  rrtmgsw_cldprmc.f90:  NOT USED          
     rrtmg_sw_reftra.f90:  $Revision$                  rrtmg_sw_spcvrt.f90:  NOT USED          
     rrtmg_sw_spcvmc.f90:  NOT USED                    rrtmgsw_setcoef.f90:  NOT USED          
     rrtmg_sw_taumol.f90:  $Revision$                  rrtmg_sw_vrtqdr.f90:  NOT USED          
                rrtatm.f:  NOT USED                             util_xxx.f:  NOT USED          
                 extra.f:  NOT USED                       rrtmg_sw_k_g.f90:  $Revision$        

