

 Wavenumbers:   820. - 50000. cm-1, ATM      1
 LEVEL PRESSURE   UPWARD FLUX   DIFDOWN FLUX  DIRDOWN FLUX  DOWNWARD FLUX   NET FLUX    HEATING RATE
          mb          W/m2          W/m2          W/m2        W/m2          W/m2       degree/day
  51    .06700      474.1160        0.0000      617.8126      617.8126     143.696574       0.00000
  50    .07753      474.1156        0.0014      617.7947      617.7961     143.680429      12.94099
  49    .09103      474.1152        0.0031      617.7778      617.7808     143.665611       9.26127
  48    0.1069      474.1148        0.0050      617.7581      617.7631     143.648340       9.19352
  47    0.1255      474.1143        0.0073      617.7340      617.7412     143.626983       9.68226
  46    0.1487      474.1137        0.0101      617.7009      617.7110     143.597280      10.82709
  45    0.1794      474.1130        0.0140      617.6521      617.6660     143.553023      12.14966
  44    0.2165      474.1123        0.0185      617.5895      617.6080     143.495667      13.04745
  43    0.2613      474.1117        0.0239      617.5089      617.5328     143.421109      14.05392
  42    0.3336      474.1110        0.0328      617.3641      617.3969     143.285939      15.75942
  41    0.4307      474.1104        0.0445      617.1591      617.2036     143.093191      16.75899
  40    0.5894      474.1105        0.0633      616.8005      616.8638     142.753268      18.07669
  39     1.339      474.1299        0.1486      614.9443      615.0929     140.963031      20.15482
  38     1.782      474.1542        0.1967      613.9670      614.1637     140.009431      18.15499
  37     2.292      474.1943        0.2513      613.0059      613.2572     139.062910      15.67687
  36     2.964      474.2646        0.3223      611.9577      612.2800     138.015373      13.14974
  35     3.853      474.3823        0.4154      610.8024      611.2178     136.835540      11.19684
  34     5.035      474.5631        0.5383      609.5327      610.0710     135.507979       9.48354
  33     6.613      474.8175        0.7015      608.1464      608.8479     134.030363       7.89934
  32     8.786      475.1491        0.9203      606.6250      607.5454     132.396254       6.34629
  31     11.80      475.5789        1.2320      604.8486      606.0806     130.501737       5.30405
  30     15.07      475.9884        1.5645      603.2440      604.8085     128.820083       4.34170
  29     18.79      476.4046        1.9387      601.6511      603.5899     127.185236       3.70670
  28     23.16      476.8373        2.3735      599.9927      602.3662     125.528897       3.20282
  27     28.12      477.2696        2.8685      598.2881      601.1565     123.886926       2.79124
  26     33.73      477.6618        3.4203      596.5951      600.0154     122.353513       2.30553
  25     40.54      478.0292        4.0846      594.7727      598.8573     120.828179       1.89235
  24     48.69      478.3688        4.8819      592.7865      597.6684     119.299609       1.58183
  23     57.69      478.6418        5.7534      590.7959      596.5493     117.907588       1.30481
  22     68.43      478.8583        6.7860      588.6191      595.4051     116.546819       1.06975
  21     81.20      478.9654        8.0104      586.2690      594.2793     115.313893       0.81470
  20     96.49      478.9533        9.4601      583.6961      593.1562     114.202879       0.61320
  19     114.6      478.8810       11.1657      580.7708      591.9365     113.055552       0.53572
  18     136.5      478.7501       13.1631      577.4359      590.5990     111.848883       0.46399
  17     162.9      478.5562       15.5074      573.5624      589.0698     110.513656       0.42679
  16     196.4      478.2167       18.4975      568.5907      587.0882     108.871543       0.41334
  15     218.7      477.9661       20.4311      565.0572      585.4883     107.522179       0.51230
  14     243.0      477.6878       22.5052      560.7495      583.2548     105.566977       0.67813
  13     269.0      477.3848       24.7215      555.3947      580.1162     102.731339       0.91987
  12     297.5      477.0657       27.0804      548.9964      576.0768      99.011138       1.10337
  11     328.5      476.7425       29.5888      542.0895      571.6783      94.935857       1.10806
  10     361.9      476.4266       32.2427      534.6242      566.8669      90.440367       1.13740
   9     398.1      476.1346       35.0470      526.4204      561.4674      85.332741       1.18996
   8     437.6      475.8980       38.0002      517.3907      555.3908      79.492836       1.24861
   7     480.5      475.7513       41.1004      507.7216      548.8220      73.070673       1.26129
   6     533.0      475.7723       44.8285      495.9006      540.7291      64.956797       1.30526
   5     589.8      476.1663       48.7412      483.0788      531.8201      55.653780       1.38087
   4     651.6      477.3729       52.8255      468.6907      521.5161      44.143181       1.57411
   3     718.7      480.0441       57.0731      453.2257      510.2989      30.254788       1.74539
   2     792.3      485.9776       61.4617      436.4928      497.9546      11.976984       2.09626
   1     891.5      128.2297      133.7594        0.0000      133.7594       5.529735       0.54863
   0    1013.0      128.5249      133.3167        0.0000      133.3167       4.791798       0.05124



 Wavenumbers:  2600. -  3250. cm-1, ATM      1
 LEVEL PRESSURE   UPWARD FLUX   DIFDOWN FLUX  DIRDOWN FLUX  DOWNWARD FLUX   NET FLUX    HEATING RATE
          mb          W/m2          W/m2          W/m2        W/m2          W/m2       degree/day
  51    .06700        2.3507        0.0000        5.4450        5.4450       3.094381       0.00000
  50    .07753        2.3507        0.0000        5.4450        5.4450       3.094373       0.00640
  49    .09103        2.3507        0.0000        5.4450        5.4450       3.094363       0.00627
  48    0.1069        2.3507        0.0000        5.4450        5.4450       3.094352       0.00613
  47    0.1255        2.3507        0.0000        5.4450        5.4450       3.094339       0.00599
  46    0.1487        2.3507        0.0000        5.4450        5.4450       3.094322       0.00608
  45    0.1794        2.3507        0.0000        5.4450        5.4450       3.094299       0.00625
  44    0.2165        2.3507        0.0000        5.4449        5.4449       3.094272       0.00612
  43    0.2613        2.3507        0.0000        5.4449        5.4449       3.094240       0.00600
  42    0.3336        2.3507        0.0000        5.4448        5.4448       3.094188       0.00617
  41    0.4307        2.3507        0.0000        5.4448        5.4448       3.094116       0.00620
  40    0.5894        2.3507        0.0000        5.4446        5.4446       3.093997       0.00637
  39     1.339        2.3507        0.0000        5.4439        5.4439       3.093289       0.00797
  38     1.782        2.3507        0.0000        5.4434        5.4434       3.092746       0.01034
  37     2.292        2.3507        0.0000        5.4427        5.4427       3.092030       0.01186
  36     2.964        2.3507        0.0000        5.4416        5.4416       3.090991       0.01304
  35     3.853        2.3507        0.0000        5.4402        5.4402       3.089514       0.01402
  34     5.035        2.3507        0.0000        5.4381        5.4381       3.087458       0.01469
  33     6.613        2.3507        0.0000        5.4353        5.4353       3.084676       0.01487
  32     8.786        2.3507        0.0000        5.4317        5.4317       3.081043       0.01411
  31     11.80        2.3507        0.0000        5.4269        5.4269       3.076260       0.01339
  30     15.07        2.3507        0.0000        5.4224        5.4224       3.071730       0.01170
  29     18.79        2.3507        0.0000        5.4180        5.4180       3.067312       0.01002
  28     23.16        2.3507        0.0000        5.4135        5.4135       3.062818       0.00869
  27     28.12        2.3507        0.0000        5.4088        5.4088       3.058158       0.00792
  26     33.73        2.3507        0.0000        5.4036        5.4036       3.052901       0.00790
  25     40.54        2.3507        0.0000        5.3966        5.3967       3.045934       0.00864
  24     48.69        2.3508        0.0000        5.3872        5.3872       3.036417       0.00985
  23     57.69        2.3508        0.0000        5.3754        5.3754       3.024579       0.01110
  22     68.43        2.3509        0.0000        5.3599        5.3599       3.009012       0.01224
  21     81.20        2.3510        0.0000        5.3401        5.3401       2.989067       0.01318
  20     96.49        2.3512        0.0000        5.3155        5.3155       2.964342       0.01365
  19     114.6        2.3514        0.0001        5.2853        5.2854       2.933928       0.01420
  18     136.5        2.3518        0.0001        5.2504        5.2505       2.898715       0.01354
  17     162.9        2.3522        0.0001        5.2111        5.2112       2.858932       0.01272
  16     196.4        2.3530        0.0001        5.1640        5.1641       2.811112       0.01204
  15     218.7        2.3538        0.0001        5.1331        5.1332       2.779426       0.01203
  14     243.0        2.3551        0.0001        5.0962        5.0963       2.741268       0.01323
  13     269.0        2.3570        0.0001        5.0511        5.0512       2.694185       0.01527
  12     297.5        2.3600        0.0001        4.9956        4.9957       2.635716       0.01734
  11     328.5        2.3642        0.0001        4.9304        4.9305       2.566296       0.01887
  10     361.9        2.3700        0.0002        4.8511        4.8513       2.481239       0.02152
   9     398.1        2.3781        0.0002        4.7507        4.7509       2.372789       0.02527
   8     437.6        2.3893        0.0002        4.6220        4.6222       2.232904       0.02991
   7     480.5        2.4050        0.0002        4.4625        4.4627       2.057644       0.03442
   6     533.0        2.4309        0.0002        4.2460        4.2463       1.815397       0.03897
   5     589.8        2.4707        0.0002        3.9954        3.9956       1.524954       0.04311
   4     651.6        2.5374        0.0002        3.7089        3.7091       1.171697       0.04831
   3     718.7        2.6500        0.0002        3.4018        3.4021       0.752041       0.05274
   2     792.3        2.8614        0.0002        3.0564        3.0567       0.195283       0.06385
   1     891.5        0.0486        0.0706        0.0000        0.0706       0.021952       0.01475
   0    1013.0        0.0521        0.0656        0.0000        0.0656       0.013506       0.00059



 Wavenumbers:  3250. -  4000. cm-1, ATM      1
 LEVEL PRESSURE   UPWARD FLUX   DIFDOWN FLUX  DIRDOWN FLUX  DOWNWARD FLUX   NET FLUX    HEATING RATE
          mb          W/m2          W/m2          W/m2        W/m2          W/m2       degree/day
  51    .06700        0.1055        0.0000        9.1795        9.1795       9.074026       0.00000
  50    .07753        0.1055        0.0000        9.1747        9.1747       9.069183       3.88148
  49    .09103        0.1055        0.0000        9.1713        9.1713       9.065795       2.11747
  48    0.1069        0.1055        0.0000        9.1688        9.1688       9.063270       1.34402
  47    0.1255        0.1055        0.0000        9.1665        9.1665       9.061011       1.02422
  46    0.1487        0.1055        0.0000        9.1641        9.1641       9.058570       0.88991
  45    0.1794        0.1055        0.0000        9.1612        9.1612       9.055692       0.79008
  44    0.2165        0.1055        0.0000        9.1583        9.1583       9.052771       0.66430
  43    0.2613        0.1055        0.0000        9.1553        9.1553       9.049798       0.56041
  42    0.3336        0.1055        0.0000        9.1511        9.1511       9.045619       0.48723
  41    0.4307        0.1055        0.0000        9.1464        9.1464       9.040851       0.41459
  40    0.5894        0.1055        0.0000        9.1393        9.1394       9.033846       0.37255
  39     1.339        0.1055        0.0000        9.1127        9.1127       9.007232       0.29962
  38     1.782        0.1055        0.0000        9.1011        9.1011       8.995644       0.22062
  37     2.292        0.1055        0.0000        9.0901        9.0901       8.984577       0.18329
  36     2.964        0.1055        0.0000        9.0776        9.0776       8.972147       0.15603
  35     3.853        0.1055        0.0000        9.0629        9.0629       8.957357       0.14036
  34     5.035        0.1055        0.0000        9.0441        9.0441       8.938618       0.13386
  33     6.613        0.1055        0.0000        9.0191        9.0191       8.913617       0.13366
  32     8.786        0.1055        0.0000        8.9843        8.9843       8.878833       0.13509
  31     11.80        0.1055        0.0000        8.9327        8.9327       8.827217       0.14451
  30     15.07        0.1055        0.0000        8.8758        8.8759       8.770372       0.14676
  29     18.79        0.1055        0.0000        8.8110        8.8110       8.705544       0.14698
  28     23.16        0.1055        0.0000        8.7365        8.7366       8.631100       0.14395
  27     28.12        0.1055        0.0000        8.6554        8.6555       8.549986       0.13789
  26     33.73        0.1055        0.0000        8.5719        8.5719       8.466487       0.12554
  25     40.54        0.1055        0.0001        8.4812        8.4812       8.375763       0.11255
  24     48.69        0.1054        0.0001        8.3838        8.3839       8.278461       0.10069
  23     57.69        0.1054        0.0001        8.2861        8.2862       8.180726       0.09161
  22     68.43        0.1054        0.0001        8.1751        8.1751       8.069729       0.08726
  21     81.20        0.1054        0.0001        8.0457        8.0458       7.940371       0.08548
  20     96.49        0.1054        0.0001        7.8949        7.8951       7.789667       0.08318
  19     114.6        0.1054        0.0001        7.7162        7.7163       7.610956       0.08345
  18     136.5        0.1053        0.0002        7.5193        7.5195       7.414111       0.07569
  17     162.9        0.1053        0.0002        7.2913        7.2915       7.186217       0.07284
  16     196.4        0.1053        0.0002        6.9660        6.9662       6.860936       0.08188
  15     218.7        0.1053        0.0002        6.6648        6.6650       6.559730       0.11436
  14     243.0        0.1053        0.0002        6.2619        6.2622       6.156891       0.13972
  13     269.0        0.1054        0.0003        5.7576        5.7579       5.652484       0.16363
  12     297.5        0.1056        0.0003        5.1719        5.1722       5.066562       0.17378
  11     328.5        0.1060        0.0003        4.5757        4.5760       4.470001       0.16220
  10     361.9        0.1066        0.0002        3.9995        3.9998       3.893161       0.14595
   9     398.1        0.1077        0.0002        3.4655        3.4657       3.358014       0.12468
   8     437.6        0.1095        0.0002        2.9740        2.9743       2.864753       0.10546
   7     480.5        0.1124        0.0002        2.5307        2.5309       2.418445       0.08765
   6     533.0        0.1181        0.0002        2.0614        2.0616       1.943486       0.07641
   5     589.8        0.1284        0.0002        1.6150        1.6151       1.486709       0.06780
   4     651.6        0.1501        0.0001        1.1565        1.1566       1.006531       0.06567
   3     718.7        0.1978        0.0001        0.7390        0.7391       0.541263       0.05847
   2     792.3        0.3266        0.0001        0.3985        0.3985       0.071916       0.05383
   1     891.5        0.0000        0.0000        0.0000        0.0000       0.000008       0.00612
   0    1013.0        0.0000        0.0000        0.0000        0.0000       0.000000       0.00000



 Wavenumbers:  4000. -  4650. cm-1, ATM      1
 LEVEL PRESSURE   UPWARD FLUX   DIFDOWN FLUX  DIRDOWN FLUX  DOWNWARD FLUX   NET FLUX    HEATING RATE
          mb          W/m2          W/m2          W/m2        W/m2          W/m2       degree/day
  51    .06700        7.4137        0.0000       10.7795       10.7795       3.365822       0.00000
  50    .07753        7.4137        0.0000       10.7795       10.7795       3.365821       0.00080
  49    .09103        7.4137        0.0000       10.7795       10.7795       3.365820       0.00078
  48    0.1069        7.4137        0.0000       10.7795       10.7795       3.365819       0.00077
  47    0.1255        7.4137        0.0000       10.7795       10.7795       3.365817       0.00075
  46    0.1487        7.4137        0.0000       10.7795       10.7795       3.365815       0.00076
  45    0.1794        7.4137        0.0000       10.7795       10.7795       3.365812       0.00078
  44    0.2165        7.4137        0.0000       10.7795       10.7795       3.365809       0.00076
  43    0.2613        7.4137        0.0000       10.7795       10.7795       3.365805       0.00075
  42    0.3336        7.4137        0.0000       10.7795       10.7795       3.365798       0.00077
  41    0.4307        7.4137        0.0000       10.7795       10.7795       3.365789       0.00078
  40    0.5894        7.4137        0.0000       10.7795       10.7795       3.365774       0.00080
  39     1.339        7.4137        0.0000       10.7794       10.7794       3.365684       0.00101
  38     1.782        7.4137        0.0000       10.7793       10.7793       3.365614       0.00133
  37     2.292        7.4137        0.0000       10.7792       10.7792       3.365520       0.00156
  36     2.964        7.4137        0.0000       10.7791       10.7791       3.365379       0.00177
  35     3.853        7.4137        0.0000       10.7789       10.7789       3.365170       0.00198
  34     5.035        7.4137        0.0000       10.7786       10.7786       3.364862       0.00220
  33     6.613        7.4137        0.0000       10.7781       10.7781       3.364408       0.00243
  32     8.786        7.4137        0.0000       10.7774       10.7775       3.363738       0.00260
  31     11.80        7.4137        0.0001       10.7763       10.7764       3.362684       0.00295
  30     15.07        7.4137        0.0001       10.7751       10.7752       3.361446       0.00320
  29     18.79        7.4137        0.0001       10.7736       10.7737       3.359948       0.00340
  28     23.16        7.4137        0.0001       10.7717       10.7718       3.358085       0.00360
  27     28.12        7.4138        0.0001       10.7695       10.7696       3.355828       0.00384
  26     33.73        7.4138        0.0002       10.7667       10.7668       3.353039       0.00419
  25     40.54        7.4139        0.0002       10.7629       10.7631       3.349251       0.00470
  24     48.69        7.4140        0.0003       10.7579       10.7582       3.344193       0.00523
  23     57.69        7.4141        0.0003       10.7520       10.7523       3.338183       0.00563
  22     68.43        7.4143        0.0004       10.7446       10.7450       3.330632       0.00594
  21     81.20        7.4146        0.0004       10.7355       10.7359       3.321305       0.00616
  20     96.49        7.4151        0.0005       10.7245       10.7250       3.309916       0.00629
  19     114.6        7.4157        0.0006       10.7107       10.7113       3.295619       0.00668
  18     136.5        7.4166        0.0007       10.6942       10.6949       3.278318       0.00665
  17     162.9        7.4179        0.0008       10.6740       10.6748       3.256993       0.00682
  16     196.4        7.4200        0.0010       10.6464       10.6474       3.227367       0.00746
  15     218.7        7.4219        0.0011       10.6255       10.6266       3.204695       0.00861
  14     243.0        7.4246        0.0012       10.5980       10.5993       3.174696       0.01040
  13     269.0        7.4286        0.0014       10.5611       10.5625       3.133883       0.01324
  12     297.5        7.4344        0.0015       10.5119       10.5134       3.079081       0.01625
  11     328.5        7.4423        0.0017       10.4499       10.4515       3.009227       0.01899
  10     361.9        7.4527        0.0018       10.3702       10.3720       2.919275       0.02276
   9     398.1        7.4659        0.0020       10.2678       10.2698       2.803892       0.02688
   8     437.6        7.4828        0.0022       10.1390       10.1412       2.658346       0.03112
   7     480.5        7.5047        0.0024        9.9877        9.9901       2.485310       0.03398
   6     533.0        7.5389        0.0026        9.7937        9.7963       2.257309       0.03668
   5     589.8        7.5893        0.0028        9.5752        9.5780       1.988711       0.03987
   4     651.6        7.6723        0.0030        9.2958        9.2988       1.626555       0.04953
   3     718.7        7.8163        0.0033        8.9267        8.9300       1.113686       0.06445
   2     792.3        8.1003        0.0035        8.4542        8.4577       0.357396       0.08674
   1     891.5        0.3200        0.4222        0.0000        0.4222       0.102169       0.02172
   0    1013.0        0.3272        0.4121        0.0000        0.4121       0.084892       0.00120



 Wavenumbers:  4650. -  5150. cm-1, ATM      1
 LEVEL PRESSURE   UPWARD FLUX   DIFDOWN FLUX  DIRDOWN FLUX  DOWNWARD FLUX   NET FLUX    HEATING RATE
          mb          W/m2          W/m2          W/m2        W/m2          W/m2       degree/day
  51    .06700        5.3738        0.0000       10.2033       10.2033       4.829525       0.00000
  50    .07753        5.3738        0.0000       10.2031       10.2031       4.829289       0.18901
  49    .09103        5.3738        0.0000       10.2028       10.2028       4.828994       0.18428
  48    0.1069        5.3738        0.0000       10.2025       10.2025       4.828657       0.17931
  47    0.1255        5.3738        0.0000       10.2021       10.2021       4.828273       0.17426
  46    0.1487        5.3738        0.0000       10.2016       10.2016       4.827792       0.17536
  45    0.1794        5.3738        0.0000       10.2010       10.2010       4.827141       0.17850
  44    0.2165        5.3738        0.0000       10.2002       10.2002       4.826382       0.17277
  43    0.2613        5.3738        0.0000       10.1993       10.1993       4.825496       0.16690
  42    0.3336        5.3738        0.0000       10.1979       10.1979       4.824064       0.16702
  41    0.4307        5.3738        0.0000       10.1960       10.1960       4.822223       0.16003
  40    0.5894        5.3738        0.0000       10.1932       10.1932       4.819349       0.15283
  39     1.339        5.3738        0.0000       10.1816       10.1816       4.807757       0.13051
  38     1.782        5.3738        0.0000       10.1760       10.1760       4.802227       0.10527
  37     2.292        5.3738        0.0000       10.1706       10.1706       4.796770       0.09039
  36     2.964        5.3738        0.0000       10.1646       10.1647       4.790845       0.07438
  35     3.853        5.3738        0.0000       10.1584       10.1584       4.784627       0.05900
  34     5.035        5.3738        0.0000       10.1521       10.1521       4.778287       0.04530
  33     6.613        5.3738        0.0000       10.1456       10.1456       4.771820       0.03457
  32     8.786        5.3738        0.0001       10.1386       10.1386       4.764794       0.02729
  31     11.80        5.3739        0.0001       10.1295       10.1296       4.755725       0.02539
  30     15.07        5.3739        0.0001       10.1196       10.1197       4.745806       0.02561
  29     18.79        5.3740        0.0001       10.1076       10.1077       4.733743       0.02735
  28     23.16        5.3741        0.0002       10.0923       10.0924       4.718359       0.02975
  27     28.12        5.3742        0.0002       10.0731       10.0734       4.699157       0.03264
  26     33.73        5.3744        0.0002       10.0500       10.0503       4.675918       0.03494
  25     40.54        5.3746        0.0003       10.0201       10.0204       4.645810       0.03735
  24     48.69        5.3750        0.0004        9.9820        9.9823       4.607347       0.03980
  23     57.69        5.3754        0.0004        9.9384        9.9389       4.563434       0.04116
  22     68.43        5.3761        0.0005        9.8858        9.8863       4.510186       0.04186
  21     81.20        5.3770        0.0006        9.8234        9.8240       4.447081       0.04170
  20     96.49        5.3782        0.0007        9.7518        9.7525       4.374278       0.04018
  19     114.6        5.3799        0.0008        9.6719        9.6727       4.292871       0.03801
  18     136.5        5.3822        0.0010        9.5858        9.5868       4.204567       0.03396
  17     162.9        5.3854        0.0012        9.4940        9.4952       4.109747       0.03031
  16     196.4        5.3904        0.0014        9.3883        9.3897       3.999239       0.02782
  15     218.7        5.3943        0.0015        9.3229        9.3244       3.930128       0.02624
  14     243.0        5.3993        0.0017        9.2520        9.2537       3.854317       0.02629
  13     269.0        5.4061        0.0019        9.1717        9.1735       3.767452       0.02818
  12     297.5        5.4154        0.0020        9.0763        9.0783       3.662917       0.03100
  11     328.5        5.4275        0.0022        8.9650        8.9672       3.539653       0.03352
  10     361.9        5.4432        0.0024        8.8349        8.8374       3.394139       0.03682
   9     398.1        5.4636        0.0026        8.6820        8.6847       3.221090       0.04032
   8     437.6        5.4901        0.0029        8.5028        8.5057       3.015578       0.04394
   7     480.5        5.5247        0.0031        8.2948        8.2979       2.773237       0.04759
   6     533.0        5.5776        0.0033        8.0209        8.0242       2.446624       0.05254
   5     589.8        5.6516        0.0036        7.7063        7.7099       2.058317       0.05764
   4     651.6        5.7621        0.0038        7.3412        7.3451       1.583028       0.06500
   3     718.7        5.9315        0.0041        6.9387        6.9427       1.011262       0.07186
   2     792.3        6.2095        0.0043        6.5066        6.5109       0.301387       0.08141
   1     891.5        0.2032        0.2721        0.0000        0.2721       0.068940       0.01978
   0    1013.0        0.2093        0.2636        0.0000        0.2636       0.054298       0.00102



 Wavenumbers:  5150. -  6150. cm-1, ATM      1
 LEVEL PRESSURE   UPWARD FLUX   DIFDOWN FLUX  DIRDOWN FLUX  DOWNWARD FLUX   NET FLUX    HEATING RATE
          mb          W/m2          W/m2          W/m2        W/m2          W/m2       degree/day
  51    .06700       12.6614        0.0000       25.5798       25.5798      12.918420       0.00000
  50    .07753       12.6614        0.0000       25.5798       25.5798      12.918380       0.03164
  49    .09103       12.6614        0.0000       25.5797       25.5797      12.918329       0.03212
  48    0.1069       12.6614        0.0000       25.5797       25.5797      12.918268       0.03263
  47    0.1255       12.6614        0.0000       25.5796       25.5796      12.918194       0.03313
  46    0.1487       12.6614        0.0000       25.5795       25.5795      12.918099       0.03490
  45    0.1794       12.6614        0.0000       25.5794       25.5794      12.917963       0.03715
  44    0.2165       12.6614        0.0000       25.5792       25.5792      12.917798       0.03771
  43    0.2613       12.6614        0.0000       25.5790       25.5790      12.917594       0.03829
  42    0.3336       12.6614        0.0000       25.5786       25.5786      12.917248       0.04045
  41    0.4307       12.6614        0.0000       25.5782       25.5782      12.916776       0.04099
  40    0.5894       12.6614        0.0000       25.5774       25.5774      12.915986       0.04200
  39     1.339       12.6614        0.0000       25.5735       25.5736      12.912180       0.04285
  38     1.782       12.6614        0.0001       25.5713       25.5714      12.909963       0.04221
  37     2.292       12.6614        0.0001       25.5688       25.5689      12.907453       0.04157
  36     2.964       12.6614        0.0001       25.5656       25.5657      12.904263       0.04004
  35     3.853       12.6614        0.0001       25.5615       25.5616      12.900207       0.03849
  34     5.035       12.6614        0.0002       25.5562       25.5564      12.894981       0.03733
  33     6.613       12.6614        0.0002       25.5494       25.5496      12.888199       0.03626
  32     8.786       12.6615        0.0003       25.5406       25.5409      12.879406       0.03415
  31     11.80       12.6616        0.0004       25.5287       25.5291      12.867504       0.03332
  30     15.07       12.6616        0.0005       25.5167       25.5172      12.855557       0.03084
  29     18.79       12.6617        0.0006       25.5042       25.5048      12.843055       0.02835
  28     23.16       12.6619        0.0008       25.4907       25.4914      12.829572       0.02607
  27     28.12       12.6620        0.0009       25.4764       25.4774      12.815336       0.02420
  26     33.73       12.6623        0.0011       25.4620       25.4631      12.800877       0.02174
  25     40.54       12.6626        0.0013       25.4463       25.4476      12.785017       0.01968
  24     48.69       12.6630        0.0016       25.4294       25.4310      12.767966       0.01765
  23     57.69       12.6635        0.0019       25.4126       25.4145      12.750968       0.01593
  22     68.43       12.6642        0.0023       25.3944       25.3967      12.732439       0.01457
  21     81.20       12.6651        0.0027       25.3744       25.3771      12.711974       0.01352
  20     96.49       12.6662        0.0032       25.3519       25.3551      12.688903       0.01273
  19     114.6       12.6676        0.0038       25.3262       25.3299      12.662382       0.01238
  18     136.5       12.6692        0.0045       25.2962       25.3007      12.631453       0.01189
  17     162.9       12.6713        0.0053       25.2521       25.2574      12.586137       0.01448
  16     196.4       12.6741        0.0064       25.1593       25.1657      12.491583       0.02380
  15     218.7       12.6762        0.0071       25.0159       25.0230      12.346875       0.05494
  14     243.0       12.6787        0.0078       24.7089       24.7167      12.038070       0.10710
  13     269.0       12.6819        0.0085       24.1619       24.1704      11.488511       0.17827
  12     297.5       12.6862        0.0093       23.4544       23.4636      10.777391       0.21091
  11     328.5       12.6920        0.0100       22.7355       22.7455      10.053496       0.19682
  10     361.9       12.6995        0.0107       21.9224       21.9332       9.233632       0.20743
   9     398.1       12.7097        0.0115       20.9939       21.0054       8.295636       0.21853
   8     437.6       12.7240        0.0122       19.9833       19.9955       7.271510       0.21896
   7     480.5       12.7438        0.0129       18.9483       18.9612       6.217340       0.20703
   6     533.0       12.7777        0.0137       17.7796       17.7933       5.015582       0.19332
   5     589.8       12.8329        0.0145       16.6726       16.6870       3.854149       0.17239
   4     651.6       12.9348        0.0153       15.6343       15.6496       2.714811       0.15581
   3     718.7       13.1239        0.0162       14.7738       14.7900       1.666135       0.13179
   2     792.3       13.5137        0.0172       14.0291       14.0463       0.532626       0.13000
   1     891.5        0.6435        0.8349        0.0000        0.8349       0.191358       0.02904
   0    1013.0        0.6528        0.8222        0.0000        0.8222       0.169373       0.00153



 Wavenumbers:  6150. -  7700. cm-1, ATM      1
 LEVEL PRESSURE   UPWARD FLUX   DIFDOWN FLUX  DIRDOWN FLUX  DOWNWARD FLUX   NET FLUX    HEATING RATE
          mb          W/m2          W/m2          W/m2        W/m2          W/m2       degree/day
  51    .06700       20.5276        0.0000       47.3109       47.3109      26.783307       0.00000
  50    .07753       20.5276        0.0000       47.3108       47.3108      26.783251       0.04553
  49    .09103       20.5276        0.0000       47.3107       47.3107      26.783177       0.04583
  48    0.1069       20.5275        0.0000       47.3106       47.3106      26.783091       0.04614
  47    0.1255       20.5275        0.0000       47.3105       47.3105      26.782988       0.04645
  46    0.1487       20.5275        0.0000       47.3104       47.3104      26.782855       0.04852
  45    0.1794       20.5275        0.0000       47.3102       47.3102      26.782668       0.05127
  44    0.2165       20.5275        0.0000       47.3100       47.3100      26.782441       0.05167
  43    0.2613       20.5275        0.0000       47.3097       47.3097      26.782165       0.05210
  42    0.3336       20.5275        0.0000       47.3092       47.3092      26.781696       0.05471
  41    0.4307       20.5275        0.0000       47.3085       47.3086      26.781061       0.05521
  40    0.5894       20.5275        0.0001       47.3074       47.3075      26.780001       0.05634
  39     1.339       20.5275        0.0002       47.3022       47.3024      26.774909       0.05733
  38     1.782       20.5274        0.0002       47.2991       47.2994      26.771939       0.05655
  37     2.292       20.5274        0.0003       47.2956       47.2960      26.768563       0.05591
  36     2.964       20.5273        0.0004       47.2912       47.2916      26.764245       0.05421
  35     3.853       20.5273        0.0005       47.2855       47.2860      26.758710       0.05252
  34     5.035       20.5272        0.0007       47.2780       47.2787      26.751529       0.05130
  33     6.613       20.5271        0.0009       47.2683       47.2692      26.742141       0.05019
  32     8.786       20.5269        0.0012       47.2556       47.2568      26.729841       0.04777
  31     11.80       20.5267        0.0016       47.2380       47.2396      26.712937       0.04733
  30     15.07       20.5265        0.0020       47.2201       47.2221      26.695648       0.04464
  29     18.79       20.5262        0.0025       47.2008       47.2034      26.677167       0.04190
  28     23.16       20.5259        0.0031       47.1795       47.1827      26.656775       0.03943
  27     28.12       20.5255        0.0038       47.1565       47.1603      26.634778       0.03739
  26     33.73       20.5251        0.0046       47.1324       47.1370      26.611853       0.03447
  25     40.54       20.5246        0.0055       47.1054       47.1108      26.586211       0.03181
  24     48.69       20.5241        0.0066       47.0754       47.0820      26.557951       0.02924
  23     57.69       20.5234        0.0078       47.0449       47.0527      26.529320       0.02684
  22     68.43       20.5227        0.0092       47.0110       47.0202      26.497572       0.02496
  21     81.20       20.5218        0.0110       46.9729       46.9838      26.462062       0.02346
  20     96.49       20.5207        0.0130       46.9294       46.9424      26.421700       0.02228
  19     114.6       20.5194        0.0155       46.8790       46.8945      26.375034       0.02179
  18     136.5       20.5180        0.0184       46.8200       46.8383      26.320365       0.02102
  17     162.9       20.5163        0.0218       46.7361       46.7579      26.241659       0.02516
  16     196.4       20.5143        0.0263       46.5703       46.5965      26.082250       0.04013
  15     218.7       20.5132        0.0291       46.3473       46.3764      25.863221       0.08316
  14     243.0       20.5126        0.0322       45.9299       45.9620      25.449436       0.14351
  13     269.0       20.5130        0.0352       45.1708       45.2060      24.692965       0.24540
  12     297.5       20.5156        0.0382       44.0115       44.0497      23.534079       0.34371
  11     328.5       20.5211        0.0413       42.7242       42.7655      22.244448       0.35065
  10     361.9       20.5309        0.0444       41.3539       41.3984      20.867489       0.34838
   9     398.1       20.5475        0.0475       39.7953       39.8428      19.295321       0.36628
   8     437.6       20.5751        0.0505       37.9948       38.0453      17.470166       0.39023
   7     480.5       20.6189        0.0534       36.0647       36.1181      15.499147       0.38710
   6     533.0       20.7010        0.0565       33.7773       33.8338      13.132743       0.38068
   5     589.8       20.8441        0.0594       31.4082       31.4675      10.623427       0.37246
   4     651.6       21.1218        0.0618       28.8834       28.9452       7.823350       0.38292
   3     718.7       21.6616        0.0640       26.4104       26.4743       4.812703       0.37835
   2     792.3       22.8541        0.0658       24.0056       24.0714       1.217363       0.41235
   1     891.5        0.8807        1.1521        0.0000        1.1521       0.271339       0.08050
   0    1013.0        0.8965        1.1291        0.0000        1.1291       0.232589       0.00269



 Wavenumbers:  7700. -  8050. cm-1, ATM      1
 LEVEL PRESSURE   UPWARD FLUX   DIFDOWN FLUX  DIRDOWN FLUX  DOWNWARD FLUX   NET FLUX    HEATING RATE
          mb          W/m2          W/m2          W/m2        W/m2          W/m2       degree/day
  51    .06700        9.1822        0.0000       11.1810       11.1810       1.998809       0.00000
  50    .07753        9.1822        0.0000       11.1809       11.1809       1.998785       0.01950
  49    .09103        9.1822        0.0000       11.1809       11.1809       1.998754       0.01911
  48    0.1069        9.1822        0.0000       11.1809       11.1809       1.998719       0.01871
  47    0.1255        9.1822        0.0000       11.1809       11.1809       1.998678       0.01831
  46    0.1487        9.1822        0.0000       11.1808       11.1808       1.998628       0.01858
  45    0.1794        9.1822        0.0000       11.1808       11.1808       1.998558       0.01912
  44    0.2165        9.1822        0.0000       11.1807       11.1807       1.998475       0.01875
  43    0.2613        9.1823        0.0000       11.1806       11.1806       1.998378       0.01840
  42    0.3336        9.1823        0.0000       11.1805       11.1805       1.998216       0.01883
  41    0.4307        9.1824        0.0000       11.1803       11.1804       1.998002       0.01863
  40    0.5894        9.1825        0.0000       11.1801       11.1801       1.997652       0.01861
  39     1.339        9.1829        0.0001       11.1788       11.1789       1.995997       0.01864
  38     1.782        9.1832        0.0001       11.1781       11.1782       1.995024       0.01851
  37     2.292        9.1835        0.0001       11.1772       11.1773       1.993899       0.01864
  36     2.964        9.1838        0.0002       11.1761       11.1763       1.992421       0.01856
  35     3.853        9.1844        0.0002       11.1746       11.1748       1.990468       0.01853
  34     5.035        9.1850        0.0003       11.1726       11.1729       1.987874       0.01853
  33     6.613        9.1860        0.0004       11.1700       11.1704       1.984408       0.01853
  32     8.786        9.1872        0.0006       11.1664       11.1669       1.979738       0.01814
  31     11.80        9.1890        0.0007       11.1613       11.1620       1.973060       0.01870
  30     15.07        9.1909        0.0010       11.1558       11.1568       1.965893       0.01850
  29     18.79        9.1931        0.0012       11.1497       11.1509       1.957802       0.01835
  28     23.16        9.1956        0.0015       11.1425       11.1440       1.948358       0.01826
  27     28.12        9.1985        0.0018       11.1343       11.1361       1.937569       0.01834
  26     33.73        9.2018        0.0021       11.1252       11.1273       1.925510       0.01813
  25     40.54        9.2058        0.0025       11.1142       11.1167       1.910963       0.01805
  24     48.69        9.2106        0.0031       11.1010       11.1041       1.893461       0.01811
  23     57.69        9.2159        0.0036       11.0866       11.0902       1.874280       0.01798
  22     68.43        9.2223        0.0043       11.0695       11.0738       1.851497       0.01791
  21     81.20        9.2300        0.0051       11.0494       11.0545       1.824446       0.01788
  20     96.49        9.2392        0.0060       11.0255       11.0316       1.792339       0.01772
  19     114.6        9.2503        0.0072       10.9975       11.0047       1.754395       0.01772
  18     136.5        9.2636        0.0085       10.9648       10.9733       1.709661       0.01720
  17     162.9        9.2797        0.0101       10.9263       10.9364       1.656707       0.01693
  16     196.4        9.3009        0.0122       10.8773       10.8894       1.588503       0.01717
  15     218.7        9.3151        0.0135       10.8455       10.8591       1.543941       0.01692
  14     243.0        9.3308        0.0150       10.8114       10.8264       1.495634       0.01675
  13     269.0        9.3481        0.0166       10.7749       10.7915       1.443345       0.01696
  12     297.5        9.3673        0.0183       10.7357       10.7540       1.386753       0.01678
  11     328.5        9.3885        0.0202       10.6937       10.7139       1.325428       0.01667
  10     361.9        9.4120        0.0222       10.6489       10.6710       1.259028       0.01680
   9     398.1        9.4382        0.0243       10.6008       10.6251       1.186877       0.01681
   8     437.6        9.4676        0.0266       10.5491       10.5757       1.108132       0.01684
   7     480.5        9.5005        0.0291       10.4934       10.5225       1.021992       0.01692
   6     533.0        9.5436        0.0321       10.4243       10.4564       0.912864       0.01756
   5     589.8        9.5937        0.0354       10.3479       10.3833       0.789572       0.01830
   4     651.6        9.6540        0.0389       10.2613       10.3003       0.646263       0.01960
   3     718.7        9.7280        0.0427       10.1618       10.2044       0.476440       0.02134
   2     792.3        9.8223        0.0466       10.0439       10.0905       0.268226       0.02388
   1     891.5        0.4871        0.6374        0.0000        0.6374       0.150255       0.01004
   0    1013.0        0.4964        0.6252        0.0000        0.6252       0.128799       0.00149



 Wavenumbers:  8050. - 12850. cm-1, ATM      1
 LEVEL PRESSURE   UPWARD FLUX   DIFDOWN FLUX  DIRDOWN FLUX  DOWNWARD FLUX   NET FLUX    HEATING RATE
          mb          W/m2          W/m2          W/m2        W/m2          W/m2       degree/day
  51    .06700      121.0858        0.0000      156.5418      156.5418      35.455989       0.00000
  50    .07753      121.0858        0.0000      156.5417      156.5417      35.455989       0.00000
  49    .09103      121.0857        0.0001      156.5417      156.5417      35.455989      -0.00000
  48    0.1069      121.0857        0.0001      156.5416      156.5417      35.455989      -0.00000
  47    0.1255      121.0857        0.0002      156.5415      156.5417      35.455989      -0.00000
  46    0.1487      121.0857        0.0003      156.5414      156.5417      35.455989       0.00000
  45    0.1794      121.0857        0.0003      156.5413      156.5417      35.455989       0.00000
  44    0.2165      121.0856        0.0005      156.5412      156.5416      35.455989      -0.00000
  43    0.2613      121.0856        0.0006      156.5410      156.5416      35.455989      -0.00000
  42    0.3336      121.0855        0.0008      156.5407      156.5415      35.455989       0.00000
  41    0.4307      121.0854        0.0011      156.5403      156.5414      35.455989       0.00000
  40    0.5894      121.0853        0.0016      156.5397      156.5413      35.455989       0.00000
  39     1.339      121.0846        0.0039      156.5367      156.5406      35.455989      -0.00000
  38     1.782      121.0843        0.0053      156.5350      156.5402      35.455989      -0.00000
  37     2.292      121.0838        0.0068      156.5330      156.5398      35.455989       0.00000
  36     2.964      121.0832        0.0089      156.5303      156.5392      35.455989      -0.00000
  35     3.853      121.0824        0.0116      156.5268      156.5384      35.455989       0.00000
  34     5.035      121.0814        0.0152      156.5222      156.5374      35.455989      -0.00000
  33     6.613      121.0800        0.0200      156.5160      156.5360      35.455989       0.00000
  32     8.786      121.0782        0.0265      156.5076      156.5342      35.455989      -0.00000
  31     11.80      121.0755        0.0358      156.4957      156.5315      35.455989       0.00000
  30     15.07      121.0727        0.0459      156.4828      156.5286      35.455989      -0.00000
  29     18.79      121.0694        0.0572      156.4682      156.5254      35.455989      -0.00000
  28     23.16      121.0656        0.0704      156.4512      156.5216      35.455989      -0.00000
  27     28.12      121.0613        0.0856      156.4317      156.5173      35.455989       0.00000
  26     33.73      121.0564        0.1026      156.4099      156.5124      35.455989       0.00000
  25     40.54      121.0506        0.1231      156.3834      156.5066      35.455989       0.00000
  24     48.69      121.0435        0.1479      156.3515      156.4995      35.455989      -0.00000
  23     57.69      121.0357        0.1752      156.3164      156.4917      35.455989       0.00000
  22     68.43      121.0264        0.2078      156.2746      156.4824      35.455989      -0.00000
  21     81.20      121.0152        0.2467      156.2246      156.4712      35.455989       0.00000
  20     96.49      121.0020        0.2930      156.1649      156.4580      35.455989       0.00000
  19     114.6      120.9865        0.3482      156.0879      156.4362      35.449671       0.00295
  18     136.5      120.9681        0.4138      155.9962      156.4099      35.441839       0.00301
  17     162.9      120.9462        0.4920      155.8831      156.3750      35.428867       0.00415
  16     196.4      120.9179        0.5937      155.7199      156.3136      35.395723       0.00834
  15     218.7      120.9000        0.6606      155.5733      156.2339      35.333959       0.02345
  14     243.0      120.8820        0.7333      155.3367      156.0700      35.188028       0.05061
  13     269.0      120.8663        0.8120      154.9514      155.7635      34.897202       0.09434
  12     297.5      120.8565        0.8968      154.3896      155.2864      34.429972       0.13858
  11     328.5      120.8550        0.9882      153.7151      154.7033      33.848314       0.15815
  10     361.9      120.8670        1.0864      152.9087      153.9951      33.128136       0.18221
   9     398.1      120.9008        1.1915      151.8986      153.0901      32.189249       0.21874
   8     437.6      120.9709        1.3033      150.6031      151.9064      30.935540       0.26805
   7     480.5      121.0948        1.4216      149.0014      150.4230      29.328181       0.31568
   6     533.0      121.3403        1.5649      146.7375      148.3024      26.962101       0.38063
   5     589.8      121.7791        1.7152      143.8730      145.5882      23.809073       0.46801
   4     651.6      122.6282        1.8695      140.0955      141.9650      19.336804       0.61159
   3     718.7      124.2202        2.0261      135.5278      137.5539      13.333689       0.75443
   2     792.3      127.4269        2.1811      130.0690      132.2501       4.823237       0.97605
   1     891.5        5.9910        7.7826        0.0000        7.7826       1.791691       0.25797
   0    1013.0        6.0787        7.6558        0.0000        7.6558       1.577105       0.01490



 Wavenumbers: 12850. - 16000. cm-1, ATM      1
 LEVEL PRESSURE   UPWARD FLUX   DIFDOWN FLUX  DIRDOWN FLUX  DOWNWARD FLUX   NET FLUX    HEATING RATE
          mb          W/m2          W/m2          W/m2        W/m2          W/m2       degree/day
  51    .06700       84.5723        0.0000       98.0872       98.0872      13.514978       0.00000
  50    .07753       84.5723        0.0001       98.0864       98.0864      13.514184       0.63646
  49    .09103       84.5723        0.0002       98.0853       98.0855      13.513186       0.62365
  48    0.1069       84.5723        0.0003       98.0841       98.0843      13.512039       0.61064
  47    0.1255       84.5723        0.0004       98.0826       98.0830      13.510720       0.59797
  46    0.1487       84.5723        0.0005       98.0809       98.0814      13.509054       0.60729
  45    0.1794       84.5724        0.0007       98.0784       98.0792      13.506786       0.62274
  44    0.2165       84.5725        0.0010       98.0756       98.0766      13.504114       0.60765
  43    0.2613       84.5727        0.0013       98.0723       98.0736      13.500969       0.59285
  42    0.3336       84.5730        0.0018       98.0670       98.0688      13.495828       0.59939
  41    0.4307       84.5734        0.0024       98.0602       98.0626      13.489169       0.57905
  40    0.5894       84.5744        0.0035       98.0496       98.0530      13.478647       0.55950
  39     1.339       84.5822        0.0084       98.0043       98.0127      13.430536       0.54165
  38     1.782       84.5892        0.0113       97.9793       97.9906      13.401368       0.55531
  37     2.292       84.5996        0.0147       97.9498       97.9644      13.364846       0.60491
  36     2.964       84.6167        0.0191       97.9088       97.9279      13.311206       0.67334
  35     3.853       84.6441        0.0249       97.8503       97.8752      13.231103       0.76019
  34     5.035       84.6854        0.0326       97.7680       97.8006      13.115225       0.82779
  33     6.613       84.7429        0.0429       97.6562       97.6991      12.956178       0.85027
  32     8.786       84.8179        0.0568       97.5107       97.5675      12.749563       0.80242
  31     11.80       84.9157        0.0767       97.3179       97.3945      12.478824       0.75798
  30     15.07       85.0096        0.0980       97.1283       97.2263      12.216683       0.67680
  29     18.79       85.1058        0.1220       96.9300       97.0521      11.946295       0.61305
  28     23.16       85.2066        0.1501       96.7166       96.8667      11.660118       0.55337
  27     28.12       85.3084        0.1822       96.4935       96.6757      11.367274       0.49781
  26     33.73       85.4032        0.2181       96.2731       96.4912      11.088011       0.41988
  25     40.54       85.4955        0.2615       96.0408       96.3023      10.806807       0.34887
  24     48.69       85.5851        0.3138       95.7946       96.1084      10.523238       0.29345
  23     57.69       85.6628        0.3713       95.5573       95.9286      10.265759       0.24135
  22     68.43       85.7328        0.4398       95.3106       95.7504      10.017636       0.19506
  21     81.20       85.7852        0.5215       95.0643       95.5859       9.800648       0.14338
  20     96.49       85.8192        0.6191       94.8153       95.4344       9.615112       0.10240
  19     114.6       85.8561        0.7359       94.5411       95.2770       9.420836       0.09071
  18     136.5       85.8881        0.8744       94.2320       95.1065       9.218309       0.07788
  17     162.9       85.9157        1.0393       93.8753       94.9147       8.998965       0.07011
  16     196.4       85.9288        1.2533       93.4347       94.6880       8.759184       0.06036
  15     218.7       85.9295        1.3938       93.1513       94.5451       8.615576       0.05452
  14     243.0       85.9274        1.5465       92.8439       94.3905       8.463109       0.05288
  13     269.0       85.9226        1.7120       92.5111       94.2232       8.300560       0.05273
  12     297.5       85.9163        1.8909       92.1495       94.0404       8.124060       0.05235
  11     328.5       85.9111        2.0842       91.7554       93.8395       7.928475       0.05318
  10     361.9       85.9085        2.2922       91.3262       93.6184       7.709935       0.05529
   9     398.1       85.9110        2.5161       90.8575       93.3736       7.462597       0.05762
   8     437.6       85.9232        2.7563       90.3418       93.0981       7.174903       0.06151
   7     480.5       85.9498        3.0136       89.7728       92.7864       6.836575       0.06645
   6     533.0       86.0080        3.3298       89.0428       92.3726       6.364583       0.07593
   5     589.8       86.1172        3.6695       88.2038       91.8733       5.756110       0.09032
   4     651.6       86.3275        4.0320       87.1979       91.2299       4.902400       0.11675
   3     718.7       86.6806        4.4161       86.0161       90.4322       3.751601       0.14462
   2     792.3       87.2967        4.8178       84.5970       89.4149       2.118195       0.18733
   1     891.5       10.8585       12.1529        0.0000       12.1529       1.294415       0.07010
   0    1013.0       10.9327       12.0576        0.0000       12.0576       1.124977       0.01176



 Wavenumbers: 16000. - 22650. cm-1, ATM      1
 LEVEL PRESSURE   UPWARD FLUX   DIFDOWN FLUX  DIRDOWN FLUX  DOWNWARD FLUX   NET FLUX    HEATING RATE
          mb          W/m2          W/m2          W/m2        W/m2          W/m2       degree/day
  51    .06700      141.6321        0.0000      156.3892      156.3892      14.757130       0.00000
  50    .07753      141.6321        0.0004      156.3887      156.3891      14.756982       0.11877
  49    .09103      141.6321        0.0009      156.3879      156.3888      14.756766       0.13471
  48    0.1069      141.6321        0.0015      156.3871      156.3885      14.756478       0.15362
  47    0.1255      141.6321        0.0021      156.3861      156.3882      14.756092       0.17510
  46    0.1487      141.6322        0.0030      156.3847      156.3877      14.755522       0.20750
  45    0.1794      141.6323        0.0041      156.3828      156.3869      14.754632       0.24431
  44    0.2165      141.6325        0.0054      156.3805      156.3859      14.753425       0.27458
  43    0.2613      141.6329        0.0070      156.3776      156.3847      14.751788       0.30869
  42    0.3336      141.6336        0.0097      156.3726      156.3823      14.748674       0.36302
  41    0.4307      141.6349        0.0132      156.3657      156.3789      14.743981       0.40807
  40    0.5894      141.6375        0.0189      156.3537      156.3726      14.735030       0.47600
  39     1.339      141.6604        0.0459      156.2834      156.3293      14.668900       0.74451
  38     1.782      141.6816        0.0618      156.2324      156.2941      14.612565       1.07253
  37     2.292      141.7132        0.0801      156.1641      156.2442      14.531019       1.35061
  36     2.964      141.7658        0.1042      156.0605      156.1647      14.398914       1.65832
  35     3.853      141.8508        0.1360      155.9041      156.0401      14.189293       1.98934
  34     5.035      141.9791        0.1783      155.6774      155.8556      13.876554       2.23408
  33     6.613      142.1583        0.2346      155.3656      155.6002      13.441932       2.32349
  32     8.786      142.3917        0.3104      154.9577      155.2681      12.876382       2.19639
  31     11.80      142.6956        0.4188      154.4153      154.8340      12.138471       2.06592
  30     15.07      142.9867        0.5349      153.8804      154.4153      11.428609       1.83273
  29     18.79      143.2839        0.6659      153.3191      153.9850      10.701050       1.64960
  28     23.16      143.5947        0.8187      152.7126      153.5312       9.936555       1.47829
  27     28.12      143.9074        0.9931      152.0755      153.0686       9.161211       1.31803
  26     33.73      144.1962        1.1881      151.4409      152.6291       8.432912       1.09502
  25     40.54      144.4742        1.4236      150.7637      152.1873       7.713074       0.89304
  24     48.69      144.7405        1.7071      150.0338      151.7409       7.000405       0.73750
  23     57.69      144.9666        2.0182      149.3151      151.3333       6.366755       0.59395
  22     68.43      145.1640        2.3883      148.5476      150.9359       5.771911       0.46763
  21     81.20      145.3007        2.8289      147.7517      150.5806       5.279824       0.32516
  20     96.49      145.3725        3.3535      146.9127      150.2661       4.893652       0.21314
  19     114.6      145.4104        3.9745      145.9763      149.9508       4.540384       0.16495
  18     136.5      145.4237        4.7078      144.9088      149.6166       4.192854       0.13363
  17     162.9      145.4108        5.5770      143.6785      149.2555       3.844721       0.11128
  16     196.4      145.3319        6.6985      142.1651      148.8635       3.531602       0.07882
  15     218.7      145.2574        7.4314      141.2033      148.6347       3.377332       0.05857
  14     243.0      145.1660        8.2246      140.1753      148.4000       3.234018       0.04971
  13     269.0      145.0561        9.0804      139.0797      148.1601       3.104048       0.04216
  12     297.5      144.9271       10.0008      137.9141      147.9149       2.987759       0.03449
  11     328.5      144.7832       10.9901      136.6676      147.6577       2.874447       0.03081
  10     361.9      144.6242       12.0492      135.3392      147.3884       2.764213       0.02789
   9     398.1      144.4496       13.1822      133.9235      147.1057       2.656086       0.02519
   8     437.6      144.2605       14.3910      132.4163      146.8073       2.546795       0.02337
   7     480.5      144.0567       15.6780      130.8147      146.4927       2.435931       0.02177
   6     533.0      143.8067       17.2498      128.8599      146.1098       2.303051       0.02138
   5     589.8      143.5424       18.9294      126.7679      145.6973       2.154859       0.02200
   4     651.6      143.2716       20.7181      124.5274      145.2456       1.973955       0.02474
   3     718.7      143.0018       22.6179      122.1285      144.7463       1.744549       0.02883
   2     792.3      142.7526       24.6264      119.5548      144.1812       1.428659       0.03623
   1     891.5       72.1077       73.2445        0.0000       73.2445       1.136823       0.02483
   0    1013.0       72.1983       73.1271        0.0000       73.1271       0.928714       0.01445



 Wavenumbers: 22650. - 29000. cm-1, ATM      1
 LEVEL PRESSURE   UPWARD FLUX   DIFDOWN FLUX  DIRDOWN FLUX  DOWNWARD FLUX   NET FLUX    HEATING RATE
          mb          W/m2          W/m2          W/m2        W/m2          W/m2       degree/day
  51    .06700       58.5957        0.0000       59.0156       59.0156       0.419919       0.00000
  50    .07753       58.5956        0.0005       59.0151       59.0155       0.419919      -0.00000
  49    .09103       58.5955        0.0010       59.0144       59.0154       0.419919       0.00000
  48    0.1069       58.5954        0.0017       59.0136       59.0153       0.419919       0.00000
  47    0.1255       58.5952        0.0025       59.0127       59.0151       0.419919      -0.00000
  46    0.1487       58.5950        0.0034       59.0115       59.0149       0.419919       0.00000
  45    0.1794       58.5948        0.0048       59.0099       59.0147       0.419919      -0.00000
  44    0.2165       58.5945        0.0063       59.0080       59.0144       0.419919       0.00000
  43    0.2613       58.5941        0.0082       59.0058       59.0140       0.419919       0.00000
  42    0.3336       58.5935        0.0113       59.0022       59.0134       0.419919      -0.00000
  41    0.4307       58.5927        0.0153       58.9973       59.0126       0.419919       0.00000
  40    0.5894       58.5914        0.0220       58.9894       59.0114       0.419919      -0.00000
  39     1.339       58.5854        0.0535       58.9518       59.0053       0.419919       0.00000
  38     1.782       58.5818        0.0720       58.9297       59.0017       0.419919       0.00000
  37     2.292       58.5776        0.0934       58.9042       58.9976       0.419919       0.00000
  36     2.964       58.5722        0.1215       58.8706       58.9921       0.419919      -0.00000
  35     3.853       58.5650        0.1586       58.8264       58.9850       0.419919       0.00000
  34     5.035       58.5555        0.2079       58.7676       58.9754       0.419919      -0.00000
  33     6.613       58.5428        0.2736       58.6891       58.9627       0.419919       0.00000
  32     8.786       58.5257        0.3622       58.5834       58.9456       0.419919      -0.00000
  31     11.80       58.5013        0.4887       58.4324       58.9212       0.419919       0.00000
  30     15.07       58.4750        0.6243       58.2706       58.8950       0.419919      -0.00000
  29     18.79       58.4455        0.7772       58.0882       58.8654       0.419919       0.00000
  28     23.16       58.4111        0.9553       57.8757       58.8310       0.419919      -0.00000
  27     28.12       58.3718        1.1584       57.6333       58.7917       0.419919       0.00000
  26     33.73       58.3280        1.3849       57.3631       58.7480       0.419919      -0.00000
  25     40.54       58.2753        1.6574       57.0379       58.6953       0.419919       0.00000
  24     48.69       58.2122        1.9842       56.6479       58.6321       0.419919      -0.00000
  23     57.69       58.1432        2.3410       56.2221       58.5631       0.419919       0.00000
  22     68.43       58.0616        2.7629       55.7186       58.4815       0.419919      -0.00000
  21     81.20       57.9652        3.2612       55.1239       58.3851       0.419919      -0.00000
  20     96.49       57.8515        3.8486       54.4228       58.2714       0.419919       0.00000
  19     114.6       57.7182        4.5371       53.6010       58.1381       0.419919      -0.00000
  18     136.5       57.5626        5.3408       52.6418       57.9825       0.419919      -0.00000
  17     162.9       57.3806        6.2802       51.5203       57.8005       0.419919       0.00000
  16     196.4       57.1499        7.4704       50.0994       57.5698       0.419919       0.00000
  15     218.7       57.0016        8.2352       49.1863       57.4215       0.419919       0.00000
  14     243.0       56.8432        9.0518       48.2113       57.2631       0.419919      -0.00000
  13     269.0       56.6747        9.9197       47.1749       57.0946       0.419919       0.00000
  12     297.5       56.4963       10.8380       46.0783       56.9162       0.419919      -0.00000
  11     328.5       56.3078       11.8082       44.9195       56.7277       0.419919      -0.00000
  10     361.9       56.1095       12.8276       43.7018       56.5294       0.419919      -0.00000
   9     398.1       55.9015       13.8964       42.4250       56.3214       0.419919       0.00000
   8     437.6       55.6841       15.0124       41.0916       56.1040       0.419919      -0.00000
   7     480.5       55.4578       16.1732       39.7045       55.8777       0.419919      -0.00000
   6     533.0       55.1883       17.5539       38.0543       55.6082       0.419919       0.00000
   5     589.8       54.9085       18.9853       36.3431       55.3284       0.419919       0.00000
   4     651.6       54.6197       20.4601       34.5795       55.0397       0.419919       0.00000
   3     718.7       54.3231       21.9728       32.7702       54.7430       0.419919       0.00000
   2     792.3       54.0201       23.5145       30.9256       54.4400       0.419919       0.00000
   1     891.5       31.9621       32.3730        0.0000       32.3730       0.410956       0.00076
   0    1013.0       31.9478       32.3587        0.0000       32.3587       0.410956       0.00000



 Wavenumbers: 29000. - 38000. cm-1, ATM      1
 LEVEL PRESSURE   UPWARD FLUX   DIFDOWN FLUX  DIRDOWN FLUX  DOWNWARD FLUX   NET FLUX    HEATING RATE
          mb          W/m2          W/m2          W/m2        W/m2          W/m2       degree/day
  51    .06700        8.7876        0.0000       20.8114       20.8114      12.023776       0.00000
  50    .07753        8.7874        0.0003       20.8070       20.8074      12.019969       3.05162
  49    .09103        8.7872        0.0007       20.8009       20.8016      12.014431       3.46093
  48    0.1069        8.7869        0.0012       20.7928       20.7939      12.007021       3.94439
  47    0.1255        8.7866        0.0017       20.7820       20.7837      11.997116       4.49045
  46    0.1487        8.7863        0.0024       20.7665       20.7688      11.982553       5.30857
  45    0.1794        8.7858        0.0033       20.7424       20.7457      11.959887       6.22220
  44    0.2165        8.7853        0.0044       20.7103       20.7147      11.929364       6.94358
  43    0.2613        8.7847        0.0056       20.6675       20.6731      11.888368       7.72753
  42    0.3336        8.7838        0.0077       20.5880       20.5957      11.811805       8.92650
  41    0.4307        8.7828        0.0104       20.4722       20.4826      11.699849       9.73431
  40    0.5894        8.7812        0.0147       20.2637       20.2784      11.497159      10.77880
  39     1.339        8.7779        0.0332       19.0984       19.1315      10.353634      12.87402
  38     1.782        8.7784        0.0427       18.4394       18.4821       9.703668      12.37429
  37     2.292        8.7812        0.0530       17.7714       17.8244       9.043265      10.93800
  36     2.964        8.7878        0.0657       17.0421       17.1079       8.320046       9.07858
  35     3.853        8.8008        0.0817       16.2678       16.3495       7.548717       7.32006
  34     5.035        8.8222        0.1019       15.4803       15.5822       6.759997       5.63429
  33     6.613        8.8533        0.1277       14.7157       14.8434       5.990095       4.11590
  32     8.786        8.8943        0.1615       13.9936       14.1551       5.260717       2.83264
  31     11.80        8.9480        0.2086       13.2835       13.4921       4.544167       2.00611
  30     15.07        8.9997        0.2575       12.7394       12.9968       3.997092       1.41244
  29     18.79        9.0532        0.3116       12.2666       12.5782       3.524989       1.07040
  28     23.16        9.1101        0.3732       11.8300       12.2032       3.093107       0.83512
  27     28.12        9.1685        0.4422       11.4279       11.8701       2.701598       0.66554
  26     33.73        9.2224        0.5182       11.0695       11.5877       2.365260       0.50569
  25     40.54        9.2738        0.6091       10.7209       11.3300       2.056201       0.38342
  24     48.69        9.3224        0.7169       10.3742       11.0911       1.768682       0.29754
  23     57.69        9.3625        0.8336       10.0549       10.8885       1.525992       0.22749
  22     68.43        9.3952        0.9705        9.7327       10.7032       1.308008       0.17136
  21     81.20        9.4115        1.1322        9.4134       10.5456       1.134097       0.11492
  20     96.49        9.4094        1.3223        9.0887       10.4110       1.001643       0.07310
  19     114.6        9.3970        1.5419        8.7388       10.2807       0.883682       0.05508
  18     136.5        9.3775        1.7931        8.3549       10.1480       0.770433       0.04355
  17     162.9        9.3511        2.0794        7.9311       10.0105       0.659476       0.03547
  16     196.4        9.3057        2.4341        7.4333        9.8674       0.561739       0.02460
  15     218.7        9.2728        2.6573        7.1295        9.7869       0.514041       0.01811
  14     243.0        9.2367        2.8906        6.8161        9.7067       0.469975       0.01528
  13     269.0        9.1972        3.1333        6.4943        9.6276       0.430386       0.01284
  12     297.5        9.1545        3.3842        6.1657        9.5499       0.395468       0.01036
  11     328.5        9.1098        3.6424        5.8295        9.4718       0.362017       0.00910
  10     361.9        9.0638        3.9053        5.4886        9.3939       0.330184       0.00805
   9     398.1        9.0164        4.1725        5.1440        9.3164       0.299997       0.00703
   8     437.6        8.9684        4.4424        4.7969        9.2393       0.270874       0.00623
   7     480.5        8.9200        4.7129        4.4504        9.1632       0.243209       0.00543
   6     533.0        8.8646        5.0214        4.0563        9.0777       0.213024       0.00486
   5     589.8        8.8103        5.3258        3.6682        8.9940       0.183767       0.00434
   4     651.6        8.7579        5.6224        3.2905        8.9130       0.155111       0.00392
   3     718.7        8.7079        5.9097        2.9252        8.8349       0.127008       0.00353
   2     792.3        8.6612        6.1842        2.5764        8.7606       0.099464       0.00316
   1     891.5        4.7072        4.7832        0.0000        4.7832       0.075960       0.00200
   0    1013.0        4.7099        4.7705        0.0000        4.7705       0.060586       0.00107



 Wavenumbers: 38000. - 50000. cm-1, ATM      1
 LEVEL PRESSURE   UPWARD FLUX   DIFDOWN FLUX  DIRDOWN FLUX  DOWNWARD FLUX   NET FLUX    HEATING RATE
          mb          W/m2          W/m2          W/m2        W/m2          W/m2       degree/day
  51    .06700        0.0061        0.0000        1.2836        1.2836       1.277518       0.00000
  50    .07753        0.0061        0.0001        1.2812        1.2812       1.275183       1.87150
  49    .09103        0.0060        0.0002        1.2777        1.2778       1.271851       2.08247
  48    0.1069        0.0059        0.0002        1.2731        1.2734       1.267473       2.33059
  47    0.1255        0.0058        0.0004        1.2672        1.2675       1.261717       2.60908
  46    0.1487        0.0057        0.0005        1.2586        1.2591       1.253391       3.03499
  45    0.1794        0.0055        0.0007        1.2455        1.2462       1.240623       3.50520
  44    0.2165        0.0054        0.0009        1.2282        1.2291       1.223697       3.85037
  43    0.2613        0.0052        0.0011        1.2054        1.2065       1.201348       4.21261
  42    0.3336        0.0049        0.0015        1.1639        1.1654       1.160524       4.75970
  41    0.4307        0.0045        0.0020        1.1051        1.1070       1.102565       5.03943
  40    0.5894        0.0039        0.0026        1.0039        1.0064       1.002524       5.32007
  39     1.339        0.0022        0.0035        0.5438        0.5473       0.545104       5.14971
  38     1.782        0.0016        0.0032        0.3635        0.3666       0.365006       3.42879
  37     2.292        0.0012        0.0027        0.2356        0.2383       0.237058       2.11916
  36     2.964        0.0009        0.0022        0.1455        0.1477       0.146786       1.13318
  35     3.853        0.0006        0.0017        0.0858        0.0875       0.086906       0.56828
  34     5.035        0.0004        0.0013        0.0488        0.0501       0.049701       0.26578
  33     6.613        0.0003        0.0010        0.0273        0.0282       0.027974       0.11615
  32     8.786        0.0002        0.0007        0.0144        0.0151       0.014928       0.05067
  31     11.80        0.0001        0.0004        0.0065        0.0070       0.006903       0.02247
  30     15.07        0.0000        0.0003        0.0031        0.0034       0.003329       0.00923
  29     18.79        0.0000        0.0002        0.0014        0.0016       0.001583       0.00396
  28     23.16        0.0000        0.0001        0.0006        0.0007       0.000720       0.00167
  27     28.12        0.0000        0.0001        0.0003        0.0003       0.000317       0.00069
  26     33.73        0.0000        0.0000        0.0001        0.0001       0.000140       0.00027
  25     40.54        0.0000        0.0000        0.0000        0.0001       0.000057       0.00010
  24     48.69        0.0000        0.0000        0.0000        0.0000       0.000021       0.00004
  23     57.69        0.0000        0.0000        0.0000        0.0000       0.000008       0.00001
  22     68.43        0.0000        0.0000        0.0000        0.0000       0.000003       0.00000
  21     81.20        0.0000        0.0000        0.0000        0.0000       0.000001       0.00000
  20     96.49        0.0000        0.0000        0.0000        0.0000       0.000000       0.00000
  19     114.6        0.0000        0.0000        0.0000        0.0000       0.000000       0.00000
  18     136.5        0.0000        0.0000        0.0000        0.0000       0.000000       0.00000
  17     162.9        0.0000        0.0000        0.0000        0.0000       0.000000       0.00000
  16     196.4        0.0000        0.0000        0.0000        0.0000       0.000000       0.00000
  15     218.7        0.0000        0.0000        0.0000        0.0000       0.000000       0.00000
  14     243.0        0.0000        0.0000        0.0000        0.0000       0.000000       0.00000
  13     269.0        0.0000        0.0000        0.0000        0.0000       0.000000       0.00000
  12     297.5        0.0000        0.0000        0.0000        0.0000       0.000000       0.00000
  11     328.5        0.0000        0.0000        0.0000        0.0000       0.000000       0.00000
  10     361.9        0.0000        0.0000        0.0000        0.0000       0.000000       0.00000
   9     398.1        0.0000        0.0000        0.0000        0.0000       0.000000       0.00000
   8     437.6        0.0000        0.0000        0.0000        0.0000       0.000000       0.00000
   7     480.5        0.0000        0.0000        0.0000        0.0000       0.000000       0.00000
   6     533.0        0.0000        0.0000        0.0000        0.0000       0.000000       0.00000
   5     589.8        0.0000        0.0000        0.0000        0.0000       0.000000       0.00000
   4     651.6        0.0000        0.0000        0.0000        0.0000       0.000000       0.00000
   3     718.7        0.0000        0.0000        0.0000        0.0000       0.000000       0.00000
   2     792.3        0.0000        0.0000        0.0000        0.0000       0.000000       0.00000
   1     891.5        0.0000        0.0000        0.0000        0.0000       0.000000       0.00000
   0    1013.0        0.0000        0.0000        0.0000        0.0000       0.000000       0.00000



 Wavenumbers:   820. -  2600. cm-1, ATM      1
 LEVEL PRESSURE   UPWARD FLUX   DIFDOWN FLUX  DIRDOWN FLUX  DOWNWARD FLUX   NET FLUX    HEATING RATE
          mb          W/m2          W/m2          W/m2        W/m2          W/m2       degree/day
  51    .06700        1.8217        0.0000        6.0047        6.0047       4.182974       0.00000
  50    .07753        1.8217        0.0000        6.0008        6.0008       4.179121       3.08826
  49    .09103        1.8217        0.0000        5.9999        5.9999       4.178235       0.55363
  48    0.1069        1.8217        0.0000        5.9989        5.9989       4.177246       0.52658
  47    0.1255        1.8217        0.0000        5.9978        5.9978       4.176129       0.50655
  46    0.1487        1.8217        0.0000        5.9964        5.9964       4.174772       0.49463
  45    0.1794        1.8217        0.0000        5.9947        5.9947       4.173052       0.47206
  44    0.2165        1.8217        0.0000        5.9929        5.9929       4.171210       0.41917
  43    0.2613        1.8217        0.0000        5.9909        5.9909       4.169250       0.36939
  42    0.3336        1.8217        0.0000        5.9880        5.9880       4.166371       0.33563
  41    0.4307        1.8217        0.0000        5.9846        5.9846       4.162901       0.30172
  40    0.5894        1.8217        0.0000        5.9791        5.9791       4.157395       0.29283
  39     1.339        1.8217        0.0000        5.9536        5.9536       4.131901       0.28702
  38     1.782        1.8217        0.0000        5.9395        5.9395       4.117758       0.26925
  37     2.292        1.8217        0.0000        5.9237        5.9237       4.102002       0.26096
  36     2.964        1.8217        0.0000        5.9039        5.9039       4.082222       0.24830
  35     3.853        1.8217        0.0000        5.8793        5.8793       4.057558       0.23407
  34     5.035        1.8217        0.0000        5.8487        5.8487       4.026985       0.21840
  33     6.613        1.8218        0.0000        5.8108        5.8108       3.989006       0.20303
  32     8.786        1.8218        0.0000        5.7631        5.7631       3.941363       0.18503
  31     11.80        1.8218        0.0000        5.7039        5.7039       3.882079       0.16598
  30     15.07        1.8219        0.0000        5.6539        5.6539       3.832009       0.12927
  29     18.79        1.8219        0.0000        5.6127        5.6127       3.790839       0.09335
  28     23.16        1.8219        0.0000        5.5794        5.5794       3.757421       0.06462
  27     28.12        1.8220        0.0000        5.5518        5.5518       3.729805       0.04694
  26     33.73        1.8221        0.0000        5.5268        5.5268       3.704696       0.03775
  25     40.54        1.8221        0.0000        5.4993        5.4993       3.677184       0.03413
  24     48.69        1.8222        0.0000        5.4678        5.4678       3.645558       0.03273
  23     57.69        1.8223        0.0000        5.4340        5.4340       3.611675       0.03176
  22     68.43        1.8225        0.0000        5.3947        5.3948       3.572286       0.03097
  21     81.20        1.8226        0.0000        5.3497        5.3497       3.527109       0.02985
  20     96.49        1.8228        0.0000        5.2982        5.2982       3.475418       0.02853
  19     114.6        1.8230        0.0000        5.2389        5.2389       3.415876       0.02780
  18     136.5        1.8233        0.0000        5.1716        5.1717       3.348341       0.02597
  17     162.9        1.8237        0.0000        5.0890        5.0891       3.265314       0.02654
  16     196.4        1.8245        0.0000        4.9668        4.9668       3.142385       0.03094
  15     218.7        1.8251        0.0000        4.8585        4.8585       3.033338       0.04140
  14     243.0        1.8263        0.0000        4.7078        4.7079       2.881615       0.05262
  13     269.0        1.8279        0.0000        4.5343        4.5343       2.706399       0.05684
  12     297.5        1.8305        0.0000        4.3419        4.3420       2.511462       0.05782
  11     328.5        1.8340        0.0000        4.1281        4.1281       2.294135       0.05909
  10     361.9        1.8387        0.0000        3.8786        3.8787       2.040018       0.06429
   9     398.1        1.8447        0.0000        3.6159        3.6160       1.771276       0.06261
   8     437.6        1.8525        0.0000        3.3759        3.3759       1.523414       0.05299
   7     480.5        1.8621        0.0000        3.1957        3.1958       1.333741       0.03725
   6     533.0        1.8766        0.0000        3.0467        3.0467       1.170114       0.02632
   5     589.8        1.8981        0.0001        2.9023        2.9023       1.004214       0.02463
   4     651.6        1.9356        0.0001        2.7183        2.7184       0.782757       0.03028
   3     718.7        2.0014        0.0001        2.5058        2.5059       0.504492       0.03497
   2     792.3        2.1324        0.0001        2.2756        2.2757       0.143311       0.04142
   1     891.5        0.0200        0.0339        0.0000        0.0339       0.013870       0.01101
   0    1013.0        0.0231        0.0292        0.0000        0.0292       0.006005       0.00055

  Modules and versions used in this calculation:

       rrtmg_sw.1col.f90:  $Revision$                    rrtmg_sw_init.f90:  $Revision$        
     rrtmgsw_cldprop.f90:  $Revision$                  rrtmgsw_cldprmc.f90:  NOT USED          
     rrtmg_sw_reftra.f90:  $Revision$                  rrtmg_sw_spcvrt.f90:  NOT USED          
     rrtmg_sw_spcvmc.f90:  NOT USED                    rrtmgsw_setcoef.f90:  NOT USED          
     rrtmg_sw_taumol.f90:  $Revision$                  rrtmg_sw_vrtqdr.f90:  NOT USED          
                rrtatm.f:  NOT USED                             util_xxx.f:  NOT USED          
                 extra.f:  NOT USED                       rrtmg_sw_k_g.f90:  $Revision$        

