

 Wavenumbers:   820. - 50000. cm-1, ATM      1
 LEVEL PRESSURE   UPWARD FLUX   DIFDOWN FLUX  DIRDOWN FLUX  DOWNWARD FLUX   NET FLUX    HEATING RATE
          mb          W/m2          W/m2          W/m2        W/m2          W/m2       degree/day
  51    .06700      474.6068        0.0000      617.8126      617.8126     143.205791       0.00000
  50    .07753      474.6064        0.0014      617.7947      617.7961     143.189645      12.94105
  49    .09103      474.6060        0.0031      617.7778      617.7808     143.174828       9.26134
  48    0.1069      474.6055        0.0050      617.7581      617.7631     143.157557       9.19360
  47    0.1255      474.6050        0.0073      617.7340      617.7412     143.136199       9.68236
  46    0.1487      474.6045        0.0101      617.7009      617.7110     143.106496      10.82720
  45    0.1794      474.6038        0.0140      617.6521      617.6661     143.062238      12.14978
  44    0.2165      474.6031        0.0185      617.5895      617.6080     143.004882      13.04759
  43    0.2613      474.6025        0.0239      617.5089      617.5328     142.930323      14.05408
  42    0.3336      474.6018        0.0328      617.3641      617.3969     142.795152      15.75962
  41    0.4307      474.6012        0.0445      617.1591      617.2036     142.602401      16.75922
  40    0.5894      474.6014        0.0634      616.8005      616.8639     142.262473      18.07695
  39     1.339      474.6208        0.1487      614.9443      615.0930     140.472200      20.15523
  38     1.782      474.6452        0.1968      613.9670      614.1638     139.518569      18.15558
  37     2.292      474.6853        0.2514      613.0059      613.2573     138.572003      15.67761
  36     2.964      474.7558        0.3225      611.9577      612.2802     137.524394      13.15065
  35     3.853      474.8736        0.4157      610.8024      611.2181     136.344446      11.19793
  34     5.035      475.0546        0.5386      609.5327      610.0714     135.016715       9.48476
  33     6.613      475.3095        0.7019      608.1464      608.8483     133.538863       7.90060
  32     8.786      475.6415        0.9209      606.6250      607.5459     131.904445       6.34749
  31     11.80      476.0718        1.2327      604.8486      606.0814     130.009525       5.30518
  30     15.07      476.4820        1.5655      603.2440      604.8095     128.327480       4.34271
  29     18.79      476.8988        1.9399      601.6511      603.5911     126.692232       3.70761
  28     23.16      477.3323        2.3750      599.9927      602.3677     125.035469       3.20364
  27     28.12      477.7653        2.8703      598.2881      601.1583     123.393065       2.79198
  26     33.73      478.1583        3.4224      596.5951      600.0175     121.859243       2.30614
  25     40.54      478.5265        4.0873      594.7727      598.8600     120.333502       1.89285
  24     48.69      478.8670        4.8850      592.7865      597.6715     118.804526       1.58225
  23     57.69      479.1409        5.7572      590.7959      596.5531     117.412141       1.30515
  22     68.43      479.3585        6.7905      588.6191      595.4095     116.051030       1.07002
  21     81.20      479.4668        8.0156      586.2690      594.2846     114.817820       0.81489
  20     96.49      479.4558        9.4663      583.6961      593.1624     113.706583       0.61332
  19     114.6      479.3850       11.1731      580.7708      591.9439     112.558949       0.53586
  18     136.5      479.2558       13.1719      577.4359      590.6078     111.351975       0.46411
  17     162.9      479.0639       15.5179      573.5624      589.0804     110.016443       0.42689
  16     196.4      478.7269       18.5103      568.5907      587.1010     108.374057       0.41341
  15     218.7      478.4779       20.4453      565.0572      585.5025     107.024559       0.51235
  14     243.0      478.2013       22.5210      560.7495      583.2706     105.069233       0.67817
  13     269.0      477.9002       24.7390      555.3947      580.1337     102.233485       0.91990
  12     297.5      477.5830       27.0998      548.9964      576.0962      98.513188       1.10340
  11     328.5      477.2619       29.6102      542.0895      571.6997      94.437816       1.10808
  10     361.9      476.9483       32.2663      534.6242      566.8906      89.942238       1.13743
   9     398.1      476.6588       35.0729      526.4204      561.4934      84.834529       1.18998
   8     437.6      476.4248       38.0287      517.3907      555.4194      78.994543       1.24863
   7     480.5      476.2811       41.1318      507.7216      548.8534      72.572300       1.26130
   6     533.0      476.3056       44.8633      495.9006      540.7639      64.458331       1.30528
   5     589.8      476.7034       48.7798      483.0788      531.8586      55.155212       1.38089
   4     651.6      477.9143       52.8681      468.6907      521.5588      43.644485       1.57412
   3     718.7      480.5901       57.1203      453.2257      510.3460      29.755928       1.74541
   2     792.3      486.5287       61.5137      436.4928      498.0065      11.477881       2.09629
   1     891.5      149.6755      154.6853        0.0000      154.6853       5.009869       0.55040
   0    1013.0      150.0086      154.2211        0.0000      154.2211       4.212414       0.05537



 Wavenumbers:  2600. -  3250. cm-1, ATM      1
 LEVEL PRESSURE   UPWARD FLUX   DIFDOWN FLUX  DIRDOWN FLUX  DOWNWARD FLUX   NET FLUX    HEATING RATE
          mb          W/m2          W/m2          W/m2        W/m2          W/m2       degree/day
  51    .06700        2.3499        0.0000        5.4450        5.4450       3.095088       0.00000
  50    .07753        2.3499        0.0000        5.4450        5.4450       3.095080       0.00640
  49    .09103        2.3499        0.0000        5.4450        5.4450       3.095070       0.00627
  48    0.1069        2.3499        0.0000        5.4450        5.4450       3.095058       0.00613
  47    0.1255        2.3499        0.0000        5.4450        5.4450       3.095045       0.00599
  46    0.1487        2.3499        0.0000        5.4450        5.4450       3.095028       0.00608
  45    0.1794        2.3499        0.0000        5.4450        5.4450       3.095006       0.00625
  44    0.2165        2.3499        0.0000        5.4449        5.4449       3.094979       0.00612
  43    0.2613        2.3499        0.0000        5.4449        5.4449       3.094947       0.00600
  42    0.3336        2.3499        0.0000        5.4448        5.4448       3.094894       0.00617
  41    0.4307        2.3499        0.0000        5.4448        5.4448       3.094823       0.00620
  40    0.5894        2.3499        0.0000        5.4446        5.4446       3.094703       0.00637
  39     1.339        2.3499        0.0000        5.4439        5.4439       3.093995       0.00797
  38     1.782        2.3499        0.0000        5.4434        5.4434       3.093452       0.01034
  37     2.292        2.3499        0.0000        5.4427        5.4427       3.092736       0.01186
  36     2.964        2.3499        0.0000        5.4416        5.4416       3.091698       0.01304
  35     3.853        2.3499        0.0000        5.4402        5.4402       3.090220       0.01402
  34     5.035        2.3499        0.0000        5.4381        5.4381       3.088164       0.01469
  33     6.613        2.3499        0.0000        5.4353        5.4353       3.085382       0.01487
  32     8.786        2.3499        0.0000        5.4317        5.4317       3.081749       0.01411
  31     11.80        2.3499        0.0000        5.4269        5.4269       3.076966       0.01339
  30     15.07        2.3500        0.0000        5.4224        5.4224       3.072436       0.01170
  29     18.79        2.3500        0.0000        5.4180        5.4180       3.068018       0.01002
  28     23.16        2.3500        0.0000        5.4135        5.4135       3.063524       0.00869
  27     28.12        2.3500        0.0000        5.4088        5.4088       3.058865       0.00792
  26     33.73        2.3500        0.0000        5.4036        5.4036       3.053608       0.00790
  25     40.54        2.3500        0.0000        5.3966        5.3967       3.046640       0.00864
  24     48.69        2.3501        0.0000        5.3872        5.3872       3.037124       0.00985
  23     57.69        2.3501        0.0000        5.3754        5.3754       3.025285       0.01110
  22     68.43        2.3502        0.0000        5.3599        5.3599       3.009719       0.01224
  21     81.20        2.3503        0.0000        5.3401        5.3401       2.989773       0.01318
  20     96.49        2.3505        0.0000        5.3155        5.3155       2.965049       0.01365
  19     114.6        2.3507        0.0001        5.2853        5.2854       2.934634       0.01420
  18     136.5        2.3511        0.0001        5.2504        5.2505       2.899421       0.01354
  17     162.9        2.3515        0.0001        5.2111        5.2112       2.859639       0.01272
  16     196.4        2.3523        0.0001        5.1640        5.1641       2.811818       0.01204
  15     218.7        2.3531        0.0001        5.1331        5.1332       2.780133       0.01203
  14     243.0        2.3544        0.0001        5.0962        5.0963       2.741975       0.01323
  13     269.0        2.3563        0.0001        5.0511        5.0512       2.694892       0.01527
  12     297.5        2.3593        0.0001        4.9956        4.9957       2.636423       0.01734
  11     328.5        2.3635        0.0001        4.9304        4.9305       2.567004       0.01887
  10     361.9        2.3693        0.0002        4.8511        4.8513       2.481947       0.02152
   9     398.1        2.3774        0.0002        4.7507        4.7509       2.373499       0.02527
   8     437.6        2.3886        0.0002        4.6220        4.6222       2.233615       0.02991
   7     480.5        2.4043        0.0002        4.4625        4.4627       2.058356       0.03442
   6     533.0        2.4301        0.0002        4.2460        4.2463       1.816112       0.03897
   5     589.8        2.4700        0.0002        3.9954        3.9956       1.525672       0.04311
   4     651.6        2.5367        0.0002        3.7089        3.7091       1.172420       0.04831
   3     718.7        2.6493        0.0002        3.4018        3.4021       0.752772       0.05274
   2     792.3        2.8606        0.0002        3.0564        3.0567       0.196025       0.06385
   1     891.5        0.0002        0.0242        0.0000        0.0242       0.024020       0.01464
   0    1013.0        0.0002        0.0221        0.0000        0.0221       0.021911       0.00015



 Wavenumbers:  3250. -  4000. cm-1, ATM      1
 LEVEL PRESSURE   UPWARD FLUX   DIFDOWN FLUX  DIRDOWN FLUX  DOWNWARD FLUX   NET FLUX    HEATING RATE
          mb          W/m2          W/m2          W/m2        W/m2          W/m2       degree/day
  51    .06700        0.1055        0.0000        9.1795        9.1795       9.074026       0.00000
  50    .07753        0.1055        0.0000        9.1747        9.1747       9.069183       3.88148
  49    .09103        0.1055        0.0000        9.1713        9.1713       9.065795       2.11747
  48    0.1069        0.1055        0.0000        9.1688        9.1688       9.063270       1.34402
  47    0.1255        0.1055        0.0000        9.1665        9.1665       9.061011       1.02422
  46    0.1487        0.1055        0.0000        9.1641        9.1641       9.058570       0.88991
  45    0.1794        0.1055        0.0000        9.1612        9.1612       9.055692       0.79008
  44    0.2165        0.1055        0.0000        9.1583        9.1583       9.052771       0.66430
  43    0.2613        0.1055        0.0000        9.1553        9.1553       9.049798       0.56041
  42    0.3336        0.1055        0.0000        9.1511        9.1511       9.045619       0.48723
  41    0.4307        0.1055        0.0000        9.1464        9.1464       9.040851       0.41459
  40    0.5894        0.1055        0.0000        9.1393        9.1394       9.033846       0.37255
  39     1.339        0.1055        0.0000        9.1127        9.1127       9.007232       0.29962
  38     1.782        0.1055        0.0000        9.1011        9.1011       8.995644       0.22062
  37     2.292        0.1055        0.0000        9.0901        9.0901       8.984577       0.18329
  36     2.964        0.1055        0.0000        9.0776        9.0776       8.972147       0.15603
  35     3.853        0.1055        0.0000        9.0629        9.0629       8.957357       0.14036
  34     5.035        0.1055        0.0000        9.0441        9.0441       8.938618       0.13386
  33     6.613        0.1055        0.0000        9.0191        9.0191       8.913617       0.13366
  32     8.786        0.1055        0.0000        8.9843        8.9843       8.878833       0.13509
  31     11.80        0.1055        0.0000        8.9327        8.9327       8.827217       0.14451
  30     15.07        0.1055        0.0000        8.8758        8.8759       8.770372       0.14676
  29     18.79        0.1055        0.0000        8.8110        8.8110       8.705544       0.14698
  28     23.16        0.1055        0.0000        8.7365        8.7366       8.631100       0.14395
  27     28.12        0.1055        0.0000        8.6554        8.6555       8.549986       0.13789
  26     33.73        0.1055        0.0000        8.5719        8.5719       8.466487       0.12554
  25     40.54        0.1055        0.0001        8.4812        8.4812       8.375763       0.11255
  24     48.69        0.1054        0.0001        8.3838        8.3839       8.278461       0.10069
  23     57.69        0.1054        0.0001        8.2861        8.2862       8.180726       0.09161
  22     68.43        0.1054        0.0001        8.1751        8.1751       8.069729       0.08726
  21     81.20        0.1054        0.0001        8.0457        8.0458       7.940371       0.08548
  20     96.49        0.1054        0.0001        7.8949        7.8951       7.789667       0.08318
  19     114.6        0.1054        0.0001        7.7162        7.7163       7.610956       0.08345
  18     136.5        0.1053        0.0002        7.5193        7.5195       7.414111       0.07569
  17     162.9        0.1053        0.0002        7.2913        7.2915       7.186217       0.07284
  16     196.4        0.1053        0.0002        6.9660        6.9662       6.860936       0.08188
  15     218.7        0.1053        0.0002        6.6648        6.6650       6.559730       0.11436
  14     243.0        0.1053        0.0002        6.2619        6.2622       6.156891       0.13972
  13     269.0        0.1054        0.0003        5.7576        5.7579       5.652484       0.16363
  12     297.5        0.1056        0.0003        5.1719        5.1722       5.066562       0.17378
  11     328.5        0.1060        0.0003        4.5757        4.5760       4.470001       0.16220
  10     361.9        0.1066        0.0002        3.9995        3.9998       3.893161       0.14595
   9     398.1        0.1077        0.0002        3.4655        3.4657       3.358014       0.12468
   8     437.6        0.1095        0.0002        2.9740        2.9743       2.864753       0.10546
   7     480.5        0.1124        0.0002        2.5307        2.5309       2.418445       0.08765
   6     533.0        0.1181        0.0002        2.0614        2.0616       1.943486       0.07641
   5     589.8        0.1284        0.0002        1.6150        1.6151       1.486709       0.06780
   4     651.6        0.1501        0.0001        1.1565        1.1566       1.006531       0.06567
   3     718.7        0.1978        0.0001        0.7390        0.7391       0.541263       0.05847
   2     792.3        0.3266        0.0001        0.3985        0.3985       0.071916       0.05383
   1     891.5        0.0000        0.0000        0.0000        0.0000       0.000008       0.00612
   0    1013.0        0.0000        0.0000        0.0000        0.0000       0.000001       0.00000



 Wavenumbers:  4000. -  4650. cm-1, ATM      1
 LEVEL PRESSURE   UPWARD FLUX   DIFDOWN FLUX  DIRDOWN FLUX  DOWNWARD FLUX   NET FLUX    HEATING RATE
          mb          W/m2          W/m2          W/m2        W/m2          W/m2       degree/day
  51    .06700        7.4075        0.0000       10.7795       10.7795       3.371999       0.00000
  50    .07753        7.4075        0.0000       10.7795       10.7795       3.371998       0.00080
  49    .09103        7.4075        0.0000       10.7795       10.7795       3.371996       0.00078
  48    0.1069        7.4075        0.0000       10.7795       10.7795       3.371995       0.00077
  47    0.1255        7.4075        0.0000       10.7795       10.7795       3.371993       0.00075
  46    0.1487        7.4075        0.0000       10.7795       10.7795       3.371991       0.00076
  45    0.1794        7.4075        0.0000       10.7795       10.7795       3.371988       0.00078
  44    0.2165        7.4075        0.0000       10.7795       10.7795       3.371985       0.00076
  43    0.2613        7.4075        0.0000       10.7795       10.7795       3.371981       0.00075
  42    0.3336        7.4075        0.0000       10.7795       10.7795       3.371974       0.00077
  41    0.4307        7.4075        0.0000       10.7795       10.7795       3.371965       0.00078
  40    0.5894        7.4075        0.0000       10.7795       10.7795       3.371950       0.00080
  39     1.339        7.4075        0.0000       10.7794       10.7794       3.371861       0.00101
  38     1.782        7.4075        0.0000       10.7793       10.7793       3.371791       0.00133
  37     2.292        7.4075        0.0000       10.7792       10.7792       3.371696       0.00156
  36     2.964        7.4075        0.0000       10.7791       10.7791       3.371555       0.00177
  35     3.853        7.4075        0.0000       10.7789       10.7789       3.371347       0.00198
  34     5.035        7.4075        0.0000       10.7786       10.7786       3.371038       0.00220
  33     6.613        7.4075        0.0000       10.7781       10.7781       3.370585       0.00243
  32     8.786        7.4075        0.0000       10.7774       10.7775       3.369914       0.00260
  31     11.80        7.4075        0.0001       10.7763       10.7764       3.368860       0.00295
  30     15.07        7.4075        0.0001       10.7751       10.7752       3.367623       0.00320
  29     18.79        7.4076        0.0001       10.7736       10.7737       3.366124       0.00340
  28     23.16        7.4076        0.0001       10.7717       10.7718       3.364262       0.00360
  27     28.12        7.4076        0.0001       10.7695       10.7696       3.362004       0.00384
  26     33.73        7.4076        0.0002       10.7667       10.7668       3.359216       0.00419
  25     40.54        7.4077        0.0002       10.7629       10.7631       3.355427       0.00470
  24     48.69        7.4078        0.0003       10.7579       10.7582       3.350370       0.00523
  23     57.69        7.4079        0.0003       10.7520       10.7523       3.344360       0.00563
  22     68.43        7.4081        0.0004       10.7446       10.7450       3.336808       0.00594
  21     81.20        7.4084        0.0004       10.7355       10.7359       3.327481       0.00616
  20     96.49        7.4089        0.0005       10.7245       10.7250       3.316093       0.00629
  19     114.6        7.4095        0.0006       10.7107       10.7113       3.301796       0.00668
  18     136.5        7.4104        0.0007       10.6942       10.6949       3.284495       0.00665
  17     162.9        7.4117        0.0008       10.6740       10.6748       3.263170       0.00682
  16     196.4        7.4138        0.0010       10.6464       10.6474       3.233545       0.00746
  15     218.7        7.4157        0.0011       10.6255       10.6266       3.210872       0.00861
  14     243.0        7.4184        0.0012       10.5980       10.5993       3.180875       0.01040
  13     269.0        7.4224        0.0014       10.5611       10.5625       3.140062       0.01324
  12     297.5        7.4282        0.0015       10.5119       10.5134       3.085261       0.01625
  11     328.5        7.4361        0.0017       10.4499       10.4515       3.015410       0.01899
  10     361.9        7.4465        0.0018       10.3702       10.3720       2.925461       0.02276
   9     398.1        7.4597        0.0020       10.2678       10.2698       2.810082       0.02688
   8     437.6        7.4766        0.0022       10.1390       10.1412       2.664540       0.03112
   7     480.5        7.4985        0.0024        9.9877        9.9901       2.491507       0.03398
   6     533.0        7.5327        0.0026        9.7937        9.7963       2.263513       0.03668
   5     589.8        7.5830        0.0028        9.5752        9.5780       1.994924       0.03987
   4     651.6        7.6661        0.0030        9.2958        9.2988       1.632780       0.04952
   3     718.7        7.8101        0.0033        8.9267        8.9300       1.119929       0.06445
   2     792.3        8.0940        0.0035        8.4542        8.4577       0.363665       0.08674
   1     891.5        0.0181        0.1293        0.0000        0.1293       0.111213       0.02148
   0    1013.0        0.0187        0.1251        0.0000        0.1251       0.106387       0.00034



 Wavenumbers:  4650. -  5150. cm-1, ATM      1
 LEVEL PRESSURE   UPWARD FLUX   DIFDOWN FLUX  DIRDOWN FLUX  DOWNWARD FLUX   NET FLUX    HEATING RATE
          mb          W/m2          W/m2          W/m2        W/m2          W/m2       degree/day
  51    .06700        5.3700        0.0000       10.2033       10.2033       4.833322       0.00000
  50    .07753        5.3700        0.0000       10.2031       10.2031       4.833086       0.18901
  49    .09103        5.3700        0.0000       10.2028       10.2028       4.832791       0.18428
  48    0.1069        5.3700        0.0000       10.2025       10.2025       4.832454       0.17931
  47    0.1255        5.3700        0.0000       10.2021       10.2021       4.832070       0.17426
  46    0.1487        5.3700        0.0000       10.2016       10.2016       4.831589       0.17536
  45    0.1794        5.3700        0.0000       10.2010       10.2010       4.830938       0.17850
  44    0.2165        5.3700        0.0000       10.2002       10.2002       4.830179       0.17277
  43    0.2613        5.3700        0.0000       10.1993       10.1993       4.829293       0.16690
  42    0.3336        5.3700        0.0000       10.1979       10.1979       4.827861       0.16702
  41    0.4307        5.3700        0.0000       10.1960       10.1960       4.826020       0.16003
  40    0.5894        5.3700        0.0000       10.1932       10.1932       4.823147       0.15283
  39     1.339        5.3700        0.0000       10.1816       10.1816       4.811554       0.13051
  38     1.782        5.3700        0.0000       10.1760       10.1760       4.806024       0.10527
  37     2.292        5.3700        0.0000       10.1706       10.1706       4.800567       0.09039
  36     2.964        5.3700        0.0000       10.1646       10.1647       4.794642       0.07438
  35     3.853        5.3700        0.0000       10.1584       10.1584       4.788425       0.05900
  34     5.035        5.3700        0.0000       10.1521       10.1521       4.782084       0.04530
  33     6.613        5.3700        0.0000       10.1456       10.1456       4.775618       0.03457
  32     8.786        5.3700        0.0001       10.1386       10.1386       4.768591       0.02729
  31     11.80        5.3701        0.0001       10.1295       10.1296       4.759522       0.02539
  30     15.07        5.3701        0.0001       10.1196       10.1197       4.749603       0.02561
  29     18.79        5.3702        0.0001       10.1076       10.1077       4.737540       0.02735
  28     23.16        5.3703        0.0002       10.0923       10.0924       4.722156       0.02975
  27     28.12        5.3704        0.0002       10.0731       10.0734       4.702954       0.03264
  26     33.73        5.3706        0.0002       10.0500       10.0503       4.679715       0.03494
  25     40.54        5.3708        0.0003       10.0201       10.0204       4.649607       0.03735
  24     48.69        5.3712        0.0004        9.9820        9.9823       4.611144       0.03980
  23     57.69        5.3716        0.0004        9.9384        9.9389       4.567232       0.04116
  22     68.43        5.3723        0.0005        9.8858        9.8863       4.513983       0.04186
  21     81.20        5.3732        0.0006        9.8234        9.8240       4.450879       0.04170
  20     96.49        5.3744        0.0007        9.7518        9.7525       4.378075       0.04018
  19     114.6        5.3761        0.0008        9.6719        9.6727       4.296669       0.03801
  18     136.5        5.3784        0.0010        9.5858        9.5868       4.208364       0.03396
  17     162.9        5.3817        0.0012        9.4940        9.4952       4.113545       0.03031
  16     196.4        5.3866        0.0014        9.3883        9.3897       4.003037       0.02782
  15     218.7        5.3905        0.0015        9.3229        9.3244       3.933927       0.02624
  14     243.0        5.3955        0.0017        9.2520        9.2537       3.858116       0.02629
  13     269.0        5.4023        0.0019        9.1717        9.1735       3.771252       0.02818
  12     297.5        5.4116        0.0020        9.0763        9.0783       3.666718       0.03100
  11     328.5        5.4237        0.0022        8.9650        8.9672       3.543456       0.03351
  10     361.9        5.4394        0.0024        8.8349        8.8374       3.397943       0.03682
   9     398.1        5.4598        0.0026        8.6820        8.6847       3.224897       0.04032
   8     437.6        5.4863        0.0029        8.5028        8.5057       3.019388       0.04394
   7     480.5        5.5209        0.0031        8.2948        8.2979       2.777051       0.04759
   6     533.0        5.5738        0.0033        8.0209        8.0242       2.450444       0.05254
   5     589.8        5.6478        0.0036        7.7063        7.7099       2.062146       0.05764
   4     651.6        5.7582        0.0038        7.3412        7.3451       1.586868       0.06500
   3     718.7        5.9276        0.0041        6.9387        6.9427       1.015120       0.07185
   2     792.3        6.2056        0.0043        6.5066        6.5109       0.305271       0.08141
   1     891.5        0.0039        0.0794        0.0000        0.0794       0.075515       0.01955
   0    1013.0        0.0041        0.0761        0.0000        0.0761       0.072047       0.00024



 Wavenumbers:  5150. -  6150. cm-1, ATM      1
 LEVEL PRESSURE   UPWARD FLUX   DIFDOWN FLUX  DIRDOWN FLUX  DOWNWARD FLUX   NET FLUX    HEATING RATE
          mb          W/m2          W/m2          W/m2        W/m2          W/m2       degree/day
  51    .06700       12.6485        0.0000       25.5798       25.5798      12.931318       0.00000
  50    .07753       12.6485        0.0000       25.5798       25.5798      12.931278       0.03164
  49    .09103       12.6485        0.0000       25.5797       25.5797      12.931227       0.03212
  48    0.1069       12.6485        0.0000       25.5797       25.5797      12.931165       0.03263
  47    0.1255       12.6485        0.0000       25.5796       25.5796      12.931092       0.03313
  46    0.1487       12.6485        0.0000       25.5795       25.5795      12.930997       0.03490
  45    0.1794       12.6485        0.0000       25.5794       25.5794      12.930861       0.03715
  44    0.2165       12.6485        0.0000       25.5792       25.5792      12.930696       0.03771
  43    0.2613       12.6485        0.0000       25.5790       25.5790      12.930492       0.03829
  42    0.3336       12.6485        0.0000       25.5786       25.5786      12.930145       0.04045
  41    0.4307       12.6485        0.0000       25.5782       25.5782      12.929674       0.04099
  40    0.5894       12.6485        0.0000       25.5774       25.5774      12.928884       0.04200
  39     1.339       12.6485        0.0000       25.5735       25.5736      12.925078       0.04285
  38     1.782       12.6485        0.0001       25.5713       25.5714      12.922861       0.04221
  37     2.292       12.6485        0.0001       25.5688       25.5689      12.920351       0.04157
  36     2.964       12.6485        0.0001       25.5656       25.5657      12.917161       0.04004
  35     3.853       12.6485        0.0001       25.5615       25.5616      12.913105       0.03849
  34     5.035       12.6485        0.0002       25.5562       25.5564      12.907879       0.03733
  33     6.613       12.6485        0.0002       25.5494       25.5496      12.901097       0.03626
  32     8.786       12.6486        0.0003       25.5406       25.5409      12.892304       0.03415
  31     11.80       12.6487        0.0004       25.5287       25.5291      12.880402       0.03332
  30     15.07       12.6487        0.0005       25.5167       25.5172      12.868455       0.03084
  29     18.79       12.6488        0.0006       25.5042       25.5048      12.855953       0.02835
  28     23.16       12.6490        0.0008       25.4907       25.4914      12.842471       0.02607
  27     28.12       12.6491        0.0009       25.4764       25.4774      12.828235       0.02420
  26     33.73       12.6494        0.0011       25.4620       25.4631      12.813776       0.02174
  25     40.54       12.6497        0.0013       25.4463       25.4476      12.797916       0.01968
  24     48.69       12.6501        0.0016       25.4294       25.4310      12.780865       0.01765
  23     57.69       12.6506        0.0019       25.4126       25.4145      12.763867       0.01593
  22     68.43       12.6513        0.0023       25.3944       25.3967      12.745339       0.01457
  21     81.20       12.6522        0.0027       25.3744       25.3771      12.724874       0.01352
  20     96.49       12.6533        0.0032       25.3519       25.3551      12.701804       0.01273
  19     114.6       12.6547        0.0038       25.3262       25.3299      12.675284       0.01238
  18     136.5       12.6563        0.0045       25.2962       25.3007      12.644355       0.01189
  17     162.9       12.6584        0.0053       25.2521       25.2574      12.599041       0.01448
  16     196.4       12.6612        0.0064       25.1593       25.1657      12.504488       0.02380
  15     218.7       12.6633        0.0071       25.0159       25.0230      12.359781       0.05494
  14     243.0       12.6658        0.0078       24.7089       24.7167      12.050978       0.10710
  13     269.0       12.6690        0.0085       24.1619       24.1704      11.501420       0.17827
  12     297.5       12.6733        0.0093       23.4544       23.4636      10.790301       0.21091
  11     328.5       12.6790        0.0100       22.7355       22.7455      10.066408       0.19682
  10     361.9       12.6866        0.0107       21.9224       21.9332       9.246546       0.20743
   9     398.1       12.6968        0.0115       20.9939       21.0054       8.308553       0.21853
   8     437.6       12.7111        0.0122       19.9833       19.9955       7.284430       0.21896
   7     480.5       12.7309        0.0129       18.9483       18.9612       6.230265       0.20703
   6     533.0       12.7647        0.0137       17.7796       17.7932       5.028513       0.19332
   5     589.8       12.8200        0.0145       16.6726       16.6870       3.867089       0.17239
   4     651.6       12.9218        0.0153       15.6343       15.6496       2.727765       0.15581
   3     718.7       13.1109        0.0162       14.7738       14.7900       1.679109       0.13179
   2     792.3       13.5007        0.0172       14.0291       14.0463       0.545636       0.13000
   1     891.5        0.0430        0.2511        0.0000        0.2511       0.208105       0.02872
   0    1013.0        0.0438        0.2463        0.0000        0.2463       0.202489       0.00039



 Wavenumbers:  6150. -  7700. cm-1, ATM      1
 LEVEL PRESSURE   UPWARD FLUX   DIFDOWN FLUX  DIRDOWN FLUX  DOWNWARD FLUX   NET FLUX    HEATING RATE
          mb          W/m2          W/m2          W/m2        W/m2          W/m2       degree/day
  51    .06700       20.5103        0.0000       47.3109       47.3109      26.800511       0.00000
  50    .07753       20.5103        0.0000       47.3108       47.3108      26.800454       0.04553
  49    .09103       20.5103        0.0000       47.3107       47.3107      26.800381       0.04583
  48    0.1069       20.5103        0.0000       47.3106       47.3106      26.800294       0.04614
  47    0.1255       20.5103        0.0000       47.3105       47.3105      26.800191       0.04645
  46    0.1487       20.5103        0.0000       47.3104       47.3104      26.800058       0.04852
  45    0.1794       20.5103        0.0000       47.3102       47.3102      26.799872       0.05127
  44    0.2165       20.5103        0.0000       47.3100       47.3100      26.799644       0.05167
  43    0.2613       20.5103        0.0000       47.3097       47.3097      26.799368       0.05210
  42    0.3336       20.5103        0.0000       47.3092       47.3092      26.798899       0.05471
  41    0.4307       20.5103        0.0000       47.3085       47.3086      26.798264       0.05521
  40    0.5894       20.5103        0.0001       47.3074       47.3075      26.797204       0.05634
  39     1.339       20.5103        0.0002       47.3022       47.3024      26.792112       0.05733
  38     1.782       20.5102        0.0002       47.2991       47.2994      26.789142       0.05655
  37     2.292       20.5102        0.0003       47.2956       47.2960      26.785766       0.05591
  36     2.964       20.5101        0.0004       47.2912       47.2916      26.781448       0.05421
  35     3.853       20.5101        0.0005       47.2855       47.2860      26.775913       0.05252
  34     5.035       20.5100        0.0007       47.2780       47.2787      26.768733       0.05130
  33     6.613       20.5099        0.0009       47.2683       47.2692      26.759344       0.05019
  32     8.786       20.5097        0.0012       47.2556       47.2568      26.747045       0.04777
  31     11.80       20.5095        0.0016       47.2380       47.2396      26.730140       0.04733
  30     15.07       20.5093        0.0020       47.2201       47.2221      26.712851       0.04464
  29     18.79       20.5090        0.0025       47.2008       47.2034      26.694370       0.04190
  28     23.16       20.5087        0.0031       47.1795       47.1827      26.673978       0.03943
  27     28.12       20.5083        0.0038       47.1565       47.1603      26.651981       0.03739
  26     33.73       20.5079        0.0046       47.1324       47.1370      26.629056       0.03447
  25     40.54       20.5074        0.0055       47.1054       47.1108      26.603414       0.03181
  24     48.69       20.5069        0.0066       47.0754       47.0820      26.575154       0.02924
  23     57.69       20.5062        0.0078       47.0449       47.0527      26.546524       0.02684
  22     68.43       20.5055        0.0092       47.0110       47.0202      26.514775       0.02496
  21     81.20       20.5046        0.0110       46.9729       46.9838      26.479265       0.02346
  20     96.49       20.5035        0.0130       46.9294       46.9424      26.438903       0.02228
  19     114.6       20.5022        0.0155       46.8790       46.8945      26.392237       0.02179
  18     136.5       20.5008        0.0184       46.8200       46.8383      26.337568       0.02102
  17     162.9       20.4991        0.0218       46.7361       46.7579      26.258863       0.02516
  16     196.4       20.4971        0.0263       46.5703       46.5965      26.099453       0.04013
  15     218.7       20.4960        0.0291       46.3473       46.3764      25.880424       0.08316
  14     243.0       20.4954        0.0321       45.9299       45.9620      25.466640       0.14351
  13     269.0       20.4958        0.0352       45.1708       45.2060      24.710169       0.24540
  12     297.5       20.4984        0.0382       44.0115       44.0497      23.551283       0.34371
  11     328.5       20.5039        0.0413       42.7242       42.7655      22.261653       0.35065
  10     361.9       20.5137        0.0444       41.3539       41.3984      20.884695       0.34838
   9     398.1       20.5303        0.0475       39.7953       39.8428      19.312527       0.36628
   8     437.6       20.5579        0.0505       37.9948       38.0453      17.487375       0.39023
   7     480.5       20.6017        0.0533       36.0647       36.1181      15.516358       0.38710
   6     533.0       20.6838        0.0565       33.7773       33.8337      13.149958       0.38068
   5     589.8       20.8269        0.0593       31.4082       31.4675      10.640650       0.37246
   4     651.6       21.1046        0.0618       28.8834       28.9452       7.840586       0.38292
   3     718.7       21.6444        0.0640       26.4104       26.4743       4.829962       0.37835
   2     792.3       22.8367        0.0658       24.0056       24.0714       1.234663       0.41234
   1     891.5        0.0841        0.3778        0.0000        0.3778       0.293671       0.08007
   0    1013.0        0.0863        0.3662        0.0000        0.3662       0.279887       0.00096



 Wavenumbers:  7700. -  8050. cm-1, ATM      1
 LEVEL PRESSURE   UPWARD FLUX   DIFDOWN FLUX  DIRDOWN FLUX  DOWNWARD FLUX   NET FLUX    HEATING RATE
          mb          W/m2          W/m2          W/m2        W/m2          W/m2       degree/day
  51    .06700        9.1768        0.0000       11.1810       11.1810       2.004159       0.00000
  50    .07753        9.1768        0.0000       11.1809       11.1809       2.004134       0.01950
  49    .09103        9.1768        0.0000       11.1809       11.1809       2.004104       0.01911
  48    0.1069        9.1768        0.0000       11.1809       11.1809       2.004069       0.01871
  47    0.1255        9.1768        0.0000       11.1809       11.1809       2.004028       0.01831
  46    0.1487        9.1769        0.0000       11.1808       11.1808       2.003977       0.01858
  45    0.1794        9.1769        0.0000       11.1808       11.1808       2.003908       0.01912
  44    0.2165        9.1769        0.0000       11.1807       11.1807       2.003825       0.01875
  43    0.2613        9.1769        0.0000       11.1806       11.1806       2.003728       0.01840
  42    0.3336        9.1770        0.0000       11.1805       11.1805       2.003566       0.01883
  41    0.4307        9.1770        0.0000       11.1803       11.1804       2.003352       0.01862
  40    0.5894        9.1771        0.0000       11.1801       11.1801       2.003002       0.01860
  39     1.339        9.1775        0.0001       11.1788       11.1789       2.001347       0.01863
  38     1.782        9.1778        0.0001       11.1781       11.1782       2.000375       0.01851
  37     2.292        9.1781        0.0001       11.1772       11.1773       1.999249       0.01864
  36     2.964        9.1785        0.0002       11.1761       11.1763       1.997771       0.01855
  35     3.853        9.1790        0.0002       11.1746       11.1748       1.995819       0.01853
  34     5.035        9.1797        0.0003       11.1726       11.1729       1.993225       0.01853
  33     6.613        9.1806        0.0004       11.1700       11.1704       1.989760       0.01852
  32     8.786        9.1819        0.0006       11.1664       11.1669       1.985091       0.01813
  31     11.80        9.1836        0.0007       11.1613       11.1620       1.978413       0.01869
  30     15.07        9.1855        0.0010       11.1558       11.1568       1.971247       0.01850
  29     18.79        9.1877        0.0012       11.1497       11.1509       1.963157       0.01834
  28     23.16        9.1903        0.0015       11.1425       11.1440       1.953714       0.01826
  27     28.12        9.1932        0.0018       11.1343       11.1361       1.942927       0.01834
  26     33.73        9.1964        0.0021       11.1252       11.1273       1.930870       0.01813
  25     40.54        9.2004        0.0025       11.1142       11.1167       1.916325       0.01804
  24     48.69        9.2052        0.0031       11.1010       11.1041       1.898825       0.01811
  23     57.69        9.2106        0.0036       11.0866       11.0902       1.879647       0.01798
  22     68.43        9.2170        0.0043       11.0695       11.0738       1.856868       0.01791
  21     81.20        9.2246        0.0051       11.0494       11.0545       1.829820       0.01787
  20     96.49        9.2339        0.0060       11.0255       11.0316       1.797718       0.01772
  19     114.6        9.2449        0.0072       10.9975       11.0047       1.759779       0.01771
  18     136.5        9.2582        0.0085       10.9648       10.9733       1.715052       0.01720
  17     162.9        9.2743        0.0101       10.9263       10.9364       1.662106       0.01692
  16     196.4        9.2955        0.0122       10.8773       10.8894       1.593914       0.01716
  15     218.7        9.3097        0.0135       10.8455       10.8591       1.549358       0.01692
  14     243.0        9.3254        0.0150       10.8114       10.8264       1.501059       0.01675
  13     269.0        9.3427        0.0166       10.7749       10.7915       1.448779       0.01696
  12     297.5        9.3618        0.0183       10.7357       10.7540       1.392196       0.01678
  11     328.5        9.3830        0.0202       10.6937       10.7139       1.330882       0.01667
  10     361.9        9.4065        0.0222       10.6489       10.6710       1.264493       0.01680
   9     398.1        9.4327        0.0243       10.6008       10.6251       1.192355       0.01681
   8     437.6        9.4621        0.0266       10.5491       10.5757       1.113625       0.01683
   7     480.5        9.4950        0.0291       10.4934       10.5225       1.027501       0.01691
   6     533.0        9.5380        0.0321       10.4243       10.4564       0.918394       0.01755
   5     589.8        9.5882        0.0354       10.3479       10.3833       0.795126       0.01830
   4     651.6        9.6484        0.0389       10.2613       10.3003       0.651846       0.01959
   3     718.7        9.7224        0.0427       10.1618       10.2044       0.482058       0.02134
   2     792.3        9.8166        0.0466       10.0439       10.0905       0.273888       0.02387
   1     891.5        0.2017        0.3609        0.0000        0.3609       0.159236       0.00976
   0    1013.0        0.2056        0.3540        0.0000        0.3540       0.148425       0.00075



 Wavenumbers:  8050. - 12850. cm-1, ATM      1
 LEVEL PRESSURE   UPWARD FLUX   DIFDOWN FLUX  DIRDOWN FLUX  DOWNWARD FLUX   NET FLUX    HEATING RATE
          mb          W/m2          W/m2          W/m2        W/m2          W/m2       degree/day
  51    .06700      121.1401        0.0000      156.5418      156.5418      35.401666       0.00000
  50    .07753      121.1401        0.0000      156.5417      156.5417      35.401666       0.00000
  49    .09103      121.1401        0.0001      156.5417      156.5417      35.401666      -0.00000
  48    0.1069      121.1400        0.0001      156.5416      156.5417      35.401666       0.00000
  47    0.1255      121.1400        0.0002      156.5415      156.5417      35.401666      -0.00000
  46    0.1487      121.1400        0.0003      156.5414      156.5417      35.401666       0.00000
  45    0.1794      121.1400        0.0003      156.5413      156.5417      35.401666       0.00000
  44    0.2165      121.1400        0.0005      156.5412      156.5416      35.401666      -0.00000
  43    0.2613      121.1399        0.0006      156.5410      156.5416      35.401666      -0.00000
  42    0.3336      121.1398        0.0008      156.5407      156.5415      35.401666       0.00000
  41    0.4307      121.1398        0.0011      156.5403      156.5414      35.401666      -0.00000
  40    0.5894      121.1396        0.0016      156.5397      156.5413      35.401666       0.00000
  39     1.339      121.1390        0.0039      156.5367      156.5406      35.401666      -0.00000
  38     1.782      121.1386        0.0053      156.5350      156.5402      35.401666      -0.00000
  37     2.292      121.1381        0.0068      156.5330      156.5398      35.401666       0.00000
  36     2.964      121.1375        0.0089      156.5303      156.5392      35.401666      -0.00000
  35     3.853      121.1368        0.0116      156.5268      156.5384      35.401666       0.00000
  34     5.035      121.1357        0.0152      156.5222      156.5374      35.401666       0.00000
  33     6.613      121.1344        0.0200      156.5160      156.5360      35.401666      -0.00000
  32     8.786      121.1325        0.0265      156.5076      156.5342      35.401666       0.00000
  31     11.80      121.1298        0.0359      156.4957      156.5315      35.401666      -0.00000
  30     15.07      121.1270        0.0459      156.4828      156.5287      35.401666       0.00000
  29     18.79      121.1238        0.0572      156.4682      156.5254      35.401666      -0.00000
  28     23.16      121.1200        0.0704      156.4512      156.5216      35.401666      -0.00000
  27     28.12      121.1156        0.0856      156.4317      156.5173      35.401666       0.00000
  26     33.73      121.1108        0.1026      156.4099      156.5125      35.401666      -0.00000
  25     40.54      121.1049        0.1231      156.3834      156.5066      35.401666       0.00000
  24     48.69      121.0978        0.1480      156.3515      156.4995      35.401666      -0.00000
  23     57.69      121.0900        0.1753      156.3164      156.4917      35.401666       0.00000
  22     68.43      121.0807        0.2078      156.2746      156.4824      35.401666      -0.00000
  21     81.20      121.0696        0.2467      156.2246      156.4713      35.401666      -0.00000
  20     96.49      121.0564        0.2931      156.1649      156.4580      35.401666       0.00000
  19     114.6      121.0409        0.3483      156.0879      156.4362      35.395347       0.00295
  18     136.5      121.0225        0.4138      155.9962      156.4100      35.387515       0.00301
  17     162.9      121.0006        0.4921      155.8831      156.3751      35.374543       0.00415
  16     196.4      120.9723        0.5938      155.7199      156.3137      35.341399       0.00834
  15     218.7      120.9544        0.6607      155.5733      156.2340      35.279635       0.02345
  14     243.0      120.9364        0.7335      155.3367      156.0701      35.133704       0.05061
  13     269.0      120.9207        0.8122      154.9514      155.7636      34.842877       0.09434
  12     297.5      120.9109        0.8970      154.3896      155.2866      34.375647       0.13858
  11     328.5      120.9095        0.9884      153.7151      154.7035      33.793987       0.15815
  10     361.9      120.9215        1.0866      152.9087      153.9953      33.073807       0.18221
   9     398.1      120.9553        1.1917      151.8986      153.0903      32.134918       0.21874
   8     437.6      121.0254        1.3035      150.6031      151.9066      30.881205       0.26805
   7     480.5      121.1494        1.4219      149.0014      150.4233      29.273839       0.31568
   6     533.0      121.3950        1.5652      146.7375      148.3027      26.907748       0.38063
   5     589.8      121.8338        1.7155      143.8730      145.5885      23.754702       0.46802
   4     651.6      122.6829        1.8698      140.0955      141.9653      19.282399       0.61160
   3     718.7      124.2750        2.0265      135.5278      137.5543      13.279226       0.75443
   2     792.3      127.4818        2.1815      130.0690      132.2505       4.768672       0.97607
   1     891.5        8.4505       10.1763        0.0000       10.1763       1.725762       0.25894
   0    1013.0        8.5643       10.0261        0.0000       10.0261       1.461807       0.01833



 Wavenumbers: 12850. - 16000. cm-1, ATM      1
 LEVEL PRESSURE   UPWARD FLUX   DIFDOWN FLUX  DIRDOWN FLUX  DOWNWARD FLUX   NET FLUX    HEATING RATE
          mb          W/m2          W/m2          W/m2        W/m2          W/m2       degree/day
  51    .06700       84.8140        0.0000       98.0872       98.0872      13.273201       0.00000
  50    .07753       84.8140        0.0001       98.0864       98.0864      13.272407       0.63649
  49    .09103       84.8140        0.0002       98.0853       98.0855      13.271409       0.62368
  48    0.1069       84.8141        0.0003       98.0841       98.0843      13.270262       0.61068
  47    0.1255       84.8141        0.0004       98.0826       98.0830      13.268943       0.59801
  46    0.1487       84.8141        0.0005       98.0809       98.0814      13.267277       0.60734
  45    0.1794       84.8142        0.0007       98.0784       98.0792      13.265008       0.62280
  44    0.2165       84.8143        0.0010       98.0756       98.0766      13.262337       0.60772
  43    0.2613       84.8144        0.0013       98.0723       98.0736      13.259191       0.59292
  42    0.3336       84.8147        0.0018       98.0670       98.0688      13.254049       0.59948
  41    0.4307       84.8152        0.0024       98.0602       98.0626      13.247388       0.57915
  40    0.5894       84.8162        0.0035       98.0496       98.0530      13.236865       0.55962
  39     1.339       84.8240        0.0084       98.0043       98.0127      13.188737       0.54183
  38     1.782       84.8310        0.0113       97.9793       97.9906      13.159556       0.55557
  37     2.292       84.8414        0.0147       97.9498       97.9644      13.123014       0.60524
  36     2.964       84.8586        0.0191       97.9088       97.9279      13.069341       0.67375
  35     3.853       84.8861        0.0249       97.8503       97.8752      12.989187       0.76068
  34     5.035       84.9274        0.0326       97.7680       97.8006      12.873231       0.82834
  33     6.613       84.9851        0.0430       97.6562       97.6992      12.714077       0.85084
  32     8.786       85.0602        0.0569       97.5107       97.5676      12.507322       0.80296
  31     11.80       85.1582        0.0768       97.3179       97.3946      12.236400       0.75850
  30     15.07       85.2523        0.0981       97.1283       97.2264      11.974083       0.67725
  29     18.79       85.3487        0.1222       96.9300       97.0522      11.703513       0.61346
  28     23.16       85.4497        0.1503       96.7166       96.8668      11.417144       0.55375
  27     28.12       85.5517        0.1824       96.4935       96.6758      11.124104       0.49815
  26     33.73       85.6467        0.2183       96.2731       96.4914      10.844656       0.42016
  25     40.54       85.7392        0.2617       96.0408       96.3025      10.563269       0.34909
  24     48.69       85.8292        0.3141       95.7946       96.1087      10.279518       0.29364
  23     57.69       85.9070        0.3716       95.5573       95.9289      10.021876       0.24150
  22     68.43       85.9772        0.4402       95.3106       95.7508       9.773600       0.19518
  21     81.20       86.0299        0.5220       95.0643       95.5864       9.556485       0.14347
  20     96.49       86.0641        0.6197       94.8153       95.4349       9.370849       0.10246
  19     114.6       86.1013        0.7366       94.5411       95.2777       9.176382       0.09080
  18     136.5       86.1336        0.8753       94.2320       95.1073       8.973668       0.07795
  17     162.9       86.1615        1.0404       93.8753       94.9157       8.754137       0.07017
  16     196.4       86.1750        1.2545       93.4347       94.6892       8.514185       0.06040
  15     218.7       86.1760        1.3952       93.1513       94.5464       8.370493       0.05455
  14     243.0       86.1741        1.5481       92.8439       94.3920       8.217947       0.05291
  13     269.0       86.1695        1.7137       92.5111       94.2249       8.055327       0.05275
  12     297.5       86.1635        1.8928       92.1495       94.0423       7.878763       0.05237
  11     328.5       86.1585        2.0862       91.7554       93.8416       7.683115       0.05320
  10     361.9       86.1562        2.2945       91.3262       93.6207       7.464513       0.05531
   9     398.1       86.1590        2.5186       90.8575       93.3761       7.217114       0.05764
   8     437.6       86.1715        2.7591       90.3418       93.1009       6.929358       0.06152
   7     480.5       86.1985        3.0167       89.7728       92.7895       6.590964       0.06646
   6     533.0       86.2572        3.3332       89.0428       92.3761       6.118891       0.07594
   5     589.8       86.3668        3.6733       88.2038       91.8771       5.510321       0.09033
   4     651.6       86.5778        4.0363       87.1979       91.2342       4.656482       0.11676
   3     718.7       86.9315        4.4209       86.0161       90.4370       3.505506       0.14465
   2     792.3       87.5483        4.8231       84.5970       89.4202       1.871836       0.18736
   1     891.5       21.6231       22.6464        0.0000       22.6464       1.023224       0.07221
   0    1013.0       21.7439       22.5093        0.0000       22.5093       0.765315       0.01791



 Wavenumbers: 16000. - 22650. cm-1, ATM      1
 LEVEL PRESSURE   UPWARD FLUX   DIFDOWN FLUX  DIRDOWN FLUX  DOWNWARD FLUX   NET FLUX    HEATING RATE
          mb          W/m2          W/m2          W/m2        W/m2          W/m2       degree/day
  51    .06700      141.7125        0.0000      156.3892      156.3892      14.676783       0.00000
  50    .07753      141.7124        0.0004      156.3887      156.3891      14.676635       0.11880
  49    .09103      141.7124        0.0009      156.3879      156.3888      14.676420       0.13474
  48    0.1069      141.7124        0.0015      156.3871      156.3885      14.676131       0.15365
  47    0.1255      141.7124        0.0021      156.3861      156.3882      14.675745       0.17514
  46    0.1487      141.7125        0.0030      156.3847      156.3877      14.675175       0.20754
  45    0.1794      141.7126        0.0041      156.3828      156.3869      14.674285       0.24436
  44    0.2165      141.7129        0.0054      156.3805      156.3859      14.673078       0.27463
  43    0.2613      141.7132        0.0070      156.3776      156.3847      14.671440       0.30876
  42    0.3336      141.7140        0.0097      156.3726      156.3823      14.668326       0.36309
  41    0.4307      141.7153        0.0132      156.3657      156.3789      14.663631       0.40815
  40    0.5894      141.7179        0.0189      156.3537      156.3726      14.654679       0.47609
  39     1.339      141.7408        0.0459      156.2834      156.3293      14.588535       0.74466
  38     1.782      141.7619        0.0618      156.2324      156.2941      14.532188       1.07275
  37     2.292      141.7936        0.0801      156.1641      156.2442      14.450625       1.35089
  36     2.964      141.8463        0.1043      156.0605      156.1647      14.318493       1.65866
  35     3.853      141.9313        0.1361      155.9041      156.0401      14.108829       1.98975
  34     5.035      142.0596        0.1783      155.6774      155.8557      13.796025       2.23454
  33     6.613      142.2390        0.2347      155.3656      155.6003      13.361313       2.32397
  32     8.786      142.4725        0.3105      154.9577      155.2682      12.795645       2.19685
  31     11.80      142.7765        0.4189      154.4153      154.8341      12.057580       2.06635
  30     15.07      143.0678        0.5350      153.8804      154.4154      11.347569       1.83311
  29     18.79      143.3653        0.6661      153.3191      153.9851      10.619856       1.64995
  28     23.16      143.6762        0.8189      152.7126      153.5314       9.855199       1.47860
  27     28.12      143.9891        0.9933      152.0755      153.0688       9.079690       1.31831
  26     33.73      144.2781        1.1884      151.4409      152.6293       8.351235       1.09525
  25     40.54      144.5563        1.4239      150.7637      152.1876       7.631242       0.89323
  24     48.69      144.8229        1.7075      150.0338      151.7413       6.918419       0.73766
  23     57.69      145.0492        2.0186      149.3151      151.3338       6.284631       0.59408
  22     68.43      145.2468        2.3888      148.5476      150.9364       5.689657       0.46773
  21     81.20      145.3838        2.8296      147.7517      150.5812       5.197462       0.32523
  20     96.49      145.4557        3.3543      146.9127      150.2669       4.811205       0.21319
  19     114.6      145.4939        3.9754      145.9763      149.9517       4.457852       0.16499
  18     136.5      145.5075        4.7089      144.9088      149.6177       4.110238       0.13367
  17     162.9      145.4949        5.5783      143.6785      149.2569       3.762022       0.11130
  16     196.4      145.4163        6.7001      142.1651      148.8652       3.448826       0.07884
  15     218.7      145.3420        7.4332      141.2033      148.6365       3.294518       0.05859
  14     243.0      145.2508        8.2267      140.1753      148.4020       3.151168       0.04972
  13     269.0      145.1412        9.0827      139.0797      148.1624       3.021167       0.04217
  12     297.5      145.0125       10.0033      137.9141      147.9174       2.904849       0.03450
  11     328.5      144.8689       10.9928      136.6676      147.6604       2.791510       0.03082
  10     361.9      144.7102       12.0522      135.3392      147.3914       2.681249       0.02790
   9     398.1      144.5359       13.1855      133.9235      147.1090       2.573096       0.02520
   8     437.6      144.3472       14.3947      132.4163      146.8110       2.463781       0.02337
   7     480.5      144.1438       15.6820      130.8147      146.4967       2.352893       0.02178
   6     533.0      143.8942       17.2543      128.8599      146.1142       2.219985       0.02138
   5     589.8      143.6305       18.9343      126.7679      145.7022       2.071766       0.02200
   4     651.6      143.3602       20.7236      124.5274      145.2510       1.890833       0.02474
   3     718.7      143.0909       22.6239      122.1285      144.7523       1.661394       0.02883
   2     792.3      142.8424       24.6330      119.5548      144.1879       1.345464       0.03623
   1     891.5       75.6712       76.7219        0.0000       76.7219       1.050709       0.02508
   0    1013.0       75.7668       76.6017        0.0000       76.6017       0.834959       0.01498



 Wavenumbers: 22650. - 29000. cm-1, ATM      1
 LEVEL PRESSURE   UPWARD FLUX   DIFDOWN FLUX  DIRDOWN FLUX  DOWNWARD FLUX   NET FLUX    HEATING RATE
          mb          W/m2          W/m2          W/m2        W/m2          W/m2       degree/day
  51    .06700       58.7440        0.0000       59.0156       59.0156       0.271635       0.00000
  50    .07753       58.7439        0.0005       59.0151       59.0155       0.271635       0.00000
  49    .09103       58.7438        0.0010       59.0144       59.0154       0.271635      -0.00000
  48    0.1069       58.7436        0.0017       59.0136       59.0153       0.271635       0.00000
  47    0.1255       58.7435        0.0025       59.0127       59.0151       0.271635       0.00000
  46    0.1487       58.7433        0.0035       59.0115       59.0149       0.271635       0.00000
  45    0.1794       58.7431        0.0048       59.0099       59.0147       0.271635      -0.00000
  44    0.2165       58.7428        0.0063       59.0080       59.0144       0.271635       0.00000
  43    0.2613       58.7424        0.0082       59.0058       59.0140       0.271635       0.00000
  42    0.3336       58.7418        0.0113       59.0022       59.0134       0.271635      -0.00000
  41    0.4307       58.7410        0.0154       58.9973       59.0127       0.271635      -0.00000
  40    0.5894       58.7397        0.0220       58.9894       59.0114       0.271635       0.00000
  39     1.339       58.7337        0.0535       58.9518       59.0053       0.271635       0.00000
  38     1.782       58.7301        0.0721       58.9297       59.0018       0.271635       0.00000
  37     2.292       58.7260        0.0935       58.9042       58.9977       0.271635      -0.00000
  36     2.964       58.7206        0.1216       58.8706       58.9923       0.271635       0.00000
  35     3.853       58.7135        0.1588       58.8264       58.9851       0.271635       0.00000
  34     5.035       58.7040        0.2081       58.7676       58.9757       0.271635       0.00000
  33     6.613       58.6914        0.2739       58.6891       58.9630       0.271635      -0.00000
  32     8.786       58.6744        0.3626       58.5834       58.9460       0.271635       0.00000
  31     11.80       58.6500        0.4892       58.4324       58.9217       0.271635      -0.00000
  30     15.07       58.6240        0.6250       58.2706       58.8956       0.271635       0.00000
  29     18.79       58.5946        0.7780       58.0882       58.8662       0.271635       0.00000
  28     23.16       58.5603        0.9563       57.8757       58.8320       0.271635      -0.00000
  27     28.12       58.5213        1.1596       57.6333       58.7929       0.271635       0.00000
  26     33.73       58.4778        1.3863       57.3631       58.7494       0.271635       0.00000
  25     40.54       58.4254        1.6591       57.0379       58.6970       0.271635      -0.00000
  24     48.69       58.3625        1.9863       56.6479       58.6341       0.271635      -0.00000
  23     57.69       58.2939        2.3434       56.2221       58.5655       0.271635       0.00000
  22     68.43       58.2127        2.7658       55.7186       58.4844       0.271635       0.00000
  21     81.20       58.1169        3.2646       55.1239       58.3885       0.271635      -0.00000
  20     96.49       58.0039        3.8527       54.4228       58.2755       0.271635       0.00000
  19     114.6       57.8714        4.5420       53.6010       58.1430       0.271635      -0.00000
  18     136.5       57.7167        5.3465       52.6418       57.9883       0.271635       0.00000
  17     162.9       57.5358        6.2871       51.5203       57.8074       0.271635      -0.00000
  16     196.4       57.3065        7.4787       50.0994       57.5782       0.271635       0.00000
  15     218.7       57.1591        8.2445       49.1863       57.4308       0.271635       0.00000
  14     243.0       57.0017        9.0621       48.2113       57.2734       0.271635      -0.00000
  13     269.0       56.8344        9.9311       47.1749       57.1060       0.271635       0.00000
  12     297.5       56.6572       10.8506       46.0783       56.9289       0.271635       0.00000
  11     328.5       56.4700       11.8221       44.9195       56.7416       0.271635      -0.00000
  10     361.9       56.2732       12.8430       43.7018       56.5448       0.271635       0.00000
   9     398.1       56.0667       13.9133       42.4250       56.3383       0.271635       0.00000
   8     437.6       55.8510       15.0310       41.0916       56.1226       0.271635      -0.00000
   7     480.5       55.6264       16.1936       39.7045       55.8980       0.271635      -0.00000
   6     533.0       55.3591       17.5765       38.0543       55.6308       0.271635      -0.00000
   5     589.8       55.0817       19.0103       36.3431       55.3534       0.271635       0.00000
   4     651.6       54.7956       20.4877       34.5795       55.0673       0.271635       0.00000
   3     718.7       54.5018       22.0032       32.7702       54.7735       0.271635      -0.00000
   2     792.3       54.2019       23.5480       30.9256       54.4736       0.271635       0.00000
   1     891.5       38.2729       38.5349        0.0000       38.5349       0.261975       0.00082
   0    1013.0       38.2637       38.5257        0.0000       38.5257       0.261975       0.00000



 Wavenumbers: 29000. - 38000. cm-1, ATM      1
 LEVEL PRESSURE   UPWARD FLUX   DIFDOWN FLUX  DIRDOWN FLUX  DOWNWARD FLUX   NET FLUX    HEATING RATE
          mb          W/m2          W/m2          W/m2        W/m2          W/m2       degree/day
  51    .06700        8.8000        0.0000       20.8114       20.8114      12.011403       0.00000
  50    .07753        8.7998        0.0003       20.8070       20.8074      12.007596       3.05163
  49    .09103        8.7995        0.0007       20.8009       20.8016      12.002059       3.46094
  48    0.1069        8.7993        0.0012       20.7928       20.7939      11.994648       3.94440
  47    0.1255        8.7990        0.0017       20.7820       20.7837      11.984743       4.49047
  46    0.1487        8.7987        0.0024       20.7665       20.7688      11.970180       5.30859
  45    0.1794        8.7982        0.0033       20.7424       20.7457      11.947514       6.22222
  44    0.2165        8.7977        0.0044       20.7103       20.7147      11.916991       6.94361
  43    0.2613        8.7971        0.0056       20.6675       20.6731      11.875995       7.72756
  42    0.3336        8.7962        0.0077       20.5880       20.5957      11.799431       8.92653
  41    0.4307        8.7951        0.0104       20.4722       20.4826      11.687475       9.73435
  40    0.5894        8.7936        0.0147       20.2637       20.2784      11.484784      10.77885
  39     1.339        8.7903        0.0332       19.0984       19.1315      10.341252      12.87409
  38     1.782        8.7908        0.0427       18.4394       18.4821       9.691281      12.37440
  37     2.292        8.7936        0.0530       17.7714       17.8244       9.030870      10.93814
  36     2.964        8.8003        0.0658       17.0421       17.1079       8.307639       9.07874
  35     3.853        8.8133        0.0817       16.2678       16.3495       7.536290       7.32024
  34     5.035        8.8347        0.1019       15.4803       15.5822       6.747541       5.63450
  33     6.613        8.8658        0.1277       14.7157       14.8434       5.977598       4.11611
  32     8.786        8.9069        0.1616       13.9936       14.1551       5.248169       2.83284
  31     11.80        8.9607        0.2087       13.2835       13.4922       4.531552       2.00630
  30     15.07        9.0125        0.2576       12.7394       12.9969       3.984412       1.41261
  29     18.79        9.0661        0.3117       12.2666       12.5784       3.512242       1.07056
  28     23.16        9.1231        0.3734       11.8300       12.2034       3.080289       0.83526
  27     28.12        9.1816        0.4424       11.4279       11.8703       2.688706       0.66566
  26     33.73        9.2356        0.5185       11.0695       11.5879       2.352298       0.50580
  25     40.54        9.2871        0.6094       10.7209       11.3303       2.043167       0.38351
  24     48.69        9.3359        0.7173       10.3742       11.0914       1.755576       0.29761
  23     57.69        9.3761        0.8340       10.0549       10.8889       1.512820       0.22755
  22     68.43        9.4090        0.9710        9.7327       10.7037       1.294773       0.17141
  21     81.20        9.4254        1.1328        9.4134       10.5462       1.120809       0.11495
  20     96.49        9.4234        1.3230        9.0887       10.4117       0.988312       0.07313
  19     114.6        9.4112        1.5428        8.7388       10.2815       0.870311       0.05510
  18     136.5        9.3919        1.7941        8.3549       10.1490       0.757020       0.04356
  17     162.9        9.3657        2.0806        7.9311       10.0117       0.646021       0.03548
  16     196.4        9.3207        2.4356        7.4333        9.8689       0.548245       0.02461
  15     218.7        9.2880        2.6589        7.1295        9.7885       0.500526       0.01812
  14     243.0        9.2521        2.8925        6.8161        9.7085       0.456440       0.01529
  13     269.0        9.2128        3.1353        6.4943        9.6297       0.416832       0.01285
  12     297.5        9.1703        3.3864        6.1657        9.5522       0.381897       0.01036
  11     328.5        9.1259        3.6448        5.8295        9.4743       0.348429       0.00910
  10     361.9        9.0801        3.9080        5.4886        9.3967       0.316578       0.00806
   9     398.1        9.0331        4.1755        5.1440        9.3195       0.286373       0.00704
   8     437.6        8.9854        4.4457        4.7969        9.2426       0.257233       0.00623
   7     480.5        8.9373        4.7165        4.4504        9.1669       0.229551       0.00544
   6     533.0        8.8824        5.0255        4.0563        9.0817       0.199345       0.00486
   5     589.8        8.8285        5.3304        3.6682        8.9985       0.170067       0.00435
   4     651.6        8.7766        5.6275        3.2905        8.9180       0.141389       0.00392
   3     718.7        8.7272        5.9152        2.9252        8.8404       0.113264       0.00353
   2     792.3        8.6810        6.1903        2.5764        8.7667       0.085696       0.00316
   1     891.5        5.3065        5.3680        0.0000        5.3680       0.061420       0.00207
   0    1013.0        5.3111        5.3556        0.0000        5.3556       0.044451       0.00118



 Wavenumbers: 38000. - 50000. cm-1, ATM      1
 LEVEL PRESSURE   UPWARD FLUX   DIFDOWN FLUX  DIRDOWN FLUX  DOWNWARD FLUX   NET FLUX    HEATING RATE
          mb          W/m2          W/m2          W/m2        W/m2          W/m2       degree/day
  51    .06700        0.0061        0.0000        1.2836        1.2836       1.277518       0.00000
  50    .07753        0.0061        0.0001        1.2812        1.2812       1.275183       1.87150
  49    .09103        0.0060        0.0002        1.2777        1.2778       1.271851       2.08247
  48    0.1069        0.0059        0.0002        1.2731        1.2734       1.267473       2.33059
  47    0.1255        0.0058        0.0004        1.2672        1.2675       1.261717       2.60908
  46    0.1487        0.0057        0.0005        1.2586        1.2591       1.253391       3.03499
  45    0.1794        0.0055        0.0007        1.2455        1.2462       1.240623       3.50520
  44    0.2165        0.0054        0.0009        1.2282        1.2291       1.223697       3.85037
  43    0.2613        0.0052        0.0011        1.2054        1.2065       1.201348       4.21261
  42    0.3336        0.0049        0.0015        1.1639        1.1654       1.160524       4.75970
  41    0.4307        0.0045        0.0020        1.1051        1.1070       1.102565       5.03943
  40    0.5894        0.0039        0.0026        1.0039        1.0064       1.002524       5.32007
  39     1.339        0.0022        0.0035        0.5438        0.5473       0.545104       5.14971
  38     1.782        0.0016        0.0032        0.3635        0.3666       0.365006       3.42879
  37     2.292        0.0012        0.0027        0.2356        0.2383       0.237058       2.11916
  36     2.964        0.0009        0.0022        0.1455        0.1477       0.146786       1.13318
  35     3.853        0.0006        0.0017        0.0858        0.0875       0.086906       0.56828
  34     5.035        0.0004        0.0013        0.0488        0.0501       0.049701       0.26578
  33     6.613        0.0003        0.0010        0.0273        0.0282       0.027974       0.11615
  32     8.786        0.0002        0.0007        0.0144        0.0151       0.014928       0.05067
  31     11.80        0.0001        0.0004        0.0065        0.0070       0.006903       0.02247
  30     15.07        0.0000        0.0003        0.0031        0.0034       0.003329       0.00923
  29     18.79        0.0000        0.0002        0.0014        0.0016       0.001583       0.00396
  28     23.16        0.0000        0.0001        0.0006        0.0007       0.000720       0.00167
  27     28.12        0.0000        0.0001        0.0003        0.0003       0.000317       0.00069
  26     33.73        0.0000        0.0000        0.0001        0.0001       0.000140       0.00027
  25     40.54        0.0000        0.0000        0.0000        0.0001       0.000057       0.00010
  24     48.69        0.0000        0.0000        0.0000        0.0000       0.000021       0.00004
  23     57.69        0.0000        0.0000        0.0000        0.0000       0.000008       0.00001
  22     68.43        0.0000        0.0000        0.0000        0.0000       0.000003       0.00000
  21     81.20        0.0000        0.0000        0.0000        0.0000       0.000001       0.00000
  20     96.49        0.0000        0.0000        0.0000        0.0000       0.000000       0.00000
  19     114.6        0.0000        0.0000        0.0000        0.0000       0.000000       0.00000
  18     136.5        0.0000        0.0000        0.0000        0.0000       0.000000       0.00000
  17     162.9        0.0000        0.0000        0.0000        0.0000       0.000000       0.00000
  16     196.4        0.0000        0.0000        0.0000        0.0000       0.000000       0.00000
  15     218.7        0.0000        0.0000        0.0000        0.0000       0.000000       0.00000
  14     243.0        0.0000        0.0000        0.0000        0.0000       0.000000       0.00000
  13     269.0        0.0000        0.0000        0.0000        0.0000       0.000000       0.00000
  12     297.5        0.0000        0.0000        0.0000        0.0000       0.000000       0.00000
  11     328.5        0.0000        0.0000        0.0000        0.0000       0.000000       0.00000
  10     361.9        0.0000        0.0000        0.0000        0.0000       0.000000       0.00000
   9     398.1        0.0000        0.0000        0.0000        0.0000       0.000000       0.00000
   8     437.6        0.0000        0.0000        0.0000        0.0000       0.000000       0.00000
   7     480.5        0.0000        0.0000        0.0000        0.0000       0.000000       0.00000
   6     533.0        0.0000        0.0000        0.0000        0.0000       0.000000       0.00000
   5     589.8        0.0000        0.0000        0.0000        0.0000       0.000000       0.00000
   4     651.6        0.0000        0.0000        0.0000        0.0000       0.000000       0.00000
   3     718.7        0.0000        0.0000        0.0000        0.0000       0.000000       0.00000
   2     792.3        0.0000        0.0000        0.0000        0.0000       0.000000       0.00000
   1     891.5        0.0000        0.0000        0.0000        0.0000       0.000000       0.00000
   0    1013.0        0.0000        0.0000        0.0000        0.0000       0.000000       0.00000



 Wavenumbers:   820. -  2600. cm-1, ATM      1
 LEVEL PRESSURE   UPWARD FLUX   DIFDOWN FLUX  DIRDOWN FLUX  DOWNWARD FLUX   NET FLUX    HEATING RATE
          mb          W/m2          W/m2          W/m2        W/m2          W/m2       degree/day
  51    .06700        1.8215        0.0000        6.0047        6.0047       4.183165       0.00000
  50    .07753        1.8215        0.0000        6.0008        6.0008       4.179311       3.08826
  49    .09103        1.8215        0.0000        5.9999        5.9999       4.178426       0.55363
  48    0.1069        1.8215        0.0000        5.9989        5.9989       4.177436       0.52658
  47    0.1255        1.8215        0.0000        5.9978        5.9978       4.176319       0.50655
  46    0.1487        1.8215        0.0000        5.9964        5.9964       4.174962       0.49463
  45    0.1794        1.8215        0.0000        5.9947        5.9947       4.173243       0.47206
  44    0.2165        1.8215        0.0000        5.9929        5.9929       4.171400       0.41917
  43    0.2613        1.8215        0.0000        5.9909        5.9909       4.169440       0.36939
  42    0.3336        1.8215        0.0000        5.9880        5.9880       4.166562       0.33563
  41    0.4307        1.8215        0.0000        5.9846        5.9846       4.163091       0.30172
  40    0.5894        1.8215        0.0000        5.9791        5.9791       4.157585       0.29283
  39     1.339        1.8215        0.0000        5.9536        5.9536       4.132091       0.28702
  38     1.782        1.8215        0.0000        5.9395        5.9395       4.117948       0.26925
  37     2.292        1.8215        0.0000        5.9237        5.9237       4.102193       0.26096
  36     2.964        1.8215        0.0000        5.9039        5.9039       4.082413       0.24830
  35     3.853        1.8215        0.0000        5.8793        5.8793       4.057749       0.23407
  34     5.035        1.8215        0.0000        5.8487        5.8487       4.027175       0.21840
  33     6.613        1.8216        0.0000        5.8108        5.8108       3.989196       0.20303
  32     8.786        1.8216        0.0000        5.7631        5.7631       3.941554       0.18503
  31     11.80        1.8216        0.0000        5.7039        5.7039       3.882269       0.16598
  30     15.07        1.8217        0.0000        5.6539        5.6539       3.832200       0.12927
  29     18.79        1.8217        0.0000        5.6127        5.6127       3.791029       0.09335
  28     23.16        1.8218        0.0000        5.5794        5.5794       3.757611       0.06462
  27     28.12        1.8218        0.0000        5.5518        5.5518       3.729995       0.04694
  26     33.73        1.8219        0.0000        5.5268        5.5268       3.704886       0.03775
  25     40.54        1.8220        0.0000        5.4993        5.4993       3.677374       0.03413
  24     48.69        1.8221        0.0000        5.4678        5.4678       3.645748       0.03273
  23     57.69        1.8222        0.0000        5.4340        5.4340       3.611866       0.03176
  22     68.43        1.8223        0.0000        5.3947        5.3948       3.572476       0.03097
  21     81.20        1.8224        0.0000        5.3497        5.3497       3.527300       0.02985
  20     96.49        1.8226        0.0000        5.2982        5.2982       3.475608       0.02853
  19     114.6        1.8228        0.0000        5.2389        5.2389       3.416066       0.02780
  18     136.5        1.8231        0.0000        5.1716        5.1717       3.348532       0.02597
  17     162.9        1.8235        0.0000        5.0890        5.0891       3.265505       0.02654
  16     196.4        1.8243        0.0000        4.9668        4.9668       3.142576       0.03094
  15     218.7        1.8250        0.0000        4.8585        4.8585       3.033528       0.04140
  14     243.0        1.8261        0.0000        4.7078        4.7079       2.881806       0.05262
  13     269.0        1.8277        0.0000        4.5343        4.5343       2.706589       0.05684
  12     297.5        1.8303        0.0000        4.3419        4.3420       2.511652       0.05782
  11     328.5        1.8338        0.0000        4.1281        4.1281       2.294326       0.05909
  10     361.9        1.8385        0.0000        3.8786        3.8787       2.040209       0.06429
   9     398.1        1.8445        0.0000        3.6159        3.6160       1.771466       0.06261
   8     437.6        1.8523        0.0000        3.3759        3.3759       1.523606       0.05299
   7     480.5        1.8619        0.0000        3.1957        3.1958       1.333933       0.03725
   6     533.0        1.8764        0.0000        3.0467        3.0467       1.170306       0.02632
   5     589.8        1.8979        0.0001        2.9023        2.9023       1.004406       0.02462
   4     651.6        1.9354        0.0001        2.7183        2.7184       0.782951       0.03028
   3     718.7        2.0012        0.0001        2.5058        2.5059       0.504689       0.03497
   2     792.3        2.1322        0.0001        2.2756        2.2757       0.143514       0.04142
   1     891.5        0.0001        0.0151        0.0000        0.0151       0.015012       0.01093
   0    1013.0        0.0001        0.0129        0.0000        0.0129       0.012760       0.00016

  Modules and versions used in this calculation:

       rrtmg_sw.1col.f90:  $Revision$                    rrtmg_sw_init.f90:  $Revision$        
     rrtmgsw_cldprop.f90:  $Revision$                  rrtmgsw_cldprmc.f90:  NOT USED          
     rrtmg_sw_reftra.f90:  $Revision$                  rrtmg_sw_spcvrt.f90:  NOT USED          
     rrtmg_sw_spcvmc.f90:  NOT USED                    rrtmgsw_setcoef.f90:  NOT USED          
     rrtmg_sw_taumol.f90:  $Revision$                  rrtmg_sw_vrtqdr.f90:  NOT USED          
                rrtatm.f:  NOT USED                             util_xxx.f:  NOT USED          
                 extra.f:  NOT USED                       rrtmg_sw_k_g.f90:  $Revision$        

