

 Wavenumbers:   820. - 50000. cm-1, ATM      1
 LEVEL PRESSURE   UPWARD FLUX   DIFDOWN FLUX  DIRDOWN FLUX  DOWNWARD FLUX   NET FLUX    HEATING RATE
          mb          W/m2          W/m2          W/m2        W/m2          W/m2       degree/day
  51    .06700      463.0434        0.0000      617.8126      617.8126     154.769203       0.00000
  50    .07753      463.0430        0.0014      617.7947      617.7961     154.753059      12.93983
  49    .09103      463.0426        0.0031      617.7778      617.7808     154.738244       9.25999
  48    0.1069      463.0421        0.0050      617.7581      617.7631     154.720975       9.19210
  47    0.1255      463.0416        0.0072      617.7340      617.7412     154.699621       9.68068
  46    0.1487      463.0410        0.0101      617.7009      617.7110     154.669923      10.82525
  45    0.1794      463.0403        0.0139      617.6521      617.6660     154.625674      12.14753
  44    0.2165      463.0397        0.0185      617.5895      617.6080     154.568329      13.04508
  43    0.2613      463.0390        0.0239      617.5089      617.5328     154.493784      14.05129
  42    0.3336      463.0382        0.0327      617.3641      617.3968     154.358641      15.75636
  41    0.4307      463.0376        0.0444      617.1591      617.2035     154.165932      16.75559
  40    0.5894      463.0376        0.0632      616.8005      616.8637     153.826083      18.07275
  39     1.339      463.0562        0.1484      614.9443      615.0926     152.036384      20.14877
  38     1.782      463.0800        0.1963      613.9670      614.1633     151.083237      18.14638
  37     2.292      463.1193        0.2508      613.0059      613.2567     150.137366      15.66609
  36     2.964      463.1884        0.3217      611.9577      612.2793     149.090880      13.13656
  35     3.853      463.3043        0.4146      610.8024      611.2170     147.912708      11.18107
  34     5.035      463.4823        0.5372      609.5327      610.0699     146.587627       9.46583
  33     6.613      463.7330        0.7000      608.1464      608.8464     145.113465       7.88087
  32     8.786      464.0596        0.9184      606.6250      607.5434     143.483873       6.32875
  31     11.80      464.4827        1.2293      604.8486      606.0780     141.595295       5.28742
  30     15.07      464.8857        1.5612      603.2440      604.8051     139.919408       4.32681
  29     18.79      465.2951        1.9345      601.6511      603.5857     138.290533       3.69316
  28     23.16      465.7205        2.3684      599.9927      602.3611     136.640541       3.19055
  27     28.12      466.1452        2.8622      598.2881      601.1502     135.005093       2.78015
  26     33.73      466.5299        3.4127      596.5951      600.0078     133.477907       2.29616
  25     40.54      466.8894        4.0756      594.7727      598.8483     131.958849       1.88456
  24     48.69      467.2208        4.8710      592.7865      597.6575     130.436636       1.57525
  23     57.69      467.4860        5.7405      590.7959      596.5364     129.050427       1.29936
  22     68.43      467.6944        6.7707      588.6191      595.3897     127.695311       1.06530
  21     81.20      467.7937        7.9921      586.2690      594.2610     126.467339       0.81142
  20     96.49      467.7738        9.4383      583.6961      593.1344     125.360580       0.61085
  19     114.6      467.6932       11.1397      580.7708      591.9105     124.217287       0.53384
  18     136.5      467.5530       13.1321      577.4359      590.5680     123.014952       0.46233
  17     162.9      467.3484       15.4705      573.5624      589.0329     121.684544       0.42525
  16     196.4      466.9957       18.4529      568.5907      587.0436     120.047866       0.41197
  15     218.7      466.7365       20.3813      565.0572      585.4385     118.701967       0.51099
  14     243.0      466.4485       22.4498      560.7495      583.1994     116.750831       0.67672
  13     269.0      466.1344       24.6600      555.3947      580.0546     113.920284       0.91822
  12     297.5      465.8018       27.0123      548.9964      576.0087     110.206941       1.10134
  11     328.5      465.4622       29.5135      542.0895      571.6030     106.140836       1.10556
  10     361.9      465.1261       32.1597      534.6242      566.7839     101.657764       1.13426
   9     398.1      464.8087       34.9555      526.4204      561.3760      96.567294       1.18597
   8     437.6      464.5385       37.8997      517.3907      555.2904      90.751844       1.24338
   7     480.5      464.3473       40.9903      507.7216      548.7118      84.364521       1.25445
   6     533.0      464.2969       44.7063      495.9006      540.6070      76.310093       1.29570
   5     589.8      464.5823       48.6061      483.0788      531.6849      67.102607       1.36669
   4     651.6      465.6030       52.6765      468.6907      521.3671      55.764103       1.55057
   3     718.7      467.9427       56.9093      453.2257      510.1350      42.192385       1.70559
   2     792.3      473.1905       61.2822      436.4928      497.7751      24.584544       2.01942
   1     891.5      206.9761      221.9514        0.0000      221.9514      14.975262       0.81770
   0    1013.0      208.1085      220.2481        0.0000      220.2481      12.139618       0.19689



 Wavenumbers:  2600. -  3250. cm-1, ATM      1
 LEVEL PRESSURE   UPWARD FLUX   DIFDOWN FLUX  DIRDOWN FLUX  DOWNWARD FLUX   NET FLUX    HEATING RATE
          mb          W/m2          W/m2          W/m2        W/m2          W/m2       degree/day
  51    .06700        2.2145        0.0000        5.4450        5.4450       3.230562       0.00000
  50    .07753        2.2145        0.0000        5.4450        5.4450       3.230554       0.00640
  49    .09103        2.2145        0.0000        5.4450        5.4450       3.230544       0.00627
  48    0.1069        2.2145        0.0000        5.4450        5.4450       3.230533       0.00613
  47    0.1255        2.2145        0.0000        5.4450        5.4450       3.230520       0.00599
  46    0.1487        2.2145        0.0000        5.4450        5.4450       3.230503       0.00608
  45    0.1794        2.2145        0.0000        5.4450        5.4450       3.230480       0.00625
  44    0.2165        2.2145        0.0000        5.4449        5.4449       3.230453       0.00612
  43    0.2613        2.2145        0.0000        5.4449        5.4449       3.230421       0.00600
  42    0.3336        2.2145        0.0000        5.4448        5.4448       3.230368       0.00617
  41    0.4307        2.2145        0.0000        5.4448        5.4448       3.230297       0.00620
  40    0.5894        2.2145        0.0000        5.4446        5.4446       3.230177       0.00637
  39     1.339        2.2145        0.0000        5.4439        5.4439       3.229470       0.00797
  38     1.782        2.2145        0.0000        5.4434        5.4434       3.228927       0.01034
  37     2.292        2.2145        0.0000        5.4427        5.4427       3.228211       0.01186
  36     2.964        2.2145        0.0000        5.4416        5.4416       3.227172       0.01304
  35     3.853        2.2145        0.0000        5.4402        5.4402       3.225695       0.01402
  34     5.035        2.2145        0.0000        5.4381        5.4381       3.223639       0.01469
  33     6.613        2.2145        0.0000        5.4353        5.4353       3.220857       0.01487
  32     8.786        2.2145        0.0000        5.4317        5.4317       3.217224       0.01411
  31     11.80        2.2145        0.0000        5.4269        5.4269       3.212441       0.01339
  30     15.07        2.2145        0.0000        5.4224        5.4224       3.207911       0.01170
  29     18.79        2.2145        0.0000        5.4180        5.4180       3.203494       0.01001
  28     23.16        2.2145        0.0000        5.4135        5.4135       3.199001       0.00869
  27     28.12        2.2145        0.0000        5.4088        5.4088       3.194343       0.00792
  26     33.73        2.2145        0.0000        5.4036        5.4036       3.189087       0.00790
  25     40.54        2.2145        0.0000        5.3966        5.3967       3.182122       0.00864
  24     48.69        2.2146        0.0000        5.3872        5.3872       3.172610       0.00984
  23     57.69        2.2146        0.0000        5.3754        5.3754       3.160777       0.01109
  22     68.43        2.2147        0.0000        5.3599        5.3599       3.145218       0.01223
  21     81.20        2.2148        0.0000        5.3401        5.3401       3.125283       0.01317
  20     96.49        2.2150        0.0000        5.3155        5.3155       3.100574       0.01364
  19     114.6        2.2152        0.0001        5.2853        5.2854       3.070180       0.01419
  18     136.5        2.2155        0.0001        5.2504        5.2505       3.034996       0.01353
  17     162.9        2.2159        0.0001        5.2111        5.2112       2.995254       0.01270
  16     196.4        2.2166        0.0001        5.1640        5.1641       2.947500       0.01202
  15     218.7        2.2173        0.0001        5.1331        5.1332       2.915878       0.01201
  14     243.0        2.2185        0.0001        5.0962        5.0963       2.877823       0.01320
  13     269.0        2.2203        0.0001        5.0511        5.0512       2.830900       0.01522
  12     297.5        2.2231        0.0001        4.9956        4.9957       2.772675       0.01727
  11     328.5        2.2269        0.0001        4.9304        4.9305       2.703602       0.01878
  10     361.9        2.2322        0.0002        4.8511        4.8513       2.619027       0.02140
   9     398.1        2.2396        0.0002        4.7507        4.7509       2.511254       0.02511
   8     437.6        2.2499        0.0002        4.6220        4.6222       2.372330       0.02970
   7     480.5        2.2642        0.0002        4.4625        4.4627       2.198432       0.03415
   6     533.0        2.2878        0.0002        4.2460        4.2462       1.958461       0.03860
   5     589.8        2.3240        0.0002        3.9954        3.9956       1.671597       0.04258
   4     651.6        2.3846        0.0002        3.7089        3.7091       1.324503       0.04747
   3     718.7        2.4864        0.0002        3.4018        3.4021       0.915649       0.05138
   2     792.3        2.6763        0.0002        3.0564        3.0567       0.380343       0.06139
   1     891.5        0.2088        0.3200        0.0000        0.3200       0.111234       0.02290
   0    1013.0        0.2288        0.2881        0.0000        0.2881       0.059358       0.00360



 Wavenumbers:  3250. -  4000. cm-1, ATM      1
 LEVEL PRESSURE   UPWARD FLUX   DIFDOWN FLUX  DIRDOWN FLUX  DOWNWARD FLUX   NET FLUX    HEATING RATE
          mb          W/m2          W/m2          W/m2        W/m2          W/m2       degree/day
  51    .06700        0.0884        0.0000        9.1795        9.1795       9.091151       0.00000
  50    .07753        0.0884        0.0000        9.1747        9.1747       9.086308       3.88148
  49    .09103        0.0884        0.0000        9.1713        9.1713       9.082920       2.11747
  48    0.1069        0.0884        0.0000        9.1688        9.1688       9.080395       1.34402
  47    0.1255        0.0884        0.0000        9.1665        9.1665       9.078136       1.02422
  46    0.1487        0.0884        0.0000        9.1641        9.1641       9.075695       0.88991
  45    0.1794        0.0884        0.0000        9.1612        9.1612       9.072817       0.79008
  44    0.2165        0.0884        0.0000        9.1583        9.1583       9.069897       0.66430
  43    0.2613        0.0884        0.0000        9.1553        9.1553       9.066923       0.56041
  42    0.3336        0.0884        0.0000        9.1511        9.1511       9.062744       0.48723
  41    0.4307        0.0884        0.0000        9.1464        9.1464       9.057976       0.41459
  40    0.5894        0.0884        0.0000        9.1393        9.1394       9.050971       0.37255
  39     1.339        0.0884        0.0000        9.1127        9.1127       9.024357       0.29962
  38     1.782        0.0884        0.0000        9.1011        9.1011       9.012769       0.22062
  37     2.292        0.0884        0.0000        9.0901        9.0901       9.001702       0.18329
  36     2.964        0.0884        0.0000        9.0776        9.0776       8.989272       0.15603
  35     3.853        0.0884        0.0000        9.0629        9.0629       8.974482       0.14036
  34     5.035        0.0884        0.0000        9.0441        9.0441       8.955743       0.13386
  33     6.613        0.0884        0.0000        9.0191        9.0191       8.930742       0.13366
  32     8.786        0.0884        0.0000        8.9843        8.9843       8.895958       0.13509
  31     11.80        0.0884        0.0000        8.9327        8.9327       8.844342       0.14451
  30     15.07        0.0884        0.0000        8.8758        8.8759       8.787497       0.14676
  29     18.79        0.0884        0.0000        8.8110        8.8110       8.722670       0.14698
  28     23.16        0.0883        0.0000        8.7365        8.7366       8.648225       0.14395
  27     28.12        0.0883        0.0000        8.6554        8.6555       8.567112       0.13789
  26     33.73        0.0883        0.0000        8.5719        8.5719       8.483612       0.12554
  25     40.54        0.0883        0.0001        8.4812        8.4812       8.392888       0.11255
  24     48.69        0.0883        0.0001        8.3838        8.3839       8.295587       0.10069
  23     57.69        0.0883        0.0001        8.2861        8.2862       8.197851       0.09161
  22     68.43        0.0883        0.0001        8.1751        8.1751       8.086854       0.08726
  21     81.20        0.0883        0.0001        8.0457        8.0458       7.957496       0.08548
  20     96.49        0.0883        0.0001        7.8949        7.8951       7.806792       0.08318
  19     114.6        0.0882        0.0001        7.7162        7.7163       7.628082       0.08345
  18     136.5        0.0882        0.0002        7.5193        7.5195       7.431237       0.07569
  17     162.9        0.0882        0.0002        7.2913        7.2915       7.203343       0.07284
  16     196.4        0.0882        0.0002        6.9660        6.9662       6.878064       0.08188
  15     218.7        0.0882        0.0002        6.6648        6.6650       6.576860       0.11436
  14     243.0        0.0882        0.0002        6.2619        6.2622       6.174028       0.13972
  13     269.0        0.0882        0.0003        5.7576        5.7579       5.669639       0.16362
  12     297.5        0.0884        0.0003        5.1719        5.1722       5.083755       0.17377
  11     328.5        0.0887        0.0002        4.5757        4.5760       4.487260       0.16219
  10     361.9        0.0893        0.0002        3.9995        3.9998       3.910528       0.14592
   9     398.1        0.0902        0.0002        3.4655        3.4657       3.375559       0.12464
   8     437.6        0.0917        0.0002        2.9740        2.9743       2.882594       0.10540
   7     480.5        0.0941        0.0002        2.5307        2.5309       2.436766       0.08756
   6     533.0        0.0988        0.0002        2.0614        2.0616       1.962733       0.07626
   5     589.8        0.1075        0.0002        1.6150        1.6151       1.507646       0.06755
   4     651.6        0.1256        0.0001        1.1565        1.1566       1.031008       0.06518
   3     718.7        0.1655        0.0001        0.7390        0.7391       0.573580       0.05749
   2     792.3        0.2728        0.0001        0.3985        0.3985       0.125744       0.05136
   1     891.5        0.0000        0.0011        0.0000        0.0011       0.001111       0.01061
   0    1013.0        0.0001        0.0001        0.0000        0.0001       0.000024       0.00008



 Wavenumbers:  4000. -  4650. cm-1, ATM      1
 LEVEL PRESSURE   UPWARD FLUX   DIFDOWN FLUX  DIRDOWN FLUX  DOWNWARD FLUX   NET FLUX    HEATING RATE
          mb          W/m2          W/m2          W/m2        W/m2          W/m2       degree/day
  51    .06700        7.0747        0.0000       10.7795       10.7795       3.704794       0.00000
  50    .07753        7.0747        0.0000       10.7795       10.7795       3.704793       0.00080
  49    .09103        7.0747        0.0000       10.7795       10.7795       3.704792       0.00078
  48    0.1069        7.0747        0.0000       10.7795       10.7795       3.704791       0.00077
  47    0.1255        7.0747        0.0000       10.7795       10.7795       3.704789       0.00075
  46    0.1487        7.0747        0.0000       10.7795       10.7795       3.704787       0.00076
  45    0.1794        7.0747        0.0000       10.7795       10.7795       3.704784       0.00078
  44    0.2165        7.0747        0.0000       10.7795       10.7795       3.704781       0.00076
  43    0.2613        7.0747        0.0000       10.7795       10.7795       3.704777       0.00075
  42    0.3336        7.0747        0.0000       10.7795       10.7795       3.704770       0.00077
  41    0.4307        7.0747        0.0000       10.7795       10.7795       3.704761       0.00078
  40    0.5894        7.0747        0.0000       10.7795       10.7795       3.704746       0.00080
  39     1.339        7.0747        0.0000       10.7794       10.7794       3.704657       0.00101
  38     1.782        7.0747        0.0000       10.7793       10.7793       3.704587       0.00133
  37     2.292        7.0747        0.0000       10.7792       10.7792       3.704492       0.00156
  36     2.964        7.0747        0.0000       10.7791       10.7791       3.704351       0.00177
  35     3.853        7.0747        0.0000       10.7789       10.7789       3.704143       0.00198
  34     5.035        7.0747        0.0000       10.7786       10.7786       3.703835       0.00220
  33     6.613        7.0747        0.0000       10.7781       10.7781       3.703381       0.00242
  32     8.786        7.0747        0.0000       10.7774       10.7775       3.702712       0.00260
  31     11.80        7.0747        0.0001       10.7763       10.7764       3.701658       0.00295
  30     15.07        7.0747        0.0001       10.7751       10.7752       3.700422       0.00319
  29     18.79        7.0748        0.0001       10.7736       10.7737       3.698925       0.00339
  28     23.16        7.0748        0.0001       10.7717       10.7718       3.697065       0.00360
  27     28.12        7.0748        0.0001       10.7695       10.7696       3.694811       0.00383
  26     33.73        7.0748        0.0002       10.7667       10.7668       3.692027       0.00419
  25     40.54        7.0749        0.0002       10.7629       10.7631       3.688246       0.00469
  24     48.69        7.0750        0.0002       10.7579       10.7582       3.683199       0.00522
  23     57.69        7.0751        0.0003       10.7520       10.7523       3.677204       0.00562
  22     68.43        7.0753        0.0003       10.7446       10.7449       3.669673       0.00592
  21     81.20        7.0755        0.0004       10.7355       10.7359       3.660375       0.00614
  20     96.49        7.0759        0.0005       10.7245       10.7250       3.649026       0.00626
  19     114.6        7.0765        0.0006       10.7107       10.7113       3.634786       0.00665
  18     136.5        7.0773        0.0007       10.6942       10.6949       3.617564       0.00662
  17     162.9        7.0785        0.0008       10.6740       10.6748       3.596349       0.00678
  16     196.4        7.0804        0.0010       10.6464       10.6473       3.566898       0.00741
  15     218.7        7.0822        0.0011       10.6255       10.6266       3.544374       0.00855
  14     243.0        7.0847        0.0012       10.5980       10.5993       3.514582       0.01033
  13     269.0        7.0884        0.0014       10.5611       10.5624       3.474063       0.01314
  12     297.5        7.0937        0.0015       10.5119       10.5134       3.419682       0.01613
  11     328.5        7.1011        0.0016       10.4499       10.4515       3.350400       0.01884
  10     361.9        7.1108        0.0018       10.3702       10.3720       3.261201       0.02257
   9     398.1        7.1230        0.0020       10.2678       10.2697       3.146782       0.02666
   8     437.6        7.1386        0.0021       10.1390       10.1411       3.002507       0.03085
   7     480.5        7.1588        0.0023        9.9877        9.9900       2.831169       0.03365
   6     533.0        7.1903        0.0025        9.7937        9.7962       2.605912       0.03624
   5     589.8        7.2364        0.0028        9.5752        9.5779       2.341523       0.03924
   4     651.6        7.3121        0.0030        9.2958        9.2988       1.986715       0.04852
   3     718.7        7.4424        0.0032        8.9267        8.9299       1.487508       0.06274
   2     792.3        7.6967        0.0034        8.4542        8.4576       0.760887       0.08334
   1     891.5        1.0592        1.4348        0.0000        1.4348       0.375555       0.03279
   0    1013.0        1.0954        1.3796        0.0000        1.3796       0.284199       0.00634



 Wavenumbers:  4650. -  5150. cm-1, ATM      1
 LEVEL PRESSURE   UPWARD FLUX   DIFDOWN FLUX  DIRDOWN FLUX  DOWNWARD FLUX   NET FLUX    HEATING RATE
          mb          W/m2          W/m2          W/m2        W/m2          W/m2       degree/day
  51    .06700        5.1183        0.0000       10.2033       10.2033       5.085037       0.00000
  50    .07753        5.1183        0.0000       10.2031       10.2031       5.084801       0.18901
  49    .09103        5.1183        0.0000       10.2028       10.2028       5.084506       0.18428
  48    0.1069        5.1183        0.0000       10.2025       10.2025       5.084170       0.17931
  47    0.1255        5.1183        0.0000       10.2021       10.2021       5.083785       0.17426
  46    0.1487        5.1183        0.0000       10.2016       10.2016       5.083304       0.17536
  45    0.1794        5.1183        0.0000       10.2010       10.2010       5.082654       0.17850
  44    0.2165        5.1183        0.0000       10.2002       10.2002       5.081894       0.17277
  43    0.2613        5.1183        0.0000       10.1993       10.1993       5.081009       0.16690
  42    0.3336        5.1183        0.0000       10.1979       10.1979       5.079576       0.16702
  41    0.4307        5.1183        0.0000       10.1960       10.1960       5.077736       0.16002
  40    0.5894        5.1183        0.0000       10.1932       10.1932       5.074862       0.15283
  39     1.339        5.1183        0.0000       10.1816       10.1816       5.063270       0.13051
  38     1.782        5.1183        0.0000       10.1760       10.1760       5.057740       0.10527
  37     2.292        5.1183        0.0000       10.1706       10.1706       5.052283       0.09039
  36     2.964        5.1183        0.0000       10.1646       10.1647       5.046358       0.07437
  35     3.853        5.1183        0.0000       10.1584       10.1584       5.040141       0.05900
  34     5.035        5.1183        0.0000       10.1521       10.1521       5.033801       0.04529
  33     6.613        5.1183        0.0000       10.1456       10.1456       5.027336       0.03456
  32     8.786        5.1183        0.0001       10.1386       10.1386       5.020311       0.02728
  31     11.80        5.1183        0.0001       10.1295       10.1296       5.011244       0.02538
  30     15.07        5.1184        0.0001       10.1196       10.1197       5.001330       0.02560
  29     18.79        5.1184        0.0001       10.1076       10.1077       4.989273       0.02734
  28     23.16        5.1185        0.0002       10.0923       10.0924       4.973898       0.02973
  27     28.12        5.1186        0.0002       10.0731       10.0733       4.954707       0.03262
  26     33.73        5.1188        0.0002       10.0500       10.0503       4.931483       0.03492
  25     40.54        5.1190        0.0003       10.0201       10.0204       4.901396       0.03733
  24     48.69        5.1194        0.0004        9.9820        9.9823       4.862963       0.03977
  23     57.69        5.1198        0.0004        9.9384        9.9389       4.819089       0.04113
  22     68.43        5.1204        0.0005        9.8858        9.8862       4.765894       0.04182
  21     81.20        5.1212        0.0006        9.8234        9.8240       4.702862       0.04165
  20     96.49        5.1223        0.0007        9.7518        9.7525       4.630159       0.04013
  19     114.6        5.1238        0.0008        9.6719        9.6727       4.548888       0.03795
  18     136.5        5.1260        0.0010        9.5858        9.5868       4.460772       0.03388
  17     162.9        5.1290        0.0011        9.4940        9.4952       4.366212       0.03023
  16     196.4        5.1335        0.0014        9.3883        9.3896       4.256099       0.02772
  15     218.7        5.1371        0.0015        9.3229        9.3244       4.187297       0.02612
  14     243.0        5.1418        0.0017        9.2520        9.2536       4.111878       0.02616
  13     269.0        5.1480        0.0018        9.1717        9.1735       4.025532       0.02801
  12     297.5        5.1566        0.0020        9.0763        9.0783       3.921708       0.03079
  11     328.5        5.1678        0.0022        8.9650        8.9672       3.799366       0.03326
  10     361.9        5.1823        0.0024        8.8349        8.8373       3.655039       0.03652
   9     398.1        5.2011        0.0026        8.6820        8.6846       3.483535       0.03996
   8     437.6        5.2256        0.0028        8.5028        8.5056       3.280041       0.04351
   7     480.5        5.2575        0.0030        8.2948        8.2979       3.040345       0.04708
   6     533.0        5.3064        0.0033        8.0209        8.0242       2.717816       0.05188
   5     589.8        5.3746        0.0035        7.7063        7.7099       2.335284       0.05678
   4     651.6        5.4762        0.0038        7.3412        7.3450       1.868779       0.06380
   3     718.7        5.6317        0.0040        6.9387        6.9427       1.310957       0.07010
   2     792.3        5.8853        0.0042        6.5066        6.5108       0.625511       0.07861
   1     891.5        0.7178        0.9933        0.0000        0.9933       0.275543       0.02978
   0    1013.0        0.7500        0.9446        0.0000        0.9446       0.194592       0.00562



 Wavenumbers:  5150. -  6150. cm-1, ATM      1
 LEVEL PRESSURE   UPWARD FLUX   DIFDOWN FLUX  DIRDOWN FLUX  DOWNWARD FLUX   NET FLUX    HEATING RATE
          mb          W/m2          W/m2          W/m2        W/m2          W/m2       degree/day
  51    .06700       12.1056        0.0000       25.5798       25.5798      13.474178       0.00000
  50    .07753       12.1056        0.0000       25.5798       25.5798      13.474138       0.03163
  49    .09103       12.1056        0.0000       25.5797       25.5797      13.474087       0.03212
  48    0.1069       12.1056        0.0000       25.5797       25.5797      13.474026       0.03263
  47    0.1255       12.1056        0.0000       25.5796       25.5796      13.473953       0.03313
  46    0.1487       12.1056        0.0000       25.5795       25.5795      13.473857       0.03490
  45    0.1794       12.1056        0.0000       25.5794       25.5794      13.473722       0.03714
  44    0.2165       12.1056        0.0000       25.5792       25.5792      13.473556       0.03770
  43    0.2613       12.1056        0.0000       25.5790       25.5790      13.473353       0.03828
  42    0.3336       12.1056        0.0000       25.5786       25.5786      13.473006       0.04044
  41    0.4307       12.1056        0.0000       25.5782       25.5782      13.472534       0.04099
  40    0.5894       12.1056        0.0000       25.5774       25.5774      13.471745       0.04200
  39     1.339       12.1056        0.0000       25.5735       25.5736      13.467939       0.04284
  38     1.782       12.1056        0.0001       25.5713       25.5714      13.465723       0.04220
  37     2.292       12.1056        0.0001       25.5688       25.5688      13.463213       0.04156
  36     2.964       12.1056        0.0001       25.5656       25.5657      13.460024       0.04003
  35     3.853       12.1056        0.0001       25.5615       25.5616      13.455970       0.03848
  34     5.035       12.1057        0.0002       25.5562       25.5564      13.450746       0.03731
  33     6.613       12.1057        0.0002       25.5494       25.5496      13.443967       0.03624
  32     8.786       12.1057        0.0003       25.5406       25.5409      13.435178       0.03413
  31     11.80       12.1058        0.0004       25.5287       25.5291      13.423284       0.03330
  30     15.07       12.1058        0.0005       25.5167       25.5172      13.411346       0.03082
  29     18.79       12.1059        0.0006       25.5042       25.5048      13.398855       0.02832
  28     23.16       12.1060        0.0008       25.4907       25.4914      13.385385       0.02605
  27     28.12       12.1062        0.0009       25.4764       25.4774      13.371165       0.02417
  26     33.73       12.1064        0.0011       25.4620       25.4631      13.356726       0.02171
  25     40.54       12.1067        0.0013       25.4463       25.4476      13.340894       0.01964
  24     48.69       12.1071        0.0016       25.4294       25.4310      13.323879       0.01761
  23     57.69       12.1076        0.0019       25.4126       25.4145      13.306926       0.01589
  22     68.43       12.1082        0.0022       25.3944       25.3967      13.288454       0.01452
  21     81.20       12.1090        0.0026       25.3744       25.3771      13.268059       0.01348
  20     96.49       12.1100        0.0031       25.3519       25.3551      13.245075       0.01269
  19     114.6       12.1112        0.0037       25.3262       25.3299      13.218661       0.01233
  18     136.5       12.1128        0.0044       25.2962       25.3006      13.187863       0.01184
  17     162.9       12.1147        0.0053       25.2521       25.2574      13.142709       0.01443
  16     196.4       12.1173        0.0063       25.1593       25.1656      13.048376       0.02374
  15     218.7       12.1191        0.0070       25.0159       25.0230      12.903827       0.05488
  14     243.0       12.1214        0.0077       24.7089       24.7167      12.595219       0.10704
  13     269.0       12.1244        0.0084       24.1619       24.1703      12.045912       0.17819
  12     297.5       12.1284        0.0091       23.4544       23.4635      11.335138       0.21081
  11     328.5       12.1336        0.0099       22.7355       22.7453      10.611704       0.19670
  10     361.9       12.1406        0.0106       21.9224       21.9330       9.792461       0.20728
   9     398.1       12.1499        0.0113       20.9939       21.0052       8.855320       0.21833
   8     437.6       12.1629        0.0120       19.9833       19.9953       7.832414       0.21870
   7     480.5       12.1810        0.0127       18.9483       18.9610       6.779978       0.20669
   6     533.0       12.2118        0.0135       17.7796       17.7931       5.581243       0.19284
   5     589.8       12.2620        0.0143       16.6726       16.6868       4.424855       0.17165
   4     651.6       12.3543        0.0151       15.6343       15.6494       3.295053       0.15450
   3     718.7       12.5251        0.0160       14.7738       14.7897       2.264640       0.12949
   2     792.3       12.8739        0.0169       14.0291       14.0460       1.172115       0.12530
   1     891.5        2.0221        2.6622        0.0000        2.6622       0.640029       0.04528
   0    1013.0        2.0625        2.5976        0.0000        2.5976       0.535102       0.00729



 Wavenumbers:  6150. -  7700. cm-1, ATM      1
 LEVEL PRESSURE   UPWARD FLUX   DIFDOWN FLUX  DIRDOWN FLUX  DOWNWARD FLUX   NET FLUX    HEATING RATE
          mb          W/m2          W/m2          W/m2        W/m2          W/m2       degree/day
  51    .06700       19.5214        0.0000       47.3109       47.3109      27.789452       0.00000
  50    .07753       19.5214        0.0000       47.3108       47.3108      27.789396       0.04553
  49    .09103       19.5214        0.0000       47.3107       47.3107      27.789322       0.04583
  48    0.1069       19.5214        0.0000       47.3106       47.3106      27.789236       0.04614
  47    0.1255       19.5214        0.0000       47.3105       47.3105      27.789133       0.04645
  46    0.1487       19.5214        0.0000       47.3104       47.3104      27.789000       0.04852
  45    0.1794       19.5214        0.0000       47.3102       47.3102      27.788813       0.05127
  44    0.2165       19.5214        0.0000       47.3100       47.3100      27.788586       0.05167
  43    0.2613       19.5214        0.0000       47.3097       47.3097      27.788310       0.05210
  42    0.3336       19.5214        0.0000       47.3092       47.3092      27.787840       0.05471
  41    0.4307       19.5214        0.0000       47.3085       47.3086      27.787205       0.05521
  40    0.5894       19.5214        0.0001       47.3074       47.3075      27.786146       0.05633
  39     1.339       19.5213        0.0002       47.3022       47.3024      27.781054       0.05733
  38     1.782       19.5213        0.0002       47.2991       47.2994      27.778084       0.05655
  37     2.292       19.5212        0.0003       47.2956       47.2959      27.774708       0.05591
  36     2.964       19.5212        0.0004       47.2912       47.2916      27.770390       0.05421
  35     3.853       19.5211        0.0005       47.2855       47.2860      27.764855       0.05252
  34     5.035       19.5210        0.0007       47.2780       47.2787      27.757674       0.05130
  33     6.613       19.5209        0.0009       47.2683       47.2692      27.748286       0.05019
  32     8.786       19.5208        0.0012       47.2556       47.2567      27.735987       0.04777
  31     11.80       19.5205        0.0016       47.2380       47.2396      27.719082       0.04733
  30     15.07       19.5203        0.0020       47.2201       47.2221      27.701794       0.04464
  29     18.79       19.5200        0.0025       47.2008       47.2033      27.683313       0.04190
  28     23.16       19.5197        0.0031       47.1795       47.1826      27.662921       0.03943
  27     28.12       19.5193        0.0038       47.1565       47.1603      27.640924       0.03739
  26     33.73       19.5189        0.0045       47.1324       47.1369      27.618000       0.03447
  25     40.54       19.5184        0.0054       47.1054       47.1108      27.592359       0.03181
  24     48.69       19.5178        0.0065       47.0754       47.0819      27.564100       0.02924
  23     57.69       19.5172        0.0077       47.0449       47.0527      27.535471       0.02684
  22     68.43       19.5164        0.0091       47.0110       47.0201      27.503724       0.02496
  21     81.20       19.5155        0.0108       46.9729       46.9837      27.468217       0.02346
  20     96.49       19.5144        0.0129       46.9294       46.9422      27.427858       0.02228
  19     114.6       19.5131        0.0153       46.8790       46.8943      27.381198       0.02179
  18     136.5       19.5116        0.0181       46.8200       46.8381      27.326537       0.02102
  17     162.9       19.5098        0.0216       46.7361       46.7577      27.247846       0.02515
  16     196.4       19.5077        0.0260       46.5703       46.5962      27.088472       0.04012
  15     218.7       19.5066        0.0288       46.3473       46.3761      26.869490       0.08314
  14     243.0       19.5058        0.0318       45.9299       45.9617      26.455802       0.14348
  13     269.0       19.5060        0.0348       45.1708       45.2056      25.699539       0.24533
  12     297.5       19.5082        0.0378       44.0115       44.0492      24.541076       0.34359
  11     328.5       19.5129        0.0408       42.7242       42.7650      23.252157       0.35045
  10     361.9       19.5215        0.0439       41.3539       41.3978      21.876349       0.34809
   9     398.1       19.5362        0.0469       39.7953       39.8422      20.306017       0.36585
   8     437.6       19.5608        0.0498       37.9948       38.0446      18.483819       0.38960
   7     480.5       19.5999        0.0526       36.0647       36.1173      16.517423       0.38619
   6     533.0       19.6733        0.0557       33.7773       33.8330      14.159623       0.37930
   5     589.8       19.8013        0.0585       31.4082       31.4667      11.665339       0.37023
   4     651.6       20.0493        0.0608       28.8834       28.9442       8.894910       0.37886
   3     718.7       20.5290        0.0630       26.4104       26.4733       5.944352       0.37080
   2     792.3       21.5760        0.0647       24.0056       24.0703       2.494337       0.39568
   1     891.5        2.8220        3.8187        0.0000        3.8187       0.996663       0.12744
   0    1013.0        2.9126        3.6682        0.0000        3.6682       0.755656       0.01673



 Wavenumbers:  7700. -  8050. cm-1, ATM      1
 LEVEL PRESSURE   UPWARD FLUX   DIFDOWN FLUX  DIRDOWN FLUX  DOWNWARD FLUX   NET FLUX    HEATING RATE
          mb          W/m2          W/m2          W/m2        W/m2          W/m2       degree/day
  51    .06700        8.8294        0.0000       11.1810       11.1810       2.351572       0.00000
  50    .07753        8.8294        0.0000       11.1809       11.1809       2.351548       0.01927
  49    .09103        8.8294        0.0000       11.1809       11.1809       2.351517       0.01889
  48    0.1069        8.8294        0.0000       11.1809       11.1809       2.351483       0.01849
  47    0.1255        8.8294        0.0000       11.1809       11.1809       2.351443       0.01809
  46    0.1487        8.8294        0.0000       11.1808       11.1808       2.351392       0.01836
  45    0.1794        8.8295        0.0000       11.1808       11.1808       2.351324       0.01889
  44    0.2165        8.8295        0.0000       11.1807       11.1807       2.351242       0.01853
  43    0.2613        8.8295        0.0000       11.1806       11.1806       2.351146       0.01819
  42    0.3336        8.8295        0.0000       11.1805       11.1805       2.350986       0.01861
  41    0.4307        8.8296        0.0000       11.1803       11.1804       2.350774       0.01841
  40    0.5894        8.8297        0.0000       11.1801       11.1801       2.350429       0.01839
  39     1.339        8.8301        0.0001       11.1788       11.1789       2.348793       0.01842
  38     1.782        8.8303        0.0001       11.1781       11.1782       2.347832       0.01829
  37     2.292        8.8306        0.0001       11.1772       11.1773       2.346719       0.01842
  36     2.964        8.8310        0.0002       11.1761       11.1763       2.345259       0.01834
  35     3.853        8.8315        0.0002       11.1746       11.1748       2.343329       0.01831
  34     5.035        8.8321        0.0003       11.1726       11.1729       2.340766       0.01831
  33     6.613        8.8330        0.0004       11.1700       11.1704       2.337341       0.01831
  32     8.786        8.8342        0.0005       11.1664       11.1669       2.332727       0.01792
  31     11.80        8.8359        0.0007       11.1613       11.1620       2.326129       0.01847
  30     15.07        8.8377        0.0009       11.1558       11.1568       2.319048       0.01828
  29     18.79        8.8398        0.0012       11.1497       11.1509       2.311054       0.01813
  28     23.16        8.8422        0.0014       11.1425       11.1439       2.301724       0.01804
  27     28.12        8.8450        0.0017       11.1343       11.1361       2.291066       0.01812
  26     33.73        8.8481        0.0021       11.1252       11.1273       2.279154       0.01791
  25     40.54        8.8519        0.0025       11.1142       11.1167       2.264786       0.01783
  24     48.69        8.8565        0.0030       11.1010       11.1040       2.247500       0.01789
  23     57.69        8.8616        0.0036       11.0866       11.0902       2.228559       0.01775
  22     68.43        8.8677        0.0042       11.0695       11.0738       2.206064       0.01768
  21     81.20        8.8750        0.0050       11.0494       11.0544       2.179358       0.01765
  20     96.49        8.8838        0.0060       11.0255       11.0315       2.147667       0.01749
  19     114.6        8.8944        0.0071       10.9975       11.0046       2.110222       0.01748
  18     136.5        8.9071        0.0084       10.9648       10.9732       2.066089       0.01697
  17     162.9        8.9224        0.0100       10.9263       10.9363       2.013862       0.01669
  16     196.4        8.9426        0.0120       10.8773       10.8893       1.946621       0.01693
  15     218.7        8.9562        0.0133       10.8455       10.8589       1.902702       0.01667
  14     243.0        8.9711        0.0148       10.8114       10.8262       1.855109       0.01651
  13     269.0        8.9876        0.0163       10.7749       10.7912       1.803607       0.01671
  12     297.5        9.0059        0.0180       10.7357       10.7537       1.747887       0.01653
  11     328.5        9.0261        0.0199       10.6937       10.7136       1.687531       0.01641
  10     361.9        9.0485        0.0218       10.6489       10.6707       1.622205       0.01653
   9     398.1        9.0735        0.0240       10.6008       10.6247       1.551252       0.01653
   8     437.6        9.1015        0.0262       10.5491       10.5753       1.473852       0.01655
   7     480.5        9.1329        0.0287       10.4934       10.5221       1.389222       0.01662
   6     533.0        9.1739        0.0317       10.4243       10.4560       1.282068       0.01724
   5     589.8        9.2217        0.0349       10.3479       10.3828       1.161081       0.01796
   4     651.6        9.2792        0.0384       10.2613       10.2997       1.020552       0.01922
   3     718.7        9.3496        0.0421       10.1618       10.2038       0.854158       0.02091
   2     792.3        9.4395        0.0460       10.0439       10.0898       0.650359       0.02337
   1     891.5        1.6213        2.1245        0.0000        2.1245       0.503198       0.01252
   0    1013.0        1.6534        2.0823        0.0000        2.0823       0.428960       0.00515



 Wavenumbers:  8050. - 12850. cm-1, ATM      1
 LEVEL PRESSURE   UPWARD FLUX   DIFDOWN FLUX  DIRDOWN FLUX  DOWNWARD FLUX   NET FLUX    HEATING RATE
          mb          W/m2          W/m2          W/m2        W/m2          W/m2       degree/day
  51    .06700      115.8642        0.0000      156.5418      156.5418      40.677529       0.00000
  50    .07753      115.8642        0.0000      156.5417      156.5417      40.677529      -0.00000
  49    .09103      115.8642        0.0001      156.5417      156.5417      40.677529       0.00000
  48    0.1069      115.8642        0.0001      156.5416      156.5417      40.677529      -0.00000
  47    0.1255      115.8642        0.0002      156.5415      156.5417      40.677529       0.00000
  46    0.1487      115.8641        0.0002      156.5414      156.5417      40.677529       0.00000
  45    0.1794      115.8641        0.0003      156.5413      156.5416      40.677529      -0.00000
  44    0.2165      115.8641        0.0005      156.5412      156.5416      40.677529       0.00000
  43    0.2613      115.8640        0.0006      156.5410      156.5416      40.677529      -0.00000
  42    0.3336      115.8640        0.0008      156.5407      156.5415      40.677529       0.00000
  41    0.4307      115.8639        0.0011      156.5403      156.5414      40.677529      -0.00000
  40    0.5894      115.8637        0.0016      156.5397      156.5413      40.677529       0.00000
  39     1.339      115.8630        0.0038      156.5367      156.5406      40.677529      -0.00000
  38     1.782      115.8626        0.0052      156.5350      156.5402      40.677529      -0.00000
  37     2.292      115.8622        0.0067      156.5330      156.5397      40.677529      -0.00000
  36     2.964      115.8616        0.0087      156.5303      156.5391      40.677529       0.00000
  35     3.853      115.8607        0.0114      156.5268      156.5383      40.677529       0.00000
  34     5.035      115.8597        0.0150      156.5222      156.5372      40.677529      -0.00000
  33     6.613      115.8582        0.0197      156.5160      156.5357      40.677529       0.00000
  32     8.786      115.8562        0.0261      156.5076      156.5338      40.677529      -0.00000
  31     11.80      115.8534        0.0353      156.4957      156.5310      40.677529       0.00000
  30     15.07      115.8504        0.0452      156.4828      156.5280      40.677529       0.00000
  29     18.79      115.8470        0.0563      156.4682      156.5246      40.677529      -0.00000
  28     23.16      115.8430        0.0694      156.4512      156.5206      40.677529       0.00000
  27     28.12      115.8385        0.0843      156.4317      156.5160      40.677529      -0.00000
  26     33.73      115.8334        0.1010      156.4099      156.5109      40.677529       0.00000
  25     40.54      115.8272        0.1213      156.3834      156.5047      40.677529       0.00000
  24     48.69      115.8197        0.1457      156.3515      156.4973      40.677529      -0.00000
  23     57.69      115.8115        0.1726      156.3164      156.4890      40.677529       0.00000
  22     68.43      115.8017        0.2047      156.2746      156.4792      40.677529       0.00000
  21     81.20      115.7900        0.2430      156.2246      156.4676      40.677529      -0.00000
  20     96.49      115.7761        0.2887      156.1649      156.4536      40.677529       0.00000
  19     114.6      115.7597        0.3430      156.0879      156.4310      40.671226       0.00294
  18     136.5      115.7403        0.4076      155.9962      156.4037      40.663413       0.00300
  17     162.9      115.7172        0.4846      155.8831      156.3677      40.650467       0.00414
  16     196.4      115.6874        0.5848      155.7199      156.3048      40.617375       0.00833
  15     218.7      115.6683        0.6507      155.5733      156.2240      40.555701       0.02342
  14     243.0      115.6490        0.7224      155.3367      156.0590      40.410008       0.05053
  13     269.0      115.6315        0.7999      154.9514      155.7513      40.119761       0.09415
  12     297.5      115.6192        0.8833      154.3896      155.2730      39.653776       0.13821
  11     328.5      115.6142        0.9734      153.7151      154.6885      39.074247       0.15757
  10     361.9      115.6213        1.0700      152.9087      153.9788      38.357523       0.18134
   9     398.1      115.6479        1.1735      151.8986      153.0721      37.424155       0.21745
   8     437.6      115.7074        1.2835      150.6031      151.8867      36.179297       0.26616
   7     480.5      115.8157        1.4000      149.0014      150.4014      34.585685       0.31298
   6     533.0      116.0338        1.5410      146.7375      148.2785      32.244693       0.37659
   5     589.8      116.4275        1.6888      143.8730      145.5618      29.134232       0.46169
   4     651.6      117.1939        1.8405      140.0955      141.9360      24.742100       0.60064
   3     718.7      118.6321        1.9945      135.5278      137.5222      18.890084       0.73544
   2     792.3      121.5181        2.1468      130.0690      132.2158      10.697662       0.93958
   1     891.5       18.8758       24.9965        0.0000       24.9965       6.120677       0.38948
   0    1013.0       19.3091       24.3187        0.0000       24.3187       5.009658       0.07714



 Wavenumbers: 12850. - 16000. cm-1, ATM      1
 LEVEL PRESSURE   UPWARD FLUX   DIFDOWN FLUX  DIRDOWN FLUX  DOWNWARD FLUX   NET FLUX    HEATING RATE
          mb          W/m2          W/m2          W/m2        W/m2          W/m2       degree/day
  51    .06700       82.2332        0.0000       98.0872       98.0872      15.854051       0.00000
  50    .07753       82.2332        0.0001       98.0864       98.0864      15.853257       0.63591
  49    .09103       82.2332        0.0002       98.0853       98.0855      15.852261       0.62303
  48    0.1069       82.2332        0.0003       98.0841       98.0843      15.851115       0.60993
  47    0.1255       82.2332        0.0004       98.0826       98.0830      15.849798       0.59715
  46    0.1487       82.2333        0.0005       98.0809       98.0814      15.848134       0.60633
  45    0.1794       82.2333        0.0007       98.0784       98.0792      15.845870       0.62161
  44    0.2165       82.2334        0.0010       98.0756       98.0766      15.843204       0.60638
  43    0.2613       82.2335        0.0013       98.0723       98.0736      15.840067       0.59141
  42    0.3336       82.2338        0.0017       98.0670       98.0688      15.834940       0.59771
  41    0.4307       82.2343        0.0024       98.0602       98.0626      15.828302       0.57716
  40    0.5894       82.2352        0.0034       98.0496       98.0530      15.817823       0.55729
  39     1.339       82.2426        0.0083       98.0043       98.0127      15.770018       0.53819
  38     1.782       82.2493        0.0112       97.9793       97.9905      15.741112       0.55032
  37     2.292       82.2593        0.0145       97.9498       97.9643      15.704969       0.59863
  36     2.964       82.2757        0.0189       97.9088       97.9277      15.651943       0.66563
  35     3.853       82.3021        0.0246       97.8503       97.8750      15.572816       0.75093
  34     5.035       82.3419        0.0323       97.7680       97.8003      15.458394       0.81738
  33     6.613       82.3973        0.0425       97.6562       97.6987      15.301376       0.83942
  32     8.786       82.4695        0.0562       97.5107       97.5669      15.097408       0.79213
  31     11.80       82.5636        0.0759       97.3179       97.3937      14.830138       0.74827
  30     15.07       82.6539        0.0969       97.1283       97.2253      14.571348       0.66814
  29     18.79       82.7463        0.1207       96.9300       97.0507      14.304411       0.60523
  28     23.16       82.8432        0.1485       96.7166       96.8651      14.021878       0.54633
  27     28.12       82.9410        0.1802       96.4935       96.6737      13.732749       0.49150
  26     33.73       83.0318        0.2157       96.2731       96.4888      13.456997       0.41460
  25     40.54       83.1202        0.2587       96.0408       96.2994      13.179286       0.34453
  24     48.69       83.2058        0.3104       95.7946       96.1050      12.899206       0.28984
  23     57.69       83.2797        0.3673       95.5573       95.9245      12.644863       0.23841
  22     68.43       83.3459        0.4350       95.3106       95.7456      12.399728       0.19271
  21     81.20       83.3949        0.5159       95.0643       95.5802      12.185272       0.14171
  20     96.49       83.4258        0.6123       94.8153       95.4276      12.001810       0.10126
  19     114.6       83.4595        0.7279       94.5411       95.2689      11.809419       0.08983
  18     136.5       83.4880        0.8648       94.2320       95.0969      11.608856       0.07712
  17     162.9       83.5116        1.0279       93.8753       94.9033      11.391628       0.06943
  16     196.4       83.5201        1.2395       93.4347       94.6741      11.154081       0.05979
  15     218.7       83.5179        1.3784       93.1513       94.5297      11.011794       0.05402
  14     243.0       83.5126        1.5294       92.8439       94.3734      10.860751       0.05239
  13     269.0       83.5044        1.6931       92.5111       94.2042      10.699774       0.05222
  12     297.5       83.4943        1.8699       92.1495       94.0194      10.525079       0.05181
  11     328.5       83.4847        2.0610       91.7554       93.8164      10.331650       0.05259
  10     361.9       83.4772        2.2667       91.3262       93.5929      10.115735       0.05463
   9     398.1       83.4739        2.4880       90.8575       93.3455       9.871664       0.05686
   8     437.6       83.4791        2.7255       90.3418       93.0673       9.588172       0.06061
   7     480.5       83.4973        2.9798       89.7728       92.7526       9.255301       0.06537
   6     533.0       83.5435        3.2925       89.0428       92.3353       8.791755       0.07457
   5     589.8       83.6367        3.6283       88.2038       91.8321       8.195427       0.08851
   4     651.6       83.8239        3.9867       87.1979       91.1846       7.360743       0.11415
   3     718.7       84.1437        4.3664       86.0161       90.3825       6.238850       0.14099
   2     792.3       84.7081        4.7635       84.5970       89.3605       4.652460       0.18194
   1     891.5       27.7463       31.2493        0.0000       31.2493       3.502975       0.09782
   0    1013.0       28.0175       30.9005        0.0000       30.9005       2.883019       0.04305



 Wavenumbers: 16000. - 22650. cm-1, ATM      1
 LEVEL PRESSURE   UPWARD FLUX   DIFDOWN FLUX  DIRDOWN FLUX  DOWNWARD FLUX   NET FLUX    HEATING RATE
          mb          W/m2          W/m2          W/m2        W/m2          W/m2       degree/day
  51    .06700      141.0513        0.0000      156.3892      156.3892      15.337975       0.00000
  50    .07753      141.0512        0.0004      156.3887      156.3891      15.337827       0.11846
  49    .09103      141.0512        0.0009      156.3879      156.3888      15.337613       0.13436
  48    0.1069      141.0512        0.0015      156.3871      156.3885      15.337325       0.15322
  47    0.1255      141.0512        0.0021      156.3861      156.3882      15.336939       0.17465
  46    0.1487      141.0513        0.0030      156.3847      156.3877      15.336372       0.20695
  45    0.1794      141.0514        0.0041      156.3828      156.3869      15.335484       0.24367
  44    0.2165      141.0516        0.0054      156.3805      156.3859      15.334280       0.27386
  43    0.2613      141.0520        0.0070      156.3776      156.3846      15.332647       0.30789
  42    0.3336      141.0528        0.0097      156.3726      156.3823      15.329541       0.36207
  41    0.4307      141.0540        0.0131      156.3657      156.3789      15.324860       0.40700
  40    0.5894      141.0566        0.0188      156.3537      156.3725      15.315933       0.47475
  39     1.339      141.0793        0.0458      156.2834      156.3293      15.249975       0.74256
  38     1.782      141.1002        0.0617      156.2324      156.2940      15.193788       1.06973
  37     2.292      141.1317        0.0800      156.1641      156.2441      15.112455       1.34708
  36     2.964      141.1839        0.1041      156.0605      156.1646      14.980695       1.65398
  35     3.853      141.2683        0.1359      155.9041      156.0399      14.771625       1.98412
  34     5.035      141.3957        0.1780      155.6774      155.8554      14.459706       2.22821
  33     6.613      141.5737        0.2343      155.3656      155.5999      14.026229       2.31737
  32     8.786      141.8055        0.3100      154.9577      155.2677      13.462174       2.19059
  31     11.80      142.1072        0.4182      154.4153      154.8335      12.726223       2.06043
  30     15.07      142.3963        0.5342      153.8804      154.4145      12.018257       1.82783
  29     18.79      142.6914        0.6650      153.3191      153.9841      11.292652       1.64517
  28     23.16      142.9999        0.8175      152.7126      153.5301      10.530222       1.47429
  27     28.12      143.3102        0.9917      152.0755      153.0672       9.756984       1.31445
  26     33.73      143.5967        1.1865      151.4409      152.6274       9.030676       1.09202
  25     40.54      143.8724        1.4216      150.7637      152.1853       8.312817       0.89059
  24     48.69      144.1364        1.7047      150.0338      151.7385       7.602120       0.73546
  23     57.69      144.3602        2.0153      149.3151      151.3304       6.970233       0.59230
  22     68.43      144.5554        2.3849      148.5476      150.9325       6.377055       0.46632
  21     81.20      144.6902        2.8249      147.7517      150.5765       5.886354       0.32425
  20     96.49      144.7600        3.3486      146.9127      150.2613       5.501275       0.21254
  19     114.6      144.7961        3.9687      145.9763      149.9450       5.148899       0.16454
  18     136.5      144.8075        4.7010      144.9088      149.6097       4.802250       0.13329
  17     162.9      144.7924        5.5688      143.6785      149.2474       4.455008       0.11099
  16     196.4      144.7110        6.6886      142.1651      148.8537       4.142695       0.07861
  15     218.7      144.6349        7.4204      141.2033      148.6237       3.988826       0.05842
  14     243.0      144.5418        8.2124      140.1753      148.3877       3.845892       0.04957
  13     269.0      144.4302        9.0668      139.0797      148.1465       3.716281       0.04205
  12     297.5      144.2995        9.9858      137.9141      147.8998       3.600337       0.03439
  11     328.5      144.1537       10.9735      136.6676      147.6410       3.487389       0.03071
  10     361.9      143.9925       12.0309      135.3392      147.3700       3.377544       0.02779
   9     398.1      143.8156       13.1620      133.9235      147.0855       3.269848       0.02509
   8     437.6      143.6240       14.3689      132.4163      146.7851       3.161061       0.02326
   7     480.5      143.4175       15.6536      130.8147      146.4683       3.050795       0.02166
   6     533.0      143.1640       17.2228      128.8599      146.0827       2.918769       0.02124
   5     589.8      142.8956       18.8994      126.7679      145.6674       2.771729       0.02183
   4     651.6      142.6199       20.6850      124.5274      145.2125       2.592554       0.02450
   3     718.7      142.3441       22.5814      122.1285      144.7099       2.365732       0.02851
   2     792.3      142.0873       24.5863      119.5548      144.1411       2.053877       0.03577
   1     891.5      102.2930      103.9936        0.0000      103.9936       1.700579       0.03006
   0    1013.0      102.4634      103.7815        0.0000      103.7815       1.318024       0.02656



 Wavenumbers: 22650. - 29000. cm-1, ATM      1
 LEVEL PRESSURE   UPWARD FLUX   DIFDOWN FLUX  DIRDOWN FLUX  DOWNWARD FLUX   NET FLUX    HEATING RATE
          mb          W/m2          W/m2          W/m2        W/m2          W/m2       degree/day
  51    .06700       58.4636        0.0000       59.0156       59.0156       0.552021       0.00000
  50    .07753       58.4635        0.0005       59.0151       59.0155       0.552021      -0.00000
  49    .09103       58.4634        0.0010       59.0144       59.0154       0.552021       0.00000
  48    0.1069       58.4633        0.0017       59.0136       59.0153       0.552021      -0.00000
  47    0.1255       58.4631        0.0025       59.0127       59.0151       0.552021       0.00000
  46    0.1487       58.4629        0.0034       59.0115       59.0149       0.552021      -0.00000
  45    0.1794       58.4627        0.0048       59.0099       59.0147       0.552021       0.00000
  44    0.2165       58.4624        0.0063       59.0080       59.0144       0.552021      -0.00000
  43    0.2613       58.4620        0.0082       59.0058       59.0140       0.552021      -0.00000
  42    0.3336       58.4614        0.0113       59.0022       59.0134       0.552021       0.00000
  41    0.4307       58.4606        0.0153       58.9973       59.0126       0.552021       0.00000
  40    0.5894       58.4593        0.0220       58.9894       59.0113       0.552021       0.00000
  39     1.339       58.4532        0.0534       58.9518       59.0052       0.552021       0.00000
  38     1.782       58.4496        0.0719       58.9297       59.0016       0.552021      -0.00000
  37     2.292       58.4455        0.0933       58.9042       58.9975       0.552021       0.00000
  36     2.964       58.4400        0.1214       58.8706       58.9920       0.552021      -0.00000
  35     3.853       58.4328        0.1584       58.8264       58.9848       0.552021       0.00000
  34     5.035       58.4232        0.2077       58.7676       58.9753       0.552021       0.00000
  33     6.613       58.4105        0.2734       58.6891       58.9625       0.552021      -0.00000
  32     8.786       58.3933        0.3619       58.5834       58.9453       0.552021       0.00000
  31     11.80       58.3687        0.4883       58.4324       58.9207       0.552021      -0.00000
  30     15.07       58.3424        0.6237       58.2706       58.8944       0.552021      -0.00000
  29     18.79       58.3127        0.7765       58.0882       58.8647       0.552021      -0.00000
  28     23.16       58.2781        0.9544       57.8757       58.8301       0.552021       0.00000
  27     28.12       58.2386        1.1573       57.6333       58.7907       0.552021      -0.00000
  26     33.73       58.1947        1.3836       57.3631       58.7467       0.552021       0.00000
  25     40.54       58.1417        1.6558       57.0379       58.6937       0.552021      -0.00000
  24     48.69       58.0782        1.9824       56.6479       58.6302       0.552021       0.00000
  23     57.69       58.0089        2.3388       56.2221       58.5609       0.552021       0.00000
  22     68.43       57.9269        2.7603       55.7186       58.4789       0.552021       0.00000
  21     81.20       57.8300        3.2581       55.1239       58.3820       0.552021       0.00000
  20     96.49       57.7157        3.8449       54.4228       58.2677       0.552021       0.00000
  19     114.6       57.5818        4.5328       53.6010       58.1338       0.552021       0.00000
  18     136.5       57.4253        5.3356       52.6418       57.9774       0.552021       0.00000
  17     162.9       57.2424        6.2740       51.5203       57.7944       0.552021      -0.00000
  16     196.4       57.0104        7.4630       50.0994       57.5624       0.552021       0.00000
  15     218.7       56.8612        8.2270       49.1863       57.4132       0.552021      -0.00000
  14     243.0       56.7019        9.0426       48.2113       57.2539       0.552021       0.00000
  13     269.0       56.5324        9.9095       47.1749       57.0844       0.552021       0.00000
  12     297.5       56.3530       10.8267       46.0783       56.9050       0.552021       0.00000
  11     328.5       56.1633       11.7957       44.9195       56.7153       0.552021      -0.00000
  10     361.9       55.9637       12.8139       43.7018       56.5158       0.552021       0.00000
   9     398.1       55.7543       13.8813       42.4250       56.3064       0.552021       0.00000
   8     437.6       55.5355       14.9959       41.0916       56.0875       0.552021       0.00000
   7     480.5       55.3075       16.1551       39.7045       55.8596       0.552021       0.00000
   6     533.0       55.0360       17.5338       38.0543       55.5881       0.552021      -0.00000
   5     589.8       54.7541       18.9631       36.3431       55.3061       0.552021      -0.00000
   4     651.6       54.4630       20.4355       34.5795       55.0151       0.552021       0.00000
   3     718.7       54.1638       21.9456       32.7702       54.7159       0.552021       0.00000
   2     792.3       53.8581       23.4846       30.9256       54.4101       0.552021       0.00000
   1     891.5       42.7175       43.2667        0.0000       43.2667       0.549244       0.00024
   0    1013.0       42.6983       43.2476        0.0000       43.2476       0.549244       0.00000



 Wavenumbers: 29000. - 38000. cm-1, ATM      1
 LEVEL PRESSURE   UPWARD FLUX   DIFDOWN FLUX  DIRDOWN FLUX  DOWNWARD FLUX   NET FLUX    HEATING RATE
          mb          W/m2          W/m2          W/m2        W/m2          W/m2       degree/day
  51    .06700        8.7581        0.0000       20.8114       20.8114      12.053261       0.00000
  50    .07753        8.7579        0.0003       20.8070       20.8074      12.049454       3.05157
  49    .09103        8.7577        0.0007       20.8009       20.8016      12.043916       3.46087
  48    0.1069        8.7574        0.0012       20.7928       20.7939      12.036507       3.94431
  47    0.1255        8.7571        0.0017       20.7820       20.7837      12.026602       4.49037
  46    0.1487        8.7568        0.0024       20.7665       20.7688      12.012038       5.30847
  45    0.1794        8.7563        0.0033       20.7424       20.7457      11.989374       6.22208
  44    0.2165        8.7558        0.0044       20.7103       20.7147      11.958851       6.94345
  43    0.2613        8.7552        0.0056       20.6675       20.6731      11.917856       7.72738
  42    0.3336        8.7544        0.0077       20.5880       20.5956      11.841294       8.92631
  41    0.4307        8.7533        0.0104       20.4722       20.4826      11.729341       9.73409
  40    0.5894        8.7517        0.0147       20.2637       20.2784      11.526655      10.77855
  39     1.339        8.7483        0.0331       19.0984       19.1315      10.383167      12.87361
  38     1.782        8.7488        0.0427       18.4394       18.4821       9.733232      12.37370
  37     2.292        8.7515        0.0530       17.7714       17.8244       9.072873      10.93727
  36     2.964        8.7581        0.0657       17.0421       17.1078       8.349725       9.07769
  35     3.853        8.7709        0.0816       16.2678       16.3495       7.578507       7.31900
  34     5.035        8.7921        0.1018       15.4803       15.5821       6.789954       5.63310
  33     6.613        8.8230        0.1275       14.7157       14.8432       6.020285       4.11465
  32     8.786        8.8637        0.1613       13.9936       14.1549       5.291216       2.83144
  31     11.80        8.9168        0.2084       13.2835       13.4919       4.575082       2.00495
  30     15.07        8.9681        0.2572       12.7394       12.9965       4.028424       1.41136
  29     18.79        9.0211        0.3113       12.2666       12.5779       3.556768       1.06939
  28     23.16        9.0774        0.3728       11.8300       12.2028       3.125381       0.83416
  27     28.12        9.1352        0.4417       11.4279       11.8696       2.734404       0.66463
  26     33.73        9.1885        0.5176       11.0695       11.5871       2.398597       0.50489
  25     40.54        9.2391        0.6084       10.7209       11.3292       2.090096       0.38273
  24     48.69        9.2870        0.7160       10.3742       11.0902       1.803168       0.29693
  23     57.69        9.3264        0.8325       10.0549       10.8874       1.561038       0.22696
  22     68.43        9.3583        0.9692        9.7327       10.7019       1.343614       0.17092
  21     81.20        9.3738        1.1306        9.4134       10.5440       1.170197       0.11459
  20     96.49        9.3709        1.3204        9.0887       10.4091       1.038153       0.07288
  19     114.6        9.3578        1.5396        8.7388       10.2784       0.920587       0.05489
  18     136.5        9.3374        1.7903        8.3549       10.1452       0.807749       0.04339
  17     162.9        9.3099        2.0760        7.9311       10.0072       0.697231       0.03533
  16     196.4        9.2634        2.4300        7.4333        9.8633       0.599919       0.02449
  15     218.7        9.2298        2.6526        7.1295        9.7822       0.552443       0.01802
  14     243.0        9.1929        2.8854        6.8161        9.7015       0.508593       0.01521
  13     269.0        9.1526        3.1275        6.4943        9.6218       0.469209       0.01278
  12     297.5        9.1089        3.3777        6.1657        9.5434       0.434481       0.01030
  11     328.5        9.0633        3.6351        5.8295        9.4645       0.401223       0.00904
  10     361.9        9.0163        3.8972        5.4886        9.3859       0.369584       0.00801
   9     398.1        8.9679        4.1635        5.1440        9.3075       0.339590       0.00699
   8     437.6        8.9187        4.4325        4.7969        9.2294       0.310666       0.00618
   7     480.5        8.8691        4.7019        4.4504        9.1523       0.283200       0.00539
   6     533.0        8.8122        5.0092        4.0563        9.0654       0.253245       0.00482
   5     589.8        8.7562        5.3122        3.6682        8.9804       0.224228       0.00431
   4     651.6        8.7020        5.6073        3.2905        8.8978       0.195823       0.00388
   3     718.7        8.6500        5.8928        2.9252        8.8180       0.167985       0.00350
   2     792.3        8.6012        6.1655        2.5764        8.7419       0.140718       0.00313
   1     891.5        6.7789        6.8919        0.0000        6.8919       0.113016       0.00236
   0    1013.0        6.7844        6.8716        0.0000        6.8716       0.087270       0.00179



 Wavenumbers: 38000. - 50000. cm-1, ATM      1
 LEVEL PRESSURE   UPWARD FLUX   DIFDOWN FLUX  DIRDOWN FLUX  DOWNWARD FLUX   NET FLUX    HEATING RATE
          mb          W/m2          W/m2          W/m2        W/m2          W/m2       degree/day
  51    .06700        0.0061        0.0000        1.2836        1.2836       1.277518       0.00000
  50    .07753        0.0061        0.0001        1.2812        1.2812       1.275183       1.87150
  49    .09103        0.0060        0.0002        1.2777        1.2778       1.271851       2.08247
  48    0.1069        0.0059        0.0002        1.2731        1.2734       1.267473       2.33059
  47    0.1255        0.0058        0.0004        1.2672        1.2675       1.261717       2.60908
  46    0.1487        0.0057        0.0005        1.2586        1.2591       1.253391       3.03499
  45    0.1794        0.0055        0.0007        1.2455        1.2462       1.240623       3.50520
  44    0.2165        0.0054        0.0009        1.2282        1.2291       1.223697       3.85037
  43    0.2613        0.0052        0.0011        1.2054        1.2065       1.201348       4.21261
  42    0.3336        0.0049        0.0015        1.1639        1.1654       1.160524       4.75970
  41    0.4307        0.0045        0.0020        1.1051        1.1070       1.102565       5.03943
  40    0.5894        0.0039        0.0026        1.0039        1.0064       1.002524       5.32007
  39     1.339        0.0022        0.0035        0.5438        0.5473       0.545104       5.14971
  38     1.782        0.0016        0.0032        0.3635        0.3666       0.365006       3.42879
  37     2.292        0.0012        0.0027        0.2356        0.2383       0.237058       2.11916
  36     2.964        0.0009        0.0022        0.1455        0.1477       0.146786       1.13318
  35     3.853        0.0006        0.0017        0.0858        0.0875       0.086906       0.56828
  34     5.035        0.0004        0.0013        0.0488        0.0501       0.049701       0.26578
  33     6.613        0.0003        0.0010        0.0273        0.0282       0.027974       0.11615
  32     8.786        0.0002        0.0007        0.0144        0.0151       0.014928       0.05067
  31     11.80        0.0001        0.0004        0.0065        0.0070       0.006903       0.02247
  30     15.07        0.0000        0.0003        0.0031        0.0034       0.003329       0.00923
  29     18.79        0.0000        0.0002        0.0014        0.0016       0.001583       0.00396
  28     23.16        0.0000        0.0001        0.0006        0.0007       0.000720       0.00167
  27     28.12        0.0000        0.0001        0.0003        0.0003       0.000317       0.00069
  26     33.73        0.0000        0.0000        0.0001        0.0001       0.000140       0.00027
  25     40.54        0.0000        0.0000        0.0000        0.0001       0.000057       0.00010
  24     48.69        0.0000        0.0000        0.0000        0.0000       0.000021       0.00004
  23     57.69        0.0000        0.0000        0.0000        0.0000       0.000008       0.00001
  22     68.43        0.0000        0.0000        0.0000        0.0000       0.000003       0.00000
  21     81.20        0.0000        0.0000        0.0000        0.0000       0.000001       0.00000
  20     96.49        0.0000        0.0000        0.0000        0.0000       0.000000       0.00000
  19     114.6        0.0000        0.0000        0.0000        0.0000       0.000000       0.00000
  18     136.5        0.0000        0.0000        0.0000        0.0000       0.000000       0.00000
  17     162.9        0.0000        0.0000        0.0000        0.0000       0.000000       0.00000
  16     196.4        0.0000        0.0000        0.0000        0.0000       0.000000       0.00000
  15     218.7        0.0000        0.0000        0.0000        0.0000       0.000000       0.00000
  14     243.0        0.0000        0.0000        0.0000        0.0000       0.000000       0.00000
  13     269.0        0.0000        0.0000        0.0000        0.0000       0.000000       0.00000
  12     297.5        0.0000        0.0000        0.0000        0.0000       0.000000       0.00000
  11     328.5        0.0000        0.0000        0.0000        0.0000       0.000000       0.00000
  10     361.9        0.0000        0.0000        0.0000        0.0000       0.000000       0.00000
   9     398.1        0.0000        0.0000        0.0000        0.0000       0.000000       0.00000
   8     437.6        0.0000        0.0000        0.0000        0.0000       0.000000       0.00000
   7     480.5        0.0000        0.0000        0.0000        0.0000       0.000000       0.00000
   6     533.0        0.0000        0.0000        0.0000        0.0000       0.000000       0.00000
   5     589.8        0.0000        0.0000        0.0000        0.0000       0.000000       0.00000
   4     651.6        0.0000        0.0000        0.0000        0.0000       0.000000       0.00000
   3     718.7        0.0000        0.0000        0.0000        0.0000       0.000000       0.00000
   2     792.3        0.0000        0.0000        0.0000        0.0000       0.000000       0.00000
   1     891.5        0.0000        0.0000        0.0000        0.0000       0.000000       0.00000
   0    1013.0        0.0000        0.0000        0.0000        0.0000       0.000000       0.00000



 Wavenumbers:   820. -  2600. cm-1, ATM      1
 LEVEL PRESSURE   UPWARD FLUX   DIFDOWN FLUX  DIRDOWN FLUX  DOWNWARD FLUX   NET FLUX    HEATING RATE
          mb          W/m2          W/m2          W/m2        W/m2          W/m2       degree/day
  51    .06700        1.7145        0.0000        6.0047        6.0047       4.290102       0.00000
  50    .07753        1.7145        0.0000        6.0008        6.0008       4.286249       3.08826
  49    .09103        1.7145        0.0000        5.9999        5.9999       4.285363       0.55363
  48    0.1069        1.7145        0.0000        5.9989        5.9989       4.284374       0.52657
  47    0.1255        1.7145        0.0000        5.9978        5.9978       4.283256       0.50655
  46    0.1487        1.7145        0.0000        5.9964        5.9964       4.281899       0.49462
  45    0.1794        1.7145        0.0000        5.9947        5.9947       4.280180       0.47205
  44    0.2165        1.7145        0.0000        5.9929        5.9929       4.278337       0.41916
  43    0.2613        1.7146        0.0000        5.9909        5.9909       4.276377       0.36939
  42    0.3336        1.7146        0.0000        5.9880        5.9880       4.273499       0.33562
  41    0.4307        1.7146        0.0000        5.9846        5.9846       4.270029       0.30171
  40    0.5894        1.7146        0.0000        5.9791        5.9791       4.264522       0.29283
  39     1.339        1.7146        0.0000        5.9536        5.9536       4.239029       0.28701
  38     1.782        1.7146        0.0000        5.9395        5.9395       4.224887       0.26924
  37     2.292        1.7146        0.0000        5.9237        5.9237       4.209132       0.26095
  36     2.964        1.7146        0.0000        5.9039        5.9039       4.189353       0.24829
  35     3.853        1.7146        0.0000        5.8793        5.8793       4.164689       0.23406
  34     5.035        1.7146        0.0000        5.8487        5.8487       4.134117       0.21840
  33     6.613        1.7146        0.0000        5.8108        5.8108       4.096140       0.20303
  32     8.786        1.7146        0.0000        5.7631        5.7631       4.048499       0.18502
  31     11.80        1.7147        0.0000        5.7039        5.7039       3.989218       0.16597
  30     15.07        1.7147        0.0000        5.6539        5.6539       3.939152       0.12926
  29     18.79        1.7148        0.0000        5.6127        5.6127       3.897985       0.09334
  28     23.16        1.7148        0.0000        5.5794        5.5794       3.864571       0.06461
  27     28.12        1.7149        0.0000        5.5518        5.5518       3.836960       0.04694
  26     33.73        1.7149        0.0000        5.5268        5.5268       3.811856       0.03774
  25     40.54        1.7150        0.0000        5.4993        5.4993       3.784350       0.03412
  24     48.69        1.7151        0.0000        5.4678        5.4678       3.752733       0.03272
  23     57.69        1.7152        0.0000        5.4340        5.4340       3.718858       0.03175
  22     68.43        1.7153        0.0000        5.3947        5.3948       3.679479       0.03096
  21     81.20        1.7154        0.0000        5.3497        5.3497       3.634315       0.02984
  20     96.49        1.7156        0.0000        5.2982        5.2982       3.582639       0.02852
  19     114.6        1.7158        0.0000        5.2389        5.2389       3.523116       0.02779
  18     136.5        1.7161        0.0000        5.1716        5.1717       3.455606       0.02596
  17     162.9        1.7164        0.0000        5.0890        5.0891       3.372614       0.02653
  16     196.4        1.7171        0.0000        4.9668        4.9668       3.249745       0.03093
  15     218.7        1.7177        0.0000        4.8585        4.8585       3.140755       0.04138
  14     243.0        1.7187        0.0000        4.7078        4.7079       2.989126       0.05259
  13     269.0        1.7202        0.0000        4.5343        4.5343       2.814045       0.05680
  12     297.5        1.7226        0.0000        4.3419        4.3420       2.619324       0.05775
  11     328.5        1.7259        0.0000        4.1281        4.1281       2.402285       0.05901
  10     361.9        1.7301        0.0000        3.8786        3.8787       2.148548       0.06420
   9     398.1        1.7357        0.0000        3.6159        3.6160       1.880295       0.06250
   8     437.6        1.7428        0.0000        3.3759        3.3759       1.633071       0.05286
   7     480.5        1.7516        0.0000        3.1957        3.1958       1.444183       0.03710
   6     533.0        1.7650        0.0000        3.0467        3.0467       1.281754       0.02613
   5     589.8        1.7847        0.0001        2.9023        2.9023       1.117644       0.02436
   4     651.6        1.8190        0.0001        2.7183        2.7184       0.899343       0.02985
   3     718.7        1.8790        0.0001        2.5058        2.5059       0.626869       0.03424
   2     792.3        1.9972        0.0001        2.2756        2.2757       0.278509       0.03995
   1     891.5        0.1133        0.1987        0.0000        0.1987       0.085439       0.01643
   0    1013.0        0.1330        0.1675        0.0000        0.1675       0.034512       0.00354

  Modules and versions used in this calculation:

       rrtmg_sw.1col.f90:  $Revision$                    rrtmg_sw_init.f90:  $Revision$        
     rrtmgsw_cldprop.f90:  $Revision$                  rrtmgsw_cldprmc.f90:  NOT USED          
     rrtmg_sw_reftra.f90:  $Revision$                  rrtmg_sw_spcvrt.f90:  NOT USED          
     rrtmg_sw_spcvmc.f90:  NOT USED                    rrtmgsw_setcoef.f90:  NOT USED          
     rrtmg_sw_taumol.f90:  $Revision$                  rrtmg_sw_vrtqdr.f90:  NOT USED          
                rrtatm.f:  NOT USED                             util_xxx.f:  NOT USED          
                 extra.f:  NOT USED                       rrtmg_sw_k_g.f90:  $Revision$        

