

 Wavenumbers:   820. - 50000. cm-1, ATM      1
 LEVEL PRESSURE   UPWARD FLUX   DIFDOWN FLUX  DIRDOWN FLUX  DOWNWARD FLUX   NET FLUX    HEATING RATE
          mb          W/m2          W/m2          W/m2        W/m2          W/m2       degree/day
  51    .06700      455.1767        0.0000      617.8126      617.8126     162.635850       0.00000
  50    .07753      455.1764        0.0014      617.7947      617.7961     162.619707      12.93913
  49    .09103      455.1759        0.0031      617.7778      617.7808     162.604893       9.25923
  48    0.1069      455.1755        0.0050      617.7581      617.7631     162.587626       9.19127
  47    0.1255      455.1749        0.0072      617.7340      617.7412     162.566274       9.67976
  46    0.1487      455.1744        0.0101      617.7009      617.7110     162.536579      10.82418
  45    0.1794      455.1737        0.0139      617.6521      617.6660     162.492334      12.14629
  44    0.2165      455.1730        0.0185      617.5895      617.6080     162.434995      13.04373
  43    0.2613      455.1723        0.0238      617.5089      617.5327     162.360458      14.04979
  42    0.3336      455.1715        0.0327      617.3641      617.3968     162.225330      15.75462
  41    0.4307      455.1708        0.0444      617.1591      617.2035     162.032644      16.75365
  40    0.5894      455.1708        0.0632      616.8005      616.8636     161.692836      18.07052
  39     1.339      455.1890        0.1482      614.9443      615.0925     159.903438      20.14538
  38     1.782      455.2125        0.1961      613.9670      614.1631     158.950543      18.14158
  37     2.292      455.2514        0.2505      613.0059      613.2564     158.005035      15.66009
  36     2.964      455.3199        0.3213      611.9577      612.2790     156.959133      13.12923
  35     3.853      455.4347        0.4142      610.8024      611.2166     155.781884      11.17231
  34     5.035      455.6112        0.5367      609.5327      610.0694     154.458180       9.45599
  33     6.613      455.8598        0.6993      608.1464      608.8457     152.985936       7.87062
  32     8.786      456.1836        0.9174      606.6250      607.5425     151.358851       6.31901
  31     11.80      456.6031        1.2280      604.8486      606.0767     149.473571       5.27819
  30     15.07      457.0026        1.5595      603.2440      604.8034     147.800889       4.31854
  29     18.79      457.4082        1.9324      601.6511      603.5836     146.175331       3.68564
  28     23.16      457.8296        2.3658      599.9927      602.3585     144.528866       3.18373
  27     28.12      458.2501        2.8591      598.2881      601.1471     142.897044       2.77399
  26     33.73      458.6307        3.4090      596.5951      600.0040     141.373324       2.29095
  25     40.54      458.9860        4.0710      594.7727      598.8437     139.857767       1.88022
  24     48.69      459.3129        4.8655      592.7865      597.6520     138.339111       1.57157
  23     57.69      459.5738        5.7340      590.7959      596.5299     136.956170       1.29630
  22     68.43      459.7778        6.7630      588.6191      595.3821     135.604253       1.06279
  21     81.20      459.8728        7.9829      586.2690      594.2519     134.379126       0.80954
  20     96.49      459.8486        9.4274      583.6961      593.1235     133.274867       0.60947
  19     114.6      459.7637       11.1268      580.7708      591.8976     132.133881       0.53276
  18     136.5      459.6185       13.1167      577.4359      590.5526     130.934081       0.46135
  17     162.9      459.4080       15.4521      573.5624      589.0146     129.606559       0.42433
  16     196.4      459.0481       18.4306      568.5907      587.0213     127.973291       0.41111
  15     218.7      458.7841       20.3565      565.0572      585.4137     126.629655       0.51013
  14     243.0      458.4906       22.4223      560.7495      583.1718     124.681251       0.67577
  13     269.0      458.1699       24.6294      555.3947      580.0241     121.854218       0.91708
  12     297.5      457.8292       26.9785      548.9964      575.9749     118.145726       1.09990
  11     328.5      457.4795       29.4762      542.0895      571.5657     114.086188       1.10378
  10     361.9      457.1307       32.1185      534.6242      566.7428     109.612078       1.13199
   9     398.1      456.7966       34.9103      526.4204      561.3307     104.534055       1.18307
   8     437.6      456.5042       37.8500      517.3907      555.2406      98.736404       1.23957
   7     480.5      456.2829       40.9358      507.7216      548.6574      92.374476       1.24946
   6     533.0      456.1832       44.6460      495.9006      540.5466      84.363387       1.28873
   5     589.8      456.3929       48.5395      483.0788      531.6183      75.225447       1.35637
   4     651.6      457.2820       52.6032      468.6907      521.2938      64.011778       1.53350
   3     718.7      459.3867       56.8289      453.2257      510.0547      50.668009       1.67694
   2     792.3      464.1532       61.1945      436.4928      497.6873      33.534152       1.96506
   1     891.5      243.4308      265.7223        0.0000      265.7223      22.291485       0.95670
   0    1013.0      245.3525      262.7265        0.0000      262.7266      17.374097       0.34144



 Wavenumbers:  2600. -  3250. cm-1, ATM      1
 LEVEL PRESSURE   UPWARD FLUX   DIFDOWN FLUX  DIRDOWN FLUX  DOWNWARD FLUX   NET FLUX    HEATING RATE
          mb          W/m2          W/m2          W/m2        W/m2          W/m2       degree/day
  51    .06700        2.1070        0.0000        5.4450        5.4450       3.338029       0.00000
  50    .07753        2.1070        0.0000        5.4450        5.4450       3.338021       0.00640
  49    .09103        2.1070        0.0000        5.4450        5.4450       3.338011       0.00627
  48    0.1069        2.1070        0.0000        5.4450        5.4450       3.337999       0.00613
  47    0.1255        2.1070        0.0000        5.4450        5.4450       3.337986       0.00599
  46    0.1487        2.1070        0.0000        5.4450        5.4450       3.337969       0.00608
  45    0.1794        2.1070        0.0000        5.4450        5.4450       3.337947       0.00625
  44    0.2165        2.1070        0.0000        5.4449        5.4449       3.337920       0.00612
  43    0.2613        2.1070        0.0000        5.4449        5.4449       3.337888       0.00600
  42    0.3336        2.1070        0.0000        5.4448        5.4448       3.337835       0.00617
  41    0.4307        2.1070        0.0000        5.4448        5.4448       3.337764       0.00620
  40    0.5894        2.1070        0.0000        5.4446        5.4446       3.337644       0.00637
  39     1.339        2.1070        0.0000        5.4439        5.4439       3.336937       0.00797
  38     1.782        2.1070        0.0000        5.4434        5.4434       3.336393       0.01034
  37     2.292        2.1070        0.0000        5.4427        5.4427       3.335677       0.01186
  36     2.964        2.1070        0.0000        5.4416        5.4416       3.334639       0.01304
  35     3.853        2.1070        0.0000        5.4402        5.4402       3.333161       0.01402
  34     5.035        2.1070        0.0000        5.4381        5.4381       3.331105       0.01469
  33     6.613        2.1070        0.0000        5.4353        5.4353       3.328324       0.01487
  32     8.786        2.1070        0.0000        5.4317        5.4317       3.324691       0.01411
  31     11.80        2.1070        0.0000        5.4269        5.4269       3.319908       0.01339
  30     15.07        2.1070        0.0000        5.4224        5.4224       3.315379       0.01169
  29     18.79        2.1070        0.0000        5.4180        5.4180       3.310962       0.01001
  28     23.16        2.1070        0.0000        5.4135        5.4135       3.306469       0.00869
  27     28.12        2.1070        0.0000        5.4088        5.4088       3.301812       0.00792
  26     33.73        2.1070        0.0000        5.4036        5.4036       3.296558       0.00790
  25     40.54        2.1071        0.0000        5.3966        5.3967       3.289595       0.00864
  24     48.69        2.1071        0.0000        5.3872        5.3872       3.280085       0.00984
  23     57.69        2.1071        0.0000        5.3754        5.3754       3.268256       0.01109
  22     68.43        2.1072        0.0000        5.3599        5.3599       3.252702       0.01223
  21     81.20        2.1073        0.0000        5.3401        5.3401       3.232776       0.01317
  20     96.49        2.1075        0.0000        5.3155        5.3155       3.208077       0.01363
  19     114.6        2.1077        0.0001        5.2853        5.2854       3.177699       0.01418
  18     136.5        2.1079        0.0001        5.2504        5.2505       3.142536       0.01352
  17     162.9        2.1083        0.0001        5.2111        5.2112       3.102824       0.01269
  16     196.4        2.1090        0.0001        5.1640        5.1641       3.055120       0.01201
  15     218.7        2.1097        0.0001        5.1331        5.1332       3.023545       0.01199
  14     243.0        2.1108        0.0001        5.0962        5.0963       2.985568       0.01317
  13     269.0        2.1124        0.0001        5.0511        5.0512       2.938764       0.01518
  12     297.5        2.1150        0.0001        4.9956        4.9957       2.880722       0.01721
  11     328.5        2.1186        0.0001        4.9304        4.9305       2.811906       0.01871
  10     361.9        2.1236        0.0002        4.8511        4.8513       2.727689       0.02131
   9     398.1        2.1304        0.0002        4.7507        4.7509       2.620419       0.02499
   8     437.6        2.1400        0.0002        4.6220        4.6222       2.482205       0.02955
   7     480.5        2.1534        0.0002        4.4625        4.4627       2.309313       0.03396
   6     533.0        2.1752        0.0002        4.2460        4.2462       2.071016       0.03833
   5     589.8        2.2088        0.0002        3.9954        3.9956       1.786775       0.04219
   4     651.6        2.2649        0.0002        3.7089        3.7091       1.444172       0.04685
   3     718.7        2.3589        0.0002        3.4018        3.4020       1.043130       0.05040
   2     792.3        2.5335        0.0002        3.0564        3.0567       0.523151       0.05964
   1     891.5        0.3552        0.5602        0.0000        0.5602       0.204960       0.02708
   0    1013.0        0.3935        0.4956        0.0000        0.4956       0.102095       0.00714



 Wavenumbers:  3250. -  4000. cm-1, ATM      1
 LEVEL PRESSURE   UPWARD FLUX   DIFDOWN FLUX  DIRDOWN FLUX  DOWNWARD FLUX   NET FLUX    HEATING RATE
          mb          W/m2          W/m2          W/m2        W/m2          W/m2       degree/day
  51    .06700        0.0772        0.0000        9.1795        9.1795       9.102327       0.00000
  50    .07753        0.0772        0.0000        9.1747        9.1747       9.097484       3.88148
  49    .09103        0.0772        0.0000        9.1713        9.1713       9.094096       2.11747
  48    0.1069        0.0772        0.0000        9.1688        9.1688       9.091571       1.34402
  47    0.1255        0.0772        0.0000        9.1665        9.1665       9.089312       1.02422
  46    0.1487        0.0772        0.0000        9.1641        9.1641       9.086871       0.88991
  45    0.1794        0.0772        0.0000        9.1612        9.1612       9.083993       0.79008
  44    0.2165        0.0772        0.0000        9.1583        9.1583       9.081072       0.66430
  43    0.2613        0.0772        0.0000        9.1553        9.1553       9.078099       0.56041
  42    0.3336        0.0772        0.0000        9.1511        9.1511       9.073920       0.48723
  41    0.4307        0.0772        0.0000        9.1464        9.1464       9.069152       0.41459
  40    0.5894        0.0772        0.0000        9.1393        9.1394       9.062147       0.37255
  39     1.339        0.0772        0.0000        9.1127        9.1127       9.035533       0.29962
  38     1.782        0.0772        0.0000        9.1011        9.1011       9.023945       0.22062
  37     2.292        0.0772        0.0000        9.0901        9.0901       9.012878       0.18329
  36     2.964        0.0772        0.0000        9.0776        9.0776       9.000448       0.15603
  35     3.853        0.0772        0.0000        9.0629        9.0629       8.985658       0.14036
  34     5.035        0.0772        0.0000        9.0441        9.0441       8.966919       0.13386
  33     6.613        0.0772        0.0000        9.0191        9.0191       8.941918       0.13366
  32     8.786        0.0772        0.0000        8.9843        8.9843       8.907134       0.13509
  31     11.80        0.0772        0.0000        8.9327        8.9327       8.855518       0.14451
  30     15.07        0.0772        0.0000        8.8758        8.8759       8.798673       0.14676
  29     18.79        0.0772        0.0000        8.8110        8.8110       8.733845       0.14698
  28     23.16        0.0772        0.0000        8.7365        8.7366       8.659401       0.14395
  27     28.12        0.0772        0.0000        8.6554        8.6555       8.578287       0.13789
  26     33.73        0.0772        0.0000        8.5719        8.5719       8.494788       0.12554
  25     40.54        0.0771        0.0001        8.4812        8.4812       8.404064       0.11255
  24     48.69        0.0771        0.0001        8.3838        8.3839       8.306763       0.10069
  23     57.69        0.0771        0.0001        8.2861        8.2862       8.209027       0.09161
  22     68.43        0.0771        0.0001        8.1751        8.1751       8.098030       0.08726
  21     81.20        0.0771        0.0001        8.0457        8.0458       7.968672       0.08548
  20     96.49        0.0771        0.0001        7.8949        7.8951       7.817968       0.08318
  19     114.6        0.0771        0.0001        7.7162        7.7163       7.639258       0.08345
  18     136.5        0.0770        0.0002        7.5193        7.5195       7.442413       0.07569
  17     162.9        0.0770        0.0002        7.2913        7.2915       7.214520       0.07284
  16     196.4        0.0770        0.0002        6.9660        6.9662       6.889242       0.08188
  15     218.7        0.0770        0.0002        6.6648        6.6650       6.588040       0.11436
  14     243.0        0.0770        0.0002        6.2619        6.2622       6.185213       0.13971
  13     269.0        0.0770        0.0003        5.7576        5.7579       5.680835       0.16362
  12     297.5        0.0772        0.0003        5.1719        5.1722       5.094976       0.17376
  11     328.5        0.0775        0.0002        4.5757        4.5760       4.498523       0.16217
  10     361.9        0.0779        0.0002        3.9995        3.9998       3.921862       0.14590
   9     398.1        0.0787        0.0002        3.4655        3.4657       3.387009       0.12461
   8     437.6        0.0800        0.0002        2.9740        2.9743       2.894238       0.10536
   7     480.5        0.0821        0.0002        2.5307        2.5309       2.448722       0.08750
   6     533.0        0.0863        0.0002        2.0614        2.0616       1.975292       0.07616
   5     589.8        0.0938        0.0002        1.6150        1.6151       1.521309       0.06739
   4     651.6        0.1096        0.0001        1.1565        1.1566       1.046977       0.06487
   3     718.7        0.1445        0.0001        0.7390        0.7391       0.594654       0.05684
   2     792.3        0.2378        0.0001        0.3985        0.3985       0.160726       0.04977
   1     891.5        0.0000        0.0049        0.0000        0.0049       0.004876       0.01326
   0    1013.0        0.0004        0.0005        0.0000        0.0005       0.000105       0.00033



 Wavenumbers:  4000. -  4650. cm-1, ATM      1
 LEVEL PRESSURE   UPWARD FLUX   DIFDOWN FLUX  DIRDOWN FLUX  DOWNWARD FLUX   NET FLUX    HEATING RATE
          mb          W/m2          W/m2          W/m2        W/m2          W/m2       degree/day
  51    .06700        6.8102        0.0000       10.7795       10.7795       3.969376       0.00000
  50    .07753        6.8102        0.0000       10.7795       10.7795       3.969375       0.00080
  49    .09103        6.8102        0.0000       10.7795       10.7795       3.969374       0.00078
  48    0.1069        6.8102        0.0000       10.7795       10.7795       3.969373       0.00077
  47    0.1255        6.8102        0.0000       10.7795       10.7795       3.969371       0.00075
  46    0.1487        6.8102        0.0000       10.7795       10.7795       3.969369       0.00076
  45    0.1794        6.8102        0.0000       10.7795       10.7795       3.969366       0.00078
  44    0.2165        6.8102        0.0000       10.7795       10.7795       3.969363       0.00076
  43    0.2613        6.8102        0.0000       10.7795       10.7795       3.969359       0.00075
  42    0.3336        6.8102        0.0000       10.7795       10.7795       3.969352       0.00077
  41    0.4307        6.8102        0.0000       10.7795       10.7795       3.969343       0.00078
  40    0.5894        6.8102        0.0000       10.7795       10.7795       3.969328       0.00080
  39     1.339        6.8102        0.0000       10.7794       10.7794       3.969239       0.00101
  38     1.782        6.8102        0.0000       10.7793       10.7793       3.969169       0.00133
  37     2.292        6.8102        0.0000       10.7792       10.7792       3.969074       0.00156
  36     2.964        6.8102        0.0000       10.7791       10.7791       3.968934       0.00177
  35     3.853        6.8102        0.0000       10.7789       10.7789       3.968725       0.00198
  34     5.035        6.8102        0.0000       10.7786       10.7786       3.968417       0.00220
  33     6.613        6.8102        0.0000       10.7781       10.7781       3.967964       0.00242
  32     8.786        6.8102        0.0000       10.7774       10.7775       3.967295       0.00260
  31     11.80        6.8102        0.0001       10.7763       10.7764       3.966242       0.00295
  30     15.07        6.8102        0.0001       10.7751       10.7752       3.965007       0.00319
  29     18.79        6.8102        0.0001       10.7736       10.7737       3.963511       0.00339
  28     23.16        6.8102        0.0001       10.7717       10.7718       3.961653       0.00359
  27     28.12        6.8102        0.0001       10.7695       10.7696       3.959400       0.00383
  26     33.73        6.8102        0.0002       10.7667       10.7668       3.956620       0.00418
  25     40.54        6.8103        0.0002       10.7629       10.7631       3.952844       0.00468
  24     48.69        6.8104        0.0002       10.7579       10.7582       3.947805       0.00521
  23     57.69        6.8105        0.0003       10.7520       10.7523       3.941820       0.00561
  22     68.43        6.8106        0.0003       10.7446       10.7449       3.934304       0.00591
  21     81.20        6.8109        0.0004       10.7355       10.7359       3.925028       0.00613
  20     96.49        6.8112        0.0005       10.7245       10.7250       3.913709       0.00625
  19     114.6        6.8118        0.0006       10.7107       10.7113       3.899511       0.00663
  18     136.5        6.8125        0.0007       10.6942       10.6949       3.882346       0.00660
  17     162.9        6.8136        0.0008       10.6740       10.6748       3.861212       0.00676
  16     196.4        6.8154        0.0010       10.6464       10.6473       3.831893       0.00738
  15     218.7        6.8171        0.0011       10.6255       10.6265       3.809479       0.00851
  14     243.0        6.8194        0.0012       10.5980       10.5993       3.779842       0.01028
  13     269.0        6.8229        0.0013       10.5611       10.5624       3.739546       0.01307
  12     297.5        6.8279        0.0015       10.5119       10.5134       3.685483       0.01603
  11     328.5        6.8349        0.0016       10.4499       10.4515       3.616635       0.01872
  10     361.9        6.8439        0.0018       10.3702       10.3719       3.528003       0.02242
   9     398.1        6.8554        0.0019       10.2678       10.2697       3.414311       0.02649
   8     437.6        6.8701        0.0021       10.1390       10.1411       3.270992       0.03064
   7     480.5        6.8891        0.0023        9.9877        9.9900       3.100923       0.03340
   6     533.0        6.9185        0.0025        9.7937        9.7962       2.877703       0.03591
   5     589.8        6.9615        0.0027        9.5752        9.5779       2.616416       0.03878
   4     651.6        7.0318        0.0030        9.2958        9.2988       2.266967       0.04779
   3     718.7        7.1523        0.0032        8.9267        8.9299       1.777590       0.06150
   2     792.3        7.3857        0.0034        8.4542        8.4576       1.071917       0.08093
   1     891.5        1.6573        2.2765        0.0000        2.2765       0.619279       0.03852
   0    1013.0        1.7237        2.1709        0.0000        2.1709       0.447197       0.01195



 Wavenumbers:  4650. -  5150. cm-1, ATM      1
 LEVEL PRESSURE   UPWARD FLUX   DIFDOWN FLUX  DIRDOWN FLUX  DOWNWARD FLUX   NET FLUX    HEATING RATE
          mb          W/m2          W/m2          W/m2        W/m2          W/m2       degree/day
  51    .06700        4.9177        0.0000       10.2033       10.2033       5.285611       0.00000
  50    .07753        4.9177        0.0000       10.2031       10.2031       5.285375       0.18901
  49    .09103        4.9177        0.0000       10.2028       10.2028       5.285080       0.18428
  48    0.1069        4.9177        0.0000       10.2025       10.2025       5.284743       0.17931
  47    0.1255        4.9177        0.0000       10.2021       10.2021       5.284359       0.17426
  46    0.1487        4.9177        0.0000       10.2016       10.2016       5.283878       0.17536
  45    0.1794        4.9177        0.0000       10.2010       10.2010       5.283228       0.17850
  44    0.2165        4.9177        0.0000       10.2002       10.2002       5.282468       0.17277
  43    0.2613        4.9177        0.0000       10.1993       10.1993       5.281583       0.16690
  42    0.3336        4.9177        0.0000       10.1979       10.1979       5.280150       0.16702
  41    0.4307        4.9177        0.0000       10.1960       10.1960       5.278310       0.16002
  40    0.5894        4.9177        0.0000       10.1932       10.1932       5.275436       0.15283
  39     1.339        4.9177        0.0000       10.1816       10.1816       5.263843       0.13051
  38     1.782        4.9177        0.0000       10.1760       10.1760       5.258314       0.10527
  37     2.292        4.9177        0.0000       10.1706       10.1706       5.252857       0.09039
  36     2.964        4.9177        0.0000       10.1646       10.1647       5.246932       0.07437
  35     3.853        4.9177        0.0000       10.1584       10.1584       5.240715       0.05900
  34     5.035        4.9177        0.0000       10.1521       10.1521       5.234375       0.04529
  33     6.613        4.9177        0.0000       10.1456       10.1456       5.227911       0.03456
  32     8.786        4.9177        0.0001       10.1386       10.1386       5.220888       0.02728
  31     11.80        4.9178        0.0001       10.1295       10.1296       5.211824       0.02538
  30     15.07        4.9178        0.0001       10.1196       10.1197       5.201913       0.02559
  29     18.79        4.9179        0.0001       10.1076       10.1077       5.189860       0.02733
  28     23.16        4.9179        0.0002       10.0923       10.0924       5.174491       0.02972
  27     28.12        4.9180        0.0002       10.0731       10.0733       5.155309       0.03261
  26     33.73        4.9182        0.0002       10.0500       10.0503       5.132097       0.03490
  25     40.54        4.9184        0.0003       10.0201       10.0204       5.102026       0.03731
  24     48.69        4.9187        0.0003        9.9820        9.9823       5.063615       0.03975
  23     57.69        4.9191        0.0004        9.9384        9.9389       5.019771       0.04110
  22     68.43        4.9196        0.0005        9.8858        9.8862       4.966615       0.04179
  21     81.20        4.9204        0.0006        9.8234        9.8240       4.903638       0.04161
  20     96.49        4.9214        0.0007        9.7518        9.7524       4.831010       0.04009
  19     114.6        4.9229        0.0008        9.6719        9.6727       4.749843       0.03790
  18     136.5        4.9249        0.0010        9.5858        9.5868       4.661868       0.03383
  17     162.9        4.9277        0.0011        9.4940        9.4952       4.567505       0.03016
  16     196.4        4.9319        0.0013        9.3883        9.3896       4.457691       0.02764
  15     218.7        4.9353        0.0015        9.3229        9.3244       4.389121       0.02603
  14     243.0        4.9396        0.0016        9.2520        9.2536       4.314000       0.02605
  13     269.0        4.9454        0.0018        9.1717        9.1735       4.228047       0.02788
  12     297.5        4.9535        0.0020        9.0763        9.0783       4.124763       0.03063
  11     328.5        4.9640        0.0022        8.9650        8.9671       4.003120       0.03307
  10     361.9        4.9776        0.0024        8.8349        8.8373       3.859695       0.03629
   9     398.1        4.9952        0.0026        8.6820        8.6846       3.689363       0.03968
   8     437.6        5.0182        0.0028        8.5028        8.5056       3.487397       0.04318
   7     480.5        5.0481        0.0030        8.2948        8.2978       3.249705       0.04668
   6     533.0        5.0939        0.0033        8.0209        8.0242       2.930260       0.05139
   5     589.8        5.1578        0.0035        7.7063        7.7098       2.552078       0.05613
   4     651.6        5.2528        0.0037        7.3412        7.3450       2.092159       0.06290
   3     718.7        5.3979        0.0040        6.9387        6.9426       1.544706       0.06880
   2     792.3        5.6336        0.0042        6.5066        6.5108       0.877145       0.07656
   1     891.5        1.1488        1.6171        0.0000        1.6171       0.468298       0.03479
   0    1013.0        1.2091        1.5228        0.0000        1.5228       0.313692       0.01074



 Wavenumbers:  5150. -  6150. cm-1, ATM      1
 LEVEL PRESSURE   UPWARD FLUX   DIFDOWN FLUX  DIRDOWN FLUX  DOWNWARD FLUX   NET FLUX    HEATING RATE
          mb          W/m2          W/m2          W/m2        W/m2          W/m2       degree/day
  51    .06700       11.6812        0.0000       25.5798       25.5798      13.898620       0.00000
  50    .07753       11.6812        0.0000       25.5798       25.5798      13.898580       0.03163
  49    .09103       11.6812        0.0000       25.5797       25.5797      13.898529       0.03211
  48    0.1069       11.6812        0.0000       25.5797       25.5797      13.898468       0.03262
  47    0.1255       11.6812        0.0000       25.5796       25.5796      13.898395       0.03312
  46    0.1487       11.6812        0.0000       25.5795       25.5795      13.898299       0.03489
  45    0.1794       11.6812        0.0000       25.5794       25.5794      13.898164       0.03714
  44    0.2165       11.6812        0.0000       25.5792       25.5792      13.897998       0.03770
  43    0.2613       11.6812        0.0000       25.5790       25.5790      13.897795       0.03828
  42    0.3336       11.6812        0.0000       25.5786       25.5786      13.897448       0.04044
  41    0.4307       11.6812        0.0000       25.5782       25.5782      13.896977       0.04098
  40    0.5894       11.6812        0.0000       25.5774       25.5774      13.896187       0.04199
  39     1.339       11.6812        0.0000       25.5735       25.5736      13.892382       0.04284
  38     1.782       11.6812        0.0001       25.5713       25.5714      13.890166       0.04219
  37     2.292       11.6812        0.0001       25.5688       25.5688      13.887657       0.04155
  36     2.964       11.6812        0.0001       25.5656       25.5657      13.884469       0.04002
  35     3.853       11.6812        0.0001       25.5615       25.5616      13.880415       0.03847
  34     5.035       11.6812        0.0002       25.5562       25.5564      13.875193       0.03730
  33     6.613       11.6812        0.0002       25.5494       25.5496      13.868417       0.03623
  32     8.786       11.6813        0.0003       25.5406       25.5409      13.859631       0.03412
  31     11.80       11.6813        0.0004       25.5287       25.5290      13.847742       0.03328
  30     15.07       11.6814        0.0005       25.5167       25.5172      13.835811       0.03080
  29     18.79       11.6815        0.0006       25.5042       25.5048      13.823328       0.02830
  28     23.16       11.6816        0.0008       25.4907       25.4914      13.809868       0.02603
  27     28.12       11.6817        0.0009       25.4764       25.4774      13.795661       0.02415
  26     33.73       11.6819        0.0011       25.4620       25.4631      13.781237       0.02169
  25     40.54       11.6821        0.0013       25.4463       25.4476      13.765425       0.01962
  24     48.69       11.6825        0.0016       25.4294       25.4309      13.748438       0.01758
  23     57.69       11.6830        0.0019       25.4126       25.4145      13.731519       0.01586
  22     68.43       11.6835        0.0022       25.3944       25.3966      13.713088       0.01449
  21     81.20       11.6843        0.0026       25.3744       25.3770      13.692747       0.01344
  20     96.49       11.6852        0.0031       25.3519       25.3551      13.669829       0.01265
  19     114.6       11.6864        0.0037       25.3262       25.3299      13.643495       0.01230
  18     136.5       11.6878        0.0044       25.2962       25.3006      13.612795       0.01180
  17     162.9       11.6896        0.0052       25.2521       25.2573      13.567763       0.01439
  16     196.4       11.6920        0.0063       25.1593       25.1656      13.473596       0.02370
  15     218.7       11.6937        0.0070       25.0159       25.0229      13.329166       0.05483
  14     243.0       11.6959        0.0077       24.7089       24.7166      13.020704       0.10698
  13     269.0       11.6986        0.0084       24.1619       24.1702      12.471586       0.17813
  12     297.5       11.7024        0.0091       23.4544       23.4634      11.761069       0.21073
  11     328.5       11.7073        0.0098       22.7355       22.7452      11.037976       0.19661
  10     361.9       11.7137        0.0105       21.9224       21.9329      10.219190       0.20716
   9     398.1       11.7224        0.0112       20.9939       21.0051       9.282677       0.21819
   8     437.6       11.7346        0.0119       19.9833       19.9952       8.260663       0.21851
   7     480.5       11.7514        0.0126       18.9483       18.9609       7.209492       0.20645
   6     533.0       11.7800        0.0133       17.7796       17.7929       6.012957       0.19248
   5     589.8       11.8264        0.0141       16.6726       16.6867       4.860226       0.17110
   4     651.6       11.9119        0.0149       15.6343       15.6492       3.737315       0.15356
   3     718.7       12.0695        0.0158       14.7738       14.7896       2.720011       0.12785
   2     792.3       12.3896        0.0167       14.0291       14.0458       1.656204       0.12201
   1     891.5        3.1000        4.1254        0.0000        4.1254       1.025314       0.05369
   0    1013.0        3.1733        3.9966        0.0000        3.9966       0.823306       0.01403



 Wavenumbers:  6150. -  7700. cm-1, ATM      1
 LEVEL PRESSURE   UPWARD FLUX   DIFDOWN FLUX  DIRDOWN FLUX  DOWNWARD FLUX   NET FLUX    HEATING RATE
          mb          W/m2          W/m2          W/m2        W/m2          W/m2       degree/day
  51    .06700       18.7474        0.0000       47.3109       47.3109      28.563479       0.00000
  50    .07753       18.7474        0.0000       47.3108       47.3108      28.563422       0.04553
  49    .09103       18.7474        0.0000       47.3107       47.3107      28.563349       0.04583
  48    0.1069       18.7474        0.0000       47.3106       47.3106      28.563262       0.04614
  47    0.1255       18.7474        0.0000       47.3105       47.3105      28.563160       0.04645
  46    0.1487       18.7474        0.0000       47.3104       47.3104      28.563027       0.04852
  45    0.1794       18.7474        0.0000       47.3102       47.3102      28.562840       0.05127
  44    0.2165       18.7474        0.0000       47.3100       47.3100      28.562613       0.05167
  43    0.2613       18.7474        0.0000       47.3097       47.3097      28.562337       0.05210
  42    0.3336       18.7474        0.0000       47.3092       47.3092      28.561867       0.05471
  41    0.4307       18.7474        0.0000       47.3085       47.3086      28.561232       0.05521
  40    0.5894       18.7473        0.0001       47.3074       47.3075      28.560173       0.05633
  39     1.339       18.7473        0.0002       47.3022       47.3024      28.555081       0.05733
  38     1.782       18.7472        0.0002       47.2991       47.2994      28.552111       0.05655
  37     2.292       18.7472        0.0003       47.2956       47.2959      28.548735       0.05591
  36     2.964       18.7472        0.0004       47.2912       47.2916      28.544417       0.05421
  35     3.853       18.7471        0.0005       47.2855       47.2860      28.538882       0.05252
  34     5.035       18.7470        0.0007       47.2780       47.2787      28.531701       0.05130
  33     6.613       18.7469        0.0009       47.2683       47.2692      28.522313       0.05019
  32     8.786       18.7467        0.0012       47.2556       47.2567      28.510014       0.04777
  31     11.80       18.7465        0.0016       47.2380       47.2396      28.493109       0.04733
  30     15.07       18.7462        0.0020       47.2201       47.2221      28.475821       0.04464
  29     18.79       18.7460        0.0025       47.2008       47.2033      28.457340       0.04190
  28     23.16       18.7456        0.0031       47.1795       47.1826      28.436948       0.03943
  27     28.12       18.7453        0.0037       47.1565       47.1602      28.414953       0.03739
  26     33.73       18.7449        0.0045       47.1324       47.1369      28.392028       0.03447
  25     40.54       18.7444        0.0054       47.1054       47.1107      28.366388       0.03181
  24     48.69       18.7437        0.0065       47.0754       47.0819      28.338130       0.02924
  23     57.69       18.7431        0.0076       47.0449       47.0526      28.309502       0.02683
  22     68.43       18.7423        0.0091       47.0110       47.0201      28.277757       0.02496
  21     81.20       18.7414        0.0107       46.9729       46.9836      28.242252       0.02346
  20     96.49       18.7402        0.0128       46.9294       46.9421      28.201895       0.02227
  19     114.6       18.7389        0.0152       46.8790       46.8942      28.155239       0.02179
  18     136.5       18.7374        0.0180       46.8200       46.8380      28.100583       0.02102
  17     162.9       18.7356        0.0214       46.7361       46.7575      28.021903       0.02515
  16     196.4       18.7334        0.0257       46.5703       46.5960      27.862556       0.04011
  15     218.7       18.7322        0.0285       46.3473       46.3758      27.643607       0.08313
  14     243.0       18.7314        0.0315       45.9299       45.9614      27.229990       0.14346
  13     269.0       18.7314        0.0345       45.1708       45.2053      26.473877       0.24528
  12     297.5       18.7332        0.0374       44.0115       44.0489      25.315717       0.34350
  11     328.5       18.7373        0.0404       42.7242       42.7646      24.027310       0.35031
  10     361.9       18.7451        0.0435       41.3539       41.3974      22.652327       0.34788
   9     398.1       18.7584        0.0465       39.7953       39.8417      21.083309       0.36555
   8     437.6       18.7809        0.0493       37.9948       38.0441      19.263223       0.38915
   7     480.5       18.8167        0.0521       36.0647       36.1168      17.300126       0.38554
   6     533.0       18.8839        0.0551       33.7773       33.8323      14.948451       0.37831
   5     589.8       19.0012        0.0578       31.4082       31.4660      12.464835       0.36865
   4     651.6       19.2282        0.0601       28.8834       28.9435       9.715334       0.37600
   3     718.7       19.6658        0.0622       26.4104       26.4725       6.806742       0.36553
   2     792.3       20.6135        0.0639       24.0056       24.0695       3.456030       0.38429
   1     891.5        4.3816        6.0510        0.0000        6.0510       1.669456       0.15203
   0    1013.0        4.5568        5.7390        0.0000        5.7390       1.182230       0.03383



 Wavenumbers:  7700. -  8050. cm-1, ATM      1
 LEVEL PRESSURE   UPWARD FLUX   DIFDOWN FLUX  DIRDOWN FLUX  DOWNWARD FLUX   NET FLUX    HEATING RATE
          mb          W/m2          W/m2          W/m2        W/m2          W/m2       degree/day
  51    .06700        8.5544        0.0000       11.1810       11.1810       2.626535       0.00000
  50    .07753        8.5544        0.0000       11.1809       11.1809       2.626511       0.01909
  49    .09103        8.5544        0.0000       11.1809       11.1809       2.626481       0.01871
  48    0.1069        8.5544        0.0000       11.1809       11.1809       2.626447       0.01832
  47    0.1255        8.5545        0.0000       11.1809       11.1809       2.626408       0.01793
  46    0.1487        8.5545        0.0000       11.1808       11.1808       2.626358       0.01819
  45    0.1794        8.5545        0.0000       11.1808       11.1808       2.626289       0.01872
  44    0.2165        8.5545        0.0000       11.1807       11.1807       2.626209       0.01836
  43    0.2613        8.5545        0.0000       11.1806       11.1806       2.626113       0.01802
  42    0.3336        8.5546        0.0000       11.1805       11.1805       2.625955       0.01844
  41    0.4307        8.5546        0.0000       11.1803       11.1804       2.625745       0.01823
  40    0.5894        8.5547        0.0000       11.1801       11.1801       2.625403       0.01821
  39     1.339        8.5551        0.0001       11.1788       11.1789       2.623782       0.01824
  38     1.782        8.5553        0.0001       11.1781       11.1782       2.622830       0.01812
  37     2.292        8.5556        0.0001       11.1772       11.1773       2.621728       0.01825
  36     2.964        8.5560        0.0002       11.1761       11.1763       2.620281       0.01816
  35     3.853        8.5564        0.0002       11.1746       11.1748       2.618370       0.01814
  34     5.035        8.5571        0.0003       11.1726       11.1729       2.615830       0.01814
  33     6.613        8.5579        0.0004       11.1700       11.1704       2.612438       0.01814
  32     8.786        8.5591        0.0005       11.1664       11.1669       2.607867       0.01775
  31     11.80        8.5607        0.0007       11.1613       11.1620       2.601331       0.01830
  30     15.07        8.5624        0.0009       11.1558       11.1568       2.594317       0.01811
  29     18.79        8.5644        0.0012       11.1497       11.1508       2.586398       0.01795
  28     23.16        8.5668        0.0014       11.1425       11.1439       2.577157       0.01787
  27     28.12        8.5695        0.0017       11.1343       11.1361       2.566601       0.01794
  26     33.73        8.5725        0.0021       11.1252       11.1273       2.554804       0.01774
  25     40.54        8.5761        0.0025       11.1142       11.1167       2.540576       0.01765
  24     48.69        8.5805        0.0030       11.1010       11.1040       2.523459       0.01771
  23     57.69        8.5854        0.0035       11.0866       11.0901       2.504704       0.01758
  22     68.43        8.5913        0.0042       11.0695       11.0737       2.482433       0.01751
  21     81.20        8.5983        0.0050       11.0494       11.0543       2.455996       0.01747
  20     96.49        8.6068        0.0059       11.0255       11.0314       2.424629       0.01731
  19     114.6        8.6170        0.0070       10.9975       11.0045       2.387574       0.01730
  18     136.5        8.6292        0.0083       10.9648       10.9731       2.343908       0.01679
  17     162.9        8.6439        0.0099       10.9263       10.9361       2.292247       0.01651
  16     196.4        8.6634        0.0119       10.8773       10.8891       2.225756       0.01674
  15     218.7        8.6764        0.0132       10.8455       10.8587       2.182339       0.01648
  14     243.0        8.6908        0.0146       10.8114       10.8261       2.135301       0.01631
  13     269.0        8.7066        0.0162       10.7749       10.7910       2.084413       0.01651
  12     297.5        8.7242        0.0178       10.7357       10.7535       2.029373       0.01632
  11     328.5        8.7436        0.0196       10.6937       10.7134       1.969771       0.01621
  10     361.9        8.7652        0.0216       10.6489       10.6705       1.905282       0.01632
   9     398.1        8.7892        0.0237       10.6008       10.6244       1.835263       0.01631
   8     437.6        8.8161        0.0259       10.5491       10.5750       1.758908       0.01633
   7     480.5        8.8463        0.0284       10.4934       10.5218       1.675455       0.01639
   6     533.0        8.8858        0.0313       10.4243       10.4556       1.569839       0.01699
   5     589.8        8.9317        0.0345       10.3479       10.3824       1.450649       0.01769
   4     651.6        8.9870        0.0379       10.2613       10.2993       1.312285       0.01892
   3     718.7        9.0548        0.0416       10.1618       10.2033       1.148561       0.02058
   2     792.3        9.1411        0.0454       10.0439       10.0893       0.948202       0.02298
   1     891.5        2.5155        3.2990        0.0000        3.2990       0.783515       0.01401
   0    1013.0        2.5662        3.2320        0.0000        3.2320       0.665802       0.00817



 Wavenumbers:  8050. - 12850. cm-1, ATM      1
 LEVEL PRESSURE   UPWARD FLUX   DIFDOWN FLUX  DIRDOWN FLUX  DOWNWARD FLUX   NET FLUX    HEATING RATE
          mb          W/m2          W/m2          W/m2        W/m2          W/m2       degree/day
  51    .06700      111.8212        0.0000      156.5418      156.5418      44.720542       0.00000
  50    .07753      111.8212        0.0000      156.5417      156.5417      44.720542      -0.00000
  49    .09103      111.8212        0.0001      156.5417      156.5417      44.720542       0.00000
  48    0.1069      111.8212        0.0001      156.5416      156.5417      44.720542      -0.00000
  47    0.1255      111.8212        0.0002      156.5415      156.5417      44.720542      -0.00000
  46    0.1487      111.8211        0.0002      156.5414      156.5417      44.720542       0.00000
  45    0.1794      111.8211        0.0003      156.5413      156.5416      44.720542       0.00000
  44    0.2165      111.8211        0.0005      156.5412      156.5416      44.720542      -0.00000
  43    0.2613      111.8210        0.0006      156.5410      156.5416      44.720542      -0.00000
  42    0.3336      111.8210        0.0008      156.5407      156.5415      44.720542       0.00000
  41    0.4307      111.8209        0.0011      156.5403      156.5414      44.720542      -0.00000
  40    0.5894      111.8207        0.0016      156.5397      156.5412      44.720542       0.00000
  39     1.339      111.8200        0.0038      156.5367      156.5405      44.720542       0.00000
  38     1.782      111.8196        0.0051      156.5350      156.5401      44.720542      -0.00000
  37     2.292      111.8191        0.0066      156.5330      156.5396      44.720542      -0.00000
  36     2.964      111.8184        0.0086      156.5303      156.5390      44.720542       0.00000
  35     3.853      111.8176        0.0113      156.5268      156.5381      44.720542       0.00000
  34     5.035      111.8165        0.0148      156.5222      156.5370      44.720542      -0.00000
  33     6.613      111.8150        0.0195      156.5160      156.5355      44.720542       0.00000
  32     8.786      111.8129        0.0258      156.5076      156.5335      44.720542      -0.00000
  31     11.80      111.8100        0.0349      156.4957      156.5306      44.720542       0.00000
  30     15.07      111.8069        0.0446      156.4828      156.5274      44.720542       0.00000
  29     18.79      111.8034        0.0557      156.4682      156.5239      44.720542      -0.00000
  28     23.16      111.7992        0.0686      156.4512      156.5198      44.720542      -0.00000
  27     28.12      111.7945        0.0833      156.4317      156.5150      44.720542      -0.00000
  26     33.73      111.7892        0.0999      156.4099      156.5097      44.720542       0.00000
  25     40.54      111.7828        0.1199      156.3834      156.5033      44.720542       0.00000
  24     48.69      111.7750        0.1440      156.3515      156.4955      44.720542       0.00000
  23     57.69      111.7665        0.1706      156.3164      156.4870      44.720542       0.00000
  22     68.43      111.7563        0.2023      156.2746      156.4768      44.720542      -0.00000
  21     81.20      111.7442        0.2401      156.2246      156.4647      44.720542      -0.00000
  20     96.49      111.7297        0.2853      156.1649      156.4502      44.720542       0.00000
  19     114.6      111.7127        0.3390      156.0879      156.4269      44.714251       0.00294
  18     136.5      111.6925        0.4028      155.9962      156.3989      44.706451       0.00300
  17     162.9      111.6685        0.4789      155.8831      156.3620      44.693526       0.00413
  16     196.4      111.6374        0.5779      155.7199      156.2979      44.660473       0.00832
  15     218.7      111.6175        0.6431      155.5733      156.2164      44.598866       0.02339
  14     243.0      111.5972        0.7139      155.3367      156.0505      44.453347       0.05047
  13     269.0      111.5783        0.7904      154.9514      155.7419      44.163526       0.09402
  12     297.5      111.5641        0.8729      154.3896      155.2625      43.698454       0.13794
  11     328.5      111.5565        0.9619      153.7151      154.6770      43.120490       0.15715
  10     361.9      111.5598        1.0573      152.9087      153.9661      42.406306       0.18070
   9     398.1      111.5811        1.1595      151.8986      153.0581      41.476998       0.21651
   8     437.6      111.6327        1.2682      150.6031      151.8714      40.238651       0.26477
   7     480.5      111.7295        1.3832      149.0014      150.3846      38.655148       0.31099
   6     533.0      111.9274        1.5224      146.7375      148.2600      36.332595       0.37362
   5     589.8      112.2879        1.6683      143.8730      145.5413      33.253370       0.45706
   4     651.6      112.9937        1.8180      140.0955      141.9135      28.919869       0.59262
   3     718.7      114.3200        1.9699      135.5278      137.4977      23.177714       0.72163
   2     792.3      116.9758        2.1201      130.0690      132.1891      15.213371       0.91342
   1     891.5       29.0770       38.9240        0.0000       38.9240       9.847052       0.45665
   0    1013.0       29.8724       37.6226        0.0000       37.6226       7.750264       0.14559



 Wavenumbers: 12850. - 16000. cm-1, ATM      1
 LEVEL PRESSURE   UPWARD FLUX   DIFDOWN FLUX  DIRDOWN FLUX  DOWNWARD FLUX   NET FLUX    HEATING RATE
          mb          W/m2          W/m2          W/m2        W/m2          W/m2       degree/day
  51    .06700       80.7920        0.0000       98.0872       98.0872      17.295253       0.00000
  50    .07753       80.7920        0.0001       98.0864       98.0864      17.294460       0.63554
  49    .09103       80.7920        0.0002       98.0853       98.0855      17.293464       0.62261
  48    0.1069       80.7920        0.0003       98.0841       98.0843      17.292319       0.60945
  47    0.1255       80.7920        0.0004       98.0826       98.0830      17.291003       0.59661
  46    0.1487       80.7920        0.0005       98.0809       98.0814      17.289341       0.60568
  45    0.1794       80.7921        0.0007       98.0784       98.0792      17.287079       0.62085
  44    0.2165       80.7922        0.0010       98.0756       98.0766      17.284418       0.60552
  43    0.2613       80.7923        0.0013       98.0723       98.0736      17.281285       0.59045
  42    0.3336       80.7926        0.0017       98.0670       98.0688      17.276168       0.59657
  41    0.4307       80.7930        0.0024       98.0602       98.0626      17.269545       0.57588
  40    0.5894       80.7939        0.0034       98.0496       98.0530      17.259093       0.55580
  39     1.339       80.8011        0.0082       98.0043       98.0126      17.211496       0.53586
  38     1.782       80.8076        0.0111       97.9793       97.9904      17.182766       0.54697
  37     2.292       80.8173        0.0144       97.9498       97.9642      17.146877       0.59441
  36     2.964       80.8333        0.0187       97.9088       97.9275      17.094264       0.66045
  35     3.853       80.8590        0.0245       97.8503       97.8748      17.015792       0.74471
  34     5.035       80.8977        0.0320       97.7680       97.8000      16.902350       0.81039
  33     6.613       80.9517        0.0422       97.6562       97.6984      16.746695       0.83213
  32     8.786       81.0220        0.0558       97.5107       97.5665      16.544508       0.78522
  31     11.80       81.1136        0.0753       97.3179       97.3932      16.279569       0.74175
  30     15.07       81.2016        0.0963       97.1283       97.2246      16.023032       0.66233
  29     18.79       81.2915        0.1199       96.9300       97.0499      15.758415       0.59997
  28     23.16       81.3857        0.1475       96.7166       96.8640      15.478332       0.54159
  27     28.12       81.4808        0.1790       96.4935       96.6725      15.191702       0.48725
  26     33.73       81.5690        0.2143       96.2731       96.4873      14.918311       0.41105
  25     40.54       81.6547        0.2569       96.0408       96.2976      14.642950       0.34162
  24     48.69       81.7376        0.3082       95.7946       96.1028      14.365216       0.28741
  23     57.69       81.8090        0.3647       95.5573       95.9220      14.112985       0.23643
  22     68.43       81.8727        0.4320       95.3106       95.7426      13.869864       0.19113
  21     81.20       81.9195        0.5122       95.0643       95.5766      13.657118       0.14058
  20     96.49       81.9482        0.6080       94.8153       95.4233      13.475060       0.10048
  19     114.6       81.9800        0.7228       94.5411       95.2638      13.283830       0.08929
  18     136.5       82.0063        0.8588       94.2320       95.0908      13.084489       0.07665
  17     162.9       82.0274        1.0207       93.8753       94.8960      12.868593       0.06901
  16     196.4       82.0330        1.2308       93.4347       94.6654      12.632483       0.05943
  15     218.7       82.0289        1.3687       93.1513       94.5200      12.491064       0.05369
  14     243.0       82.0216        1.5187       92.8439       94.3626      12.340972       0.05206
  13     269.0       82.0112        1.6812       92.5111       94.1923      12.181062       0.05187
  12     297.5       81.9986        1.8567       92.1495       94.0062      12.007614       0.05144
  11     328.5       81.9861        2.0464       91.7554       93.8018      11.815691       0.05218
  10     361.9       81.9752        2.2507       91.3262       93.5769      11.601630       0.05416
   9     398.1       81.9680        2.4704       90.8575       93.3279      11.359886       0.05632
   8     437.6       81.9686        2.7062       90.3418       93.0480      11.079409       0.05997
   7     480.5       81.9810        2.9587       89.7728       92.7315      10.750477       0.06460
   6     533.0       82.0189        3.2691       89.0428       92.3119      10.293054       0.07358
   5     589.8       82.1008        3.6025       88.2038       91.8063       9.705564       0.08720
   4     651.6       82.2716        3.9584       87.1979       91.1564       8.884764       0.11225
   3     718.7       82.5676        4.3355       86.0161       90.3516       7.783986       0.13834
   2     792.3       83.0949        4.7298       84.5970       89.3268       6.231940       0.17800
   1     891.5       37.6914       42.6011        0.0000       42.6011       4.909614       0.11252
   0    1013.0       38.1211       42.0438        0.0000       42.0438       3.922684       0.06853



 Wavenumbers: 16000. - 22650. cm-1, ATM      1
 LEVEL PRESSURE   UPWARD FLUX   DIFDOWN FLUX  DIRDOWN FLUX  DOWNWARD FLUX   NET FLUX    HEATING RATE
          mb          W/m2          W/m2          W/m2        W/m2          W/m2       degree/day
  51    .06700      140.8546        0.0000      156.3892      156.3892      15.534607       0.00000
  50    .07753      140.8546        0.0004      156.3887      156.3891      15.534459       0.11834
  49    .09103      140.8546        0.0009      156.3879      156.3888      15.534244       0.13423
  48    0.1069      140.8546        0.0015      156.3871      156.3885      15.533957       0.15306
  47    0.1255      140.8546        0.0021      156.3861      156.3882      15.533572       0.17447
  46    0.1487      140.8547        0.0030      156.3847      156.3877      15.533005       0.20675
  45    0.1794      140.8548        0.0041      156.3828      156.3869      15.532118       0.24343
  44    0.2165      140.8550        0.0054      156.3805      156.3859      15.530915       0.27359
  43    0.2613      140.8554        0.0070      156.3776      156.3846      15.529283       0.30758
  42    0.3336      140.8561        0.0096      156.3726      156.3823      15.526181       0.36170
  41    0.4307      140.8574        0.0131      156.3657      156.3789      15.521505       0.40660
  40    0.5894      140.8599        0.0188      156.3537      156.3725      15.512586       0.47428
  39     1.339      140.8825        0.0458      156.2834      156.3292      15.446695       0.74181
  38     1.782      140.9034        0.0617      156.2324      156.2940      15.390564       1.06865
  37     2.292      140.9348        0.0800      156.1641      156.2441      15.309313       1.34572
  36     2.964      140.9868        0.1040      156.0605      156.1645      15.177686       1.65232
  35     3.853      141.0710        0.1358      155.9041      156.0399      14.968826       1.98212
  34     5.035      141.1981        0.1779      155.6774      155.8553      14.657223       2.22596
  33     6.613      141.3756        0.2342      155.3656      155.5998      14.224186       2.31502
  32     8.786      141.6068        0.3099      154.9577      155.2675      13.660704       2.18836
  31     11.80      141.9078        0.4180      154.4153      154.8333      12.925506       2.05832
  30     15.07      142.1960        0.5339      153.8804      154.4143      12.218268       1.82595
  29     18.79      142.4904        0.6647      153.3191      153.9838      11.493414       1.64347
  28     23.16      142.7979        0.8172      152.7126      153.5297      10.731777       1.47276
  27     28.12      143.1074        0.9913      152.0755      153.0668       9.959350       1.31308
  26     33.73      143.3931        1.1860      151.4409      152.6269       9.233807       1.09087
  25     40.54      143.6679        1.4209      150.7637      152.1846       8.516709       0.88964
  24     48.69      143.9310        1.7039      150.0338      151.7378       7.806771       0.73468
  23     57.69      144.1540        2.0144      149.3151      151.3295       7.175563       0.59166
  22     68.43      144.3484        2.3838      148.5476      150.9314       6.583025       0.46581
  21     81.20      144.4824        2.8236      147.7517      150.5753       6.092858       0.32390
  20     96.49      144.5516        3.3471      146.9127      150.2598       5.708200       0.21230
  19     114.6      144.5871        3.9669      145.9763      149.9432       5.356158       0.16438
  18     136.5      144.5977        4.6988      144.9088      149.6076       5.009840       0.13317
  17     162.9      144.5819        5.5662      143.6785      149.2448       4.662931       0.11089
  16     196.4      144.4996        6.6855      142.1651      148.8505       4.350920       0.07854
  15     218.7      144.4230        7.4169      141.2033      148.6202       4.197202       0.05836
  14     243.0      144.3294        8.2085      140.1753      148.3838       4.054413       0.04952
  13     269.0      144.2173        9.0625      139.0797      148.1422       3.924945       0.04200
  12     297.5      144.0859        9.9810      137.9141      147.8951       3.809147       0.03434
  11     328.5      143.9394       10.9682      136.6676      147.6358       3.696361       0.03067
  10     361.9      143.7775       12.0250      135.3392      147.3642       3.586702       0.02775
   9     398.1      143.5998       13.1556      133.9235      147.0790       3.479226       0.02504
   8     437.6      143.4074       14.3618      132.4163      146.7781       3.370713       0.02320
   7     480.5      143.1998       15.6459      130.8147      146.4606       3.260791       0.02159
   6     533.0      142.9449       17.2142      128.8599      146.0742       3.129284       0.02116
   5     589.8      142.6749       18.8899      126.7679      145.6579       2.982975       0.02172
   4     651.6      142.3971       20.6746      124.5274      145.2020       2.804935       0.02435
   3     718.7      142.1185       22.5699      122.1285      144.6983       2.579852       0.02829
   2     792.3      141.8578       24.5737      119.5548      144.1285       2.270739       0.03545
   1     891.5      110.5819      112.4711        0.0000      112.4711       1.889241       0.03246
   0    1013.0      110.7899      112.2151        0.0000      112.2151       1.425131       0.03223



 Wavenumbers: 22650. - 29000. cm-1, ATM      1
 LEVEL PRESSURE   UPWARD FLUX   DIFDOWN FLUX  DIRDOWN FLUX  DOWNWARD FLUX   NET FLUX    HEATING RATE
          mb          W/m2          W/m2          W/m2        W/m2          W/m2       degree/day
  51    .06700       58.4308        0.0000       59.0156       59.0156       0.584815       0.00000
  50    .07753       58.4307        0.0005       59.0151       59.0155       0.584815       0.00000
  49    .09103       58.4306        0.0010       59.0144       59.0154       0.584815      -0.00000
  48    0.1069       58.4305        0.0017       59.0136       59.0153       0.584815       0.00000
  47    0.1255       58.4303        0.0025       59.0127       59.0151       0.584815      -0.00000
  46    0.1487       58.4301        0.0034       59.0115       59.0149       0.584815       0.00000
  45    0.1794       58.4299        0.0048       59.0099       59.0147       0.584815      -0.00000
  44    0.2165       58.4296        0.0063       59.0080       59.0144       0.584815       0.00000
  43    0.2613       58.4292        0.0082       59.0058       59.0140       0.584815       0.00000
  42    0.3336       58.4286        0.0113       59.0022       59.0134       0.584815      -0.00000
  41    0.4307       58.4278        0.0153       58.9973       59.0126       0.584815      -0.00000
  40    0.5894       58.4265        0.0220       58.9894       59.0113       0.584815       0.00000
  39     1.339       58.4204        0.0534       58.9518       59.0052       0.584815       0.00000
  38     1.782       58.4168        0.0719       58.9297       59.0016       0.584815       0.00000
  37     2.292       58.4126        0.0933       58.9042       58.9975       0.584815       0.00000
  36     2.964       58.4072        0.1214       58.8706       58.9920       0.584815       0.00000
  35     3.853       58.4000        0.1584       58.8264       58.9848       0.584815       0.00000
  34     5.035       58.3904        0.2076       58.7676       58.9752       0.584815       0.00000
  33     6.613       58.3776        0.2733       58.6891       58.9624       0.584815       0.00000
  32     8.786       58.3604        0.3618       58.5834       58.9452       0.584815       0.00000
  31     11.80       58.3358        0.4882       58.4324       58.9206       0.584815      -0.00000
  30     15.07       58.3094        0.6236       58.2706       58.8943       0.584815       0.00000
  29     18.79       58.2797        0.7763       58.0882       58.8645       0.584815       0.00000
  28     23.16       58.2451        0.9542       57.8757       58.8299       0.584815       0.00000
  27     28.12       58.2056        1.1571       57.6333       58.7904       0.584815       0.00000
  26     33.73       58.1615        1.3833       57.3631       58.7464       0.584815       0.00000
  25     40.54       58.1085        1.6555       57.0379       58.6934       0.584815       0.00000
  24     48.69       58.0450        1.9819       56.6479       58.6298       0.584815      -0.00000
  23     57.69       57.9755        2.3383       56.2221       58.5603       0.584815       0.00000
  22     68.43       57.8934        2.7597       55.7186       58.4782       0.584815      -0.00000
  21     81.20       57.7964        3.2573       55.1239       58.3812       0.584815       0.00000
  20     96.49       57.6820        3.8440       54.4228       58.2668       0.584815      -0.00000
  19     114.6       57.5479        4.5317       53.6010       58.1327       0.584815       0.00000
  18     136.5       57.3913        5.3343       52.6418       57.9761       0.584815      -0.00000
  17     162.9       57.2080        6.2725       51.5203       57.7929       0.584815       0.00000
  16     196.4       56.9758        7.4611       50.0994       57.5606       0.584815      -0.00000
  15     218.7       56.8264        8.2249       49.1863       57.4112       0.584815       0.00000
  14     243.0       56.6668        9.0404       48.2113       57.2516       0.584815       0.00000
  13     269.0       56.4971        9.9070       47.1749       57.0819       0.584815       0.00000
  12     297.5       56.3174       10.8240       46.0783       56.9022       0.584815       0.00000
  11     328.5       56.1274       11.7927       44.9195       56.7122       0.584815      -0.00000
  10     361.9       55.9275       12.8105       43.7018       56.5124       0.584815       0.00000
   9     398.1       55.7178       13.8776       42.4250       56.3026       0.584815       0.00000
   8     437.6       55.4986       14.9918       41.0916       56.0834       0.584815      -0.00000
   7     480.5       55.2702       16.1506       39.7045       55.8551       0.584815       0.00000
   6     533.0       54.9983       17.5288       38.0543       55.5831       0.584815      -0.00000
   5     589.8       54.7158       18.9575       36.3431       55.3006       0.584815       0.00000
   4     651.6       54.4241       20.4294       34.5795       55.0090       0.584815      -0.00000
   3     718.7       54.1243       21.9389       32.7702       54.7091       0.584815       0.00000
   2     792.3       53.8179       23.4772       30.9256       54.4027       0.584815      -0.00000
   1     891.5       45.3651       45.9484        0.0000       45.9484       0.583286       0.00013
   0    1013.0       45.3447       45.9280        0.0000       45.9280       0.583286      -0.00000



 Wavenumbers: 29000. - 38000. cm-1, ATM      1
 LEVEL PRESSURE   UPWARD FLUX   DIFDOWN FLUX  DIRDOWN FLUX  DOWNWARD FLUX   NET FLUX    HEATING RATE
          mb          W/m2          W/m2          W/m2        W/m2          W/m2       degree/day
  51    .06700        8.7499        0.0000       20.8114       20.8114      12.061412       0.00000
  50    .07753        8.7498        0.0003       20.8070       20.8074      12.057605       3.05155
  49    .09103        8.7495        0.0007       20.8009       20.8016      12.052068       3.46085
  48    0.1069        8.7493        0.0012       20.7928       20.7939      12.044658       3.94429
  47    0.1255        8.7490        0.0017       20.7820       20.7837      12.034753       4.49034
  46    0.1487        8.7486        0.0024       20.7665       20.7688      12.020190       5.30844
  45    0.1794        8.7482        0.0033       20.7424       20.7457      11.997525       6.22204
  44    0.2165        8.7477        0.0044       20.7103       20.7147      11.967002       6.94340
  43    0.2613        8.7471        0.0056       20.6675       20.6731      11.926008       7.72732
  42    0.3336        8.7462        0.0077       20.5880       20.5956      11.849447       8.92625
  41    0.4307        8.7451        0.0104       20.4722       20.4826      11.737494       9.73402
  40    0.5894        8.7436        0.0147       20.2637       20.2784      11.534811      10.77846
  39     1.339        8.7402        0.0331       19.0984       19.1315      10.391334      12.87347
  38     1.782        8.7406        0.0427       18.4394       18.4821       9.741409      12.37351
  37     2.292        8.7433        0.0530       17.7714       17.8244       9.081064      10.93703
  36     2.964        8.7499        0.0657       17.0421       17.1078       8.357940       9.07740
  35     3.853        8.7627        0.0816       16.2678       16.3494       7.586759       7.31865
  34     5.035        8.7838        0.1017       15.4803       15.5821       6.798260       5.63271
  33     6.613        8.8145        0.1275       14.7157       14.8432       6.028668       4.11424
  32     8.786        8.8552        0.1613       13.9936       14.1549       5.299703       2.83104
  31     11.80        8.9082        0.2083       13.2835       13.4919       4.583709       2.00456
  30     15.07        8.9593        0.2571       12.7394       12.9965       4.037194       1.41100
  29     18.79        9.0121        0.3112       12.2666       12.5778       3.565692       1.06904
  28     23.16        9.0682        0.3727       11.8300       12.2027       3.134478       0.83383
  27     28.12        9.1257        0.4416       11.4279       11.8694       2.743688       0.66432
  26     33.73        9.1788        0.5175       11.0695       11.5869       2.408071       0.50461
  25     40.54        9.2293        0.6081       10.7209       11.3290       2.099771       0.38248
  24     48.69        9.2769        0.7157       10.3742       11.0899       1.813058       0.29670
  23     57.69        9.3160        0.8322       10.0549       10.8871       1.571134       0.22677
  22     68.43        9.3476        0.9688        9.7327       10.7016       1.353919       0.17076
  21     81.20        9.3629        1.1302        9.4134       10.5436       1.180686       0.11447
  20     96.49        9.3598        1.3198        9.0887       10.4086       1.048796       0.07279
  19     114.6        9.3463        1.5389        8.7388       10.2777       0.931380       0.05482
  18     136.5        9.3257        1.7895        8.3549       10.1444       0.818699       0.04333
  17     162.9        9.2978        2.0750        7.9311       10.0062       0.708350       0.03527
  16     196.4        9.2509        2.4288        7.4333        9.8621       0.611200       0.02445
  15     218.7        9.2170        2.6513        7.1295        9.7808       0.563809       0.01799
  14     243.0        9.1799        2.8839        6.8161        9.6999       0.520043       0.01518
  13     269.0        9.1393        3.1257        6.4943        9.6201       0.480739       0.01275
  12     297.5        9.0954        3.3757        6.1657        9.5415       0.446085       0.01028
  11     328.5        9.0495        3.6329        5.8295        9.4624       0.412902       0.00902
  10     361.9        9.0021        3.8948        5.4886        9.3835       0.381338       0.00799
   9     398.1        8.9534        4.1608        5.1440        9.3048       0.351419       0.00697
   8     437.6        8.9039        4.4295        4.7969        9.2264       0.322572       0.00617
   7     480.5        8.8538        4.6987        4.4504        9.1490       0.295184       0.00538
   6     533.0        8.7965        5.0055        4.0563        9.0618       0.265320       0.00480
   5     589.8        8.7399        5.3081        3.6682        8.9763       0.236396       0.00429
   4     651.6        8.6851        5.6027        3.2905        8.8932       0.208089       0.00387
   3     718.7        8.6326        5.8877        2.9252        8.8129       0.180355       0.00349
   2     792.3        8.5831        6.1599        2.5764        8.7363       0.153196       0.00311
   1     891.5        7.3494        7.4733        0.0000        7.4733       0.123956       0.00249
   0    1013.0        7.3559        7.4505        0.0000        7.4505       0.094621       0.00204



 Wavenumbers: 38000. - 50000. cm-1, ATM      1
 LEVEL PRESSURE   UPWARD FLUX   DIFDOWN FLUX  DIRDOWN FLUX  DOWNWARD FLUX   NET FLUX    HEATING RATE
          mb          W/m2          W/m2          W/m2        W/m2          W/m2       degree/day
  51    .06700        0.0061        0.0000        1.2836        1.2836       1.277518       0.00000
  50    .07753        0.0061        0.0001        1.2812        1.2812       1.275183       1.87150
  49    .09103        0.0060        0.0002        1.2777        1.2778       1.271851       2.08247
  48    0.1069        0.0059        0.0002        1.2731        1.2734       1.267473       2.33059
  47    0.1255        0.0058        0.0004        1.2672        1.2675       1.261717       2.60908
  46    0.1487        0.0057        0.0005        1.2586        1.2591       1.253391       3.03499
  45    0.1794        0.0055        0.0007        1.2455        1.2462       1.240623       3.50520
  44    0.2165        0.0054        0.0009        1.2282        1.2291       1.223697       3.85037
  43    0.2613        0.0052        0.0011        1.2054        1.2065       1.201348       4.21261
  42    0.3336        0.0049        0.0015        1.1639        1.1654       1.160524       4.75970
  41    0.4307        0.0045        0.0020        1.1051        1.1070       1.102565       5.03943
  40    0.5894        0.0039        0.0026        1.0039        1.0064       1.002524       5.32007
  39     1.339        0.0022        0.0035        0.5438        0.5473       0.545104       5.14971
  38     1.782        0.0016        0.0032        0.3635        0.3666       0.365006       3.42879
  37     2.292        0.0012        0.0027        0.2356        0.2383       0.237058       2.11916
  36     2.964        0.0009        0.0022        0.1455        0.1477       0.146786       1.13318
  35     3.853        0.0006        0.0017        0.0858        0.0875       0.086906       0.56828
  34     5.035        0.0004        0.0013        0.0488        0.0501       0.049701       0.26578
  33     6.613        0.0003        0.0010        0.0273        0.0282       0.027974       0.11615
  32     8.786        0.0002        0.0007        0.0144        0.0151       0.014928       0.05067
  31     11.80        0.0001        0.0004        0.0065        0.0070       0.006903       0.02247
  30     15.07        0.0000        0.0003        0.0031        0.0034       0.003329       0.00923
  29     18.79        0.0000        0.0002        0.0014        0.0016       0.001583       0.00396
  28     23.16        0.0000        0.0001        0.0006        0.0007       0.000720       0.00167
  27     28.12        0.0000        0.0001        0.0003        0.0003       0.000317       0.00069
  26     33.73        0.0000        0.0000        0.0001        0.0001       0.000140       0.00027
  25     40.54        0.0000        0.0000        0.0000        0.0001       0.000057       0.00010
  24     48.69        0.0000        0.0000        0.0000        0.0000       0.000021       0.00004
  23     57.69        0.0000        0.0000        0.0000        0.0000       0.000008       0.00001
  22     68.43        0.0000        0.0000        0.0000        0.0000       0.000003       0.00000
  21     81.20        0.0000        0.0000        0.0000        0.0000       0.000001       0.00000
  20     96.49        0.0000        0.0000        0.0000        0.0000       0.000000       0.00000
  19     114.6        0.0000        0.0000        0.0000        0.0000       0.000000       0.00000
  18     136.5        0.0000        0.0000        0.0000        0.0000       0.000000       0.00000
  17     162.9        0.0000        0.0000        0.0000        0.0000       0.000000       0.00000
  16     196.4        0.0000        0.0000        0.0000        0.0000       0.000000       0.00000
  15     218.7        0.0000        0.0000        0.0000        0.0000       0.000000       0.00000
  14     243.0        0.0000        0.0000        0.0000        0.0000       0.000000       0.00000
  13     269.0        0.0000        0.0000        0.0000        0.0000       0.000000       0.00000
  12     297.5        0.0000        0.0000        0.0000        0.0000       0.000000       0.00000
  11     328.5        0.0000        0.0000        0.0000        0.0000       0.000000       0.00000
  10     361.9        0.0000        0.0000        0.0000        0.0000       0.000000       0.00000
   9     398.1        0.0000        0.0000        0.0000        0.0000       0.000000       0.00000
   8     437.6        0.0000        0.0000        0.0000        0.0000       0.000000       0.00000
   7     480.5        0.0000        0.0000        0.0000        0.0000       0.000000       0.00000
   6     533.0        0.0000        0.0000        0.0000        0.0000       0.000000       0.00000
   5     589.8        0.0000        0.0000        0.0000        0.0000       0.000000       0.00000
   4     651.6        0.0000        0.0000        0.0000        0.0000       0.000000       0.00000
   3     718.7        0.0000        0.0000        0.0000        0.0000       0.000000       0.00000
   2     792.3        0.0000        0.0000        0.0000        0.0000       0.000000       0.00000
   1     891.5        0.0000        0.0000        0.0000        0.0000       0.000000       0.00000
   0    1013.0        0.0000        0.0000        0.0000        0.0000       0.000000       0.00000



 Wavenumbers:   820. -  2600. cm-1, ATM      1
 LEVEL PRESSURE   UPWARD FLUX   DIFDOWN FLUX  DIRDOWN FLUX  DOWNWARD FLUX   NET FLUX    HEATING RATE
          mb          W/m2          W/m2          W/m2        W/m2          W/m2       degree/day
  51    .06700        1.6269        0.0000        6.0047        6.0047       4.377727       0.00000
  50    .07753        1.6269        0.0000        6.0008        6.0008       4.373874       3.08825
  49    .09103        1.6269        0.0000        5.9999        5.9999       4.372989       0.55362
  48    0.1069        1.6269        0.0000        5.9989        5.9989       4.371999       0.52657
  47    0.1255        1.6269        0.0000        5.9978        5.9978       4.370882       0.50654
  46    0.1487        1.6269        0.0000        5.9964        5.9964       4.369525       0.49462
  45    0.1794        1.6269        0.0000        5.9947        5.9947       4.367806       0.47205
  44    0.2165        1.6269        0.0000        5.9929        5.9929       4.365963       0.41915
  43    0.2613        1.6269        0.0000        5.9909        5.9909       4.364003       0.36938
  42    0.3336        1.6269        0.0000        5.9880        5.9880       4.361125       0.33562
  41    0.4307        1.6269        0.0000        5.9846        5.9846       4.357655       0.30170
  40    0.5894        1.6269        0.0000        5.9791        5.9791       4.352149       0.29282
  39     1.339        1.6269        0.0000        5.9536        5.9536       4.326656       0.28700
  38     1.782        1.6269        0.0000        5.9395        5.9395       4.312514       0.26923
  37     2.292        1.6269        0.0000        5.9237        5.9237       4.296759       0.26094
  36     2.964        1.6270        0.0000        5.9039        5.9039       4.276981       0.24828
  35     3.853        1.6270        0.0000        5.8793        5.8793       4.252318       0.23405
  34     5.035        1.6270        0.0000        5.8487        5.8487       4.221747       0.21839
  33     6.613        1.6270        0.0000        5.8108        5.8108       4.183771       0.20302
  32     8.786        1.6270        0.0000        5.7631        5.7631       4.136132       0.18501
  31     11.80        1.6270        0.0000        5.7039        5.7039       4.076852       0.16596
  30     15.07        1.6271        0.0000        5.6539        5.6539       4.026789       0.12925
  29     18.79        1.6271        0.0000        5.6127        5.6127       3.985625       0.09333
  28     23.16        1.6272        0.0000        5.5794        5.5794       3.952214       0.06461
  27     28.12        1.6272        0.0000        5.5518        5.5518       3.924607       0.04693
  26     33.73        1.6273        0.0000        5.5268        5.5268       3.899507       0.03774
  25     40.54        1.6273        0.0000        5.4993        5.4993       3.872006       0.03412
  24     48.69        1.6274        0.0000        5.4678        5.4678       3.840394       0.03271
  23     57.69        1.6275        0.0000        5.4340        5.4340       3.806526       0.03175
  22     68.43        1.6276        0.0000        5.3947        5.3948       3.767155       0.03095
  21     81.20        1.6277        0.0000        5.3497        5.3497       3.722001       0.02984
  20     96.49        1.6279        0.0000        5.2982        5.2982       3.670337       0.02851
  19     114.6        1.6281        0.0000        5.2389        5.2389       3.610828       0.02779
  18     136.5        1.6283        0.0000        5.1716        5.1717       3.543337       0.02595
  17     162.9        1.6287        0.0000        5.0890        5.0891       3.460370       0.02652
  16     196.4        1.6293        0.0000        4.9668        4.9668       3.337547       0.03092
  15     218.7        1.6299        0.0000        4.8585        4.8585       3.228601       0.04136
  14     243.0        1.6308        0.0000        4.7078        4.7079       3.077042       0.05257
  13     269.0        1.6322        0.0000        4.5343        4.5343       2.902064       0.05676
  12     297.5        1.6345        0.0000        4.3419        4.3420       2.707507       0.05770
  11     328.5        1.6375        0.0000        4.1281        4.1281       2.490687       0.05895
  10     361.9        1.6414        0.0000        3.8786        3.8787       2.237238       0.06412
   9     398.1        1.6466        0.0000        3.6159        3.6160       1.969359       0.06241
   8     437.6        1.6533        0.0000        3.3759        3.3759       1.722618       0.05275
   7     480.5        1.6615        0.0000        3.1957        3.1958       1.534325       0.03698
   6     533.0        1.6739        0.0000        3.0467        3.0467       1.372802       0.02598
   5     589.8        1.6923        0.0001        2.9023        2.9023       1.210039       0.02416
   4     651.6        1.7243        0.0001        2.7183        2.7184       0.994098       0.02953
   3     718.7        1.7800        0.0001        2.5058        2.5059       0.725894       0.03371
   2     792.3        1.8890        0.0001        2.2756        2.2757       0.386717       0.03890
   1     891.5        0.2076        0.3702        0.0000        0.3702       0.162637       0.01907
   0    1013.0        0.2455        0.3091        0.0000        0.3091       0.063681       0.00687

  Modules and versions used in this calculation:

       rrtmg_sw.1col.f90:  $Revision$                    rrtmg_sw_init.f90:  $Revision$        
     rrtmgsw_cldprop.f90:  $Revision$                  rrtmgsw_cldprmc.f90:  NOT USED          
     rrtmg_sw_reftra.f90:  $Revision$                  rrtmg_sw_spcvrt.f90:  NOT USED          
     rrtmg_sw_spcvmc.f90:  NOT USED                    rrtmgsw_setcoef.f90:  NOT USED          
     rrtmg_sw_taumol.f90:  $Revision$                  rrtmg_sw_vrtqdr.f90:  NOT USED          
                rrtatm.f:  NOT USED                             util_xxx.f:  NOT USED          
                 extra.f:  NOT USED                       rrtmg_sw_k_g.f90:  $Revision$        

