

 Wavenumbers:   820. - 50000. cm-1, ATM      1
 LEVEL PRESSURE   UPWARD FLUX   DIFDOWN FLUX  DIRDOWN FLUX  DOWNWARD FLUX   NET FLUX    HEATING RATE
          mb          W/m2          W/m2          W/m2        W/m2          W/m2       degree/day
  51    .06700      404.0819        0.0000      617.8126      617.8126     213.730705       0.00000
  50    .07753      404.0815        0.0013      617.7947      617.7961     213.714566      12.93540
  49    .09103      404.0810        0.0030      617.7778      617.7808     213.699759       9.25520
  48    0.1069      404.0806        0.0050      617.7581      617.7631     213.682500       9.18687
  47    0.1255      404.0800        0.0072      617.7340      617.7412     213.661159       9.67495
  46    0.1487      404.0794        0.0100      617.7009      617.7109     213.631479      10.81870
  45    0.1794      404.0787        0.0139      617.6521      617.6659     213.587257      12.14002
  44    0.2165      404.0779        0.0184      617.5895      617.6079     213.529948      13.03685
  43    0.2613      404.0772        0.0237      617.5089      617.5326     213.455451      14.04224
  42    0.3336      404.0763        0.0326      617.3641      617.3967     213.320397      15.74593
  41    0.4307      404.0755        0.0442      617.1591      617.2033     213.127821      16.74405
  40    0.5894      404.0751        0.0629      616.8005      616.8634     212.788221      18.05952
  39     1.339      404.0915        0.1475      614.9443      615.0918     211.000288      20.12888
  38     1.782      404.1135        0.1951      613.9670      614.1622     210.048613      18.11836
  37     2.292      404.1503        0.2493      613.0059      613.2552     209.104850      15.63117
  36     2.964      404.2157        0.3198      611.9577      612.2774     208.061754      13.09401
  35     3.853      404.3256        0.4121      610.8024      611.2145     206.888934      11.13027
  34     5.035      404.4948        0.5340      609.5327      610.0667     205.571828       9.40886
  33     6.613      404.7334        0.6957      608.1464      608.8421     204.108769       7.82152
  32     8.786      405.0441        0.9127      606.6250      607.5377     202.493697       6.27236
  31     11.80      405.4461        1.2217      604.8486      606.0703     200.624219       5.23395
  30     15.07      405.8284        1.5513      603.2440      604.7953     198.966895       4.27889
  29     18.79      406.2161        1.9223      601.6511      603.5734     197.357241       3.64958
  28     23.16      406.6183        2.3532      599.9927      602.3459     195.727690       3.15103
  27     28.12      407.0186        2.8438      598.2881      601.1319     194.113265       2.74441
  26     33.73      407.3796        3.3907      596.5951      599.9858     192.606209       2.26590
  25     40.54      407.7142        4.0491      594.7727      598.8218     191.107547       1.85926
  24     48.69      408.0195        4.8391      592.7865      597.6256     189.606156       1.55370
  23     57.69      408.2594        5.7027      590.7959      596.4986     188.239222       1.28130
  22     68.43      408.4417        6.7258      588.6191      595.3449     186.903200       1.05029
  21     81.20      408.5151        7.9387      586.2690      594.2077     185.692621       0.79993
  20     96.49      408.4692        9.3748      583.6961      593.0709     184.601713       0.60210
  19     114.6      408.3619       11.0642      580.7708      591.8350     183.473181       0.52694
  18     136.5      408.1907       13.0424      577.4359      590.4783     182.287602       0.45588
  17     162.9      407.9492       15.3637      573.5624      588.9261     180.976925       0.41895
  16     196.4      407.5496       18.3239      568.5907      586.9146     179.364999       0.40574
  15     218.7      407.2585       20.2377      565.0572      585.2949     178.036341       0.50444
  14     243.0      406.9331       22.2902      560.7495      583.0398     176.106684       0.66927
  13     269.0      406.5730       24.4830      555.3947      579.8777     173.304663       0.90896
  12     297.5      406.1812       26.8166      548.9964      575.8130     169.631716       1.08936
  11     328.5      405.7659       29.2974      542.0895      571.3869     165.621010       1.09050
  10     361.9      405.3316       31.9216      534.6242      566.5458     161.214253       1.11495
   9     398.1      404.8837       34.6938      526.4204      561.1142     156.230473       1.16111
   8     437.6      404.4350       37.6125      517.3907      555.0032     150.568216       1.21063
   7     480.5      403.9974       40.6758      507.7216      548.3974     144.400007       1.21141
   6     533.0      403.5391       44.3585      495.9006      540.2591     136.719966       1.23547
   5     589.8      403.1884       48.2225      483.0788      531.3013     128.112907       1.27757
   4     651.6      403.0973       52.2554      468.6907      520.9461     117.848756       1.40365
   3     718.7      403.4522       56.4491      453.2257      509.6748     106.222547       1.46109
   2     792.3      404.7134       60.7818      436.4928      497.2746      92.561235       1.56680
   1     891.5      371.2633      178.8151      266.4413      445.2564      73.993098       1.58006
   0    1013.0      377.6293      179.2545      250.0134      429.2679      51.638575       1.55219



 Wavenumbers:  2600. -  3250. cm-1, ATM      1
 LEVEL PRESSURE   UPWARD FLUX   DIFDOWN FLUX  DIRDOWN FLUX  DOWNWARD FLUX   NET FLUX    HEATING RATE
          mb          W/m2          W/m2          W/m2        W/m2          W/m2       degree/day
  51    .06700        1.2822        0.0000        5.4450        5.4450       4.162870       0.00000
  50    .07753        1.2822        0.0000        5.4450        5.4450       4.162862       0.00640
  49    .09103        1.2822        0.0000        5.4450        5.4450       4.162852       0.00627
  48    0.1069        1.2822        0.0000        5.4450        5.4450       4.162840       0.00613
  47    0.1255        1.2822        0.0000        5.4450        5.4450       4.162827       0.00599
  46    0.1487        1.2822        0.0000        5.4450        5.4450       4.162810       0.00608
  45    0.1794        1.2822        0.0000        5.4450        5.4450       4.162788       0.00625
  44    0.2165        1.2822        0.0000        5.4449        5.4449       4.162761       0.00612
  43    0.2613        1.2822        0.0000        5.4449        5.4449       4.162729       0.00600
  42    0.3336        1.2822        0.0000        5.4448        5.4448       4.162676       0.00617
  41    0.4307        1.2822        0.0000        5.4448        5.4448       4.162605       0.00620
  40    0.5894        1.2822        0.0000        5.4446        5.4446       4.162485       0.00637
  39     1.339        1.2822        0.0000        5.4439        5.4439       4.161777       0.00797
  38     1.782        1.2822        0.0000        5.4434        5.4434       4.161234       0.01034
  37     2.292        1.2822        0.0000        5.4427        5.4427       4.160518       0.01186
  36     2.964        1.2822        0.0000        5.4416        5.4416       4.159480       0.01304
  35     3.853        1.2822        0.0000        5.4402        5.4402       4.158002       0.01402
  34     5.035        1.2822        0.0000        5.4381        5.4381       4.155947       0.01468
  33     6.613        1.2822        0.0000        5.4353        5.4353       4.153166       0.01487
  32     8.786        1.2822        0.0000        5.4317        5.4317       4.149533       0.01411
  31     11.80        1.2822        0.0000        5.4269        5.4269       4.144752       0.01338
  30     15.07        1.2822        0.0000        5.4224        5.4224       4.140225       0.01169
  29     18.79        1.2822        0.0000        5.4180        5.4180       4.135812       0.01001
  28     23.16        1.2822        0.0000        5.4135        5.4135       4.131323       0.00868
  27     28.12        1.2822        0.0000        5.4088        5.4088       4.126673       0.00791
  26     33.73        1.2822        0.0000        5.4036        5.4036       4.121428       0.00789
  25     40.54        1.2822        0.0000        5.3966        5.3967       4.114479       0.00862
  24     48.69        1.2822        0.0000        5.3872        5.3872       4.104992       0.00982
  23     57.69        1.2822        0.0000        5.3754        5.3754       4.093192       0.01106
  22     68.43        1.2822        0.0000        5.3599        5.3599       4.077683       0.01219
  21     81.20        1.2823        0.0000        5.3401        5.3401       4.057818       0.01313
  20     96.49        1.2823        0.0000        5.3155        5.3155       4.033206       0.01358
  19     114.6        1.2824        0.0000        5.2853        5.2854       4.002947       0.01413
  18     136.5        1.2825        0.0001        5.2504        5.2505       3.967950       0.01346
  17     162.9        1.2827        0.0001        5.2111        5.2112       3.928477       0.01262
  16     196.4        1.2830        0.0001        5.1640        5.1641       3.881161       0.01191
  15     218.7        1.2832        0.0001        5.1331        5.1332       3.849956       0.01185
  14     243.0        1.2837        0.0001        5.0962        5.0963       3.812584       0.01296
  13     269.0        1.2845        0.0001        5.0511        5.0512       3.766714       0.01488
  12     297.5        1.2856        0.0001        4.9956        4.9957       3.710097       0.01679
  11     328.5        1.2872        0.0001        4.9304        4.9305       3.643290       0.01816
  10     361.9        1.2894        0.0001        4.8511        4.8512       3.561865       0.02060
   9     398.1        1.2923        0.0002        4.7507        4.7508       3.458506       0.02408
   8     437.6        1.2964        0.0002        4.6220        4.6222       3.325821       0.02837
   7     480.5        1.3019        0.0002        4.4625        4.4627       3.160745       0.03242
   6     533.0        1.3108        0.0002        4.2460        4.2462       2.935440       0.03624
   5     589.8        1.3241        0.0002        3.9954        3.9956       2.671493       0.03918
   4     651.6        1.3456        0.0002        3.7089        3.7091       2.363482       0.04212
   3     718.7        1.3799        0.0002        3.4018        3.4020       2.022163       0.04289
   2     792.3        1.4389        0.0002        3.0564        3.0566       1.617723       0.04638
   1     891.5        1.1838        0.6020        1.6624        2.2643       1.080498       0.04572
   0    1013.0        1.3639        0.5044        1.3417        1.8460       0.482116       0.04155



 Wavenumbers:  3250. -  4000. cm-1, ATM      1
 LEVEL PRESSURE   UPWARD FLUX   DIFDOWN FLUX  DIRDOWN FLUX  DOWNWARD FLUX   NET FLUX    HEATING RATE
          mb          W/m2          W/m2          W/m2        W/m2          W/m2       degree/day
  51    .06700        0.0100        0.0000        9.1795        9.1795       9.169520       0.00000
  50    .07753        0.0100        0.0000        9.1747        9.1747       9.164677       3.88148
  49    .09103        0.0100        0.0000        9.1713        9.1713       9.161289       2.11747
  48    0.1069        0.0100        0.0000        9.1688        9.1688       9.158764       1.34402
  47    0.1255        0.0100        0.0000        9.1665        9.1665       9.156505       1.02422
  46    0.1487        0.0100        0.0000        9.1641        9.1641       9.154064       0.88991
  45    0.1794        0.0100        0.0000        9.1612        9.1612       9.151186       0.79008
  44    0.2165        0.0100        0.0000        9.1583        9.1583       9.148265       0.66430
  43    0.2613        0.0100        0.0000        9.1553        9.1553       9.145292       0.56041
  42    0.3336        0.0100        0.0000        9.1511        9.1511       9.141113       0.48723
  41    0.4307        0.0100        0.0000        9.1464        9.1464       9.136345       0.41459
  40    0.5894        0.0100        0.0000        9.1393        9.1394       9.129340       0.37255
  39     1.339        0.0100        0.0000        9.1127        9.1127       9.102726       0.29962
  38     1.782        0.0100        0.0000        9.1011        9.1011       9.091138       0.22062
  37     2.292        0.0100        0.0000        9.0901        9.0901       9.080071       0.18329
  36     2.964        0.0100        0.0000        9.0776        9.0776       9.067641       0.15603
  35     3.853        0.0100        0.0000        9.0629        9.0629       9.052851       0.14036
  34     5.035        0.0100        0.0000        9.0441        9.0441       9.034112       0.13386
  33     6.613        0.0100        0.0000        9.0191        9.0191       9.009111       0.13366
  32     8.786        0.0100        0.0000        8.9843        8.9843       8.974327       0.13509
  31     11.80        0.0100        0.0000        8.9327        8.9327       8.922711       0.14451
  30     15.07        0.0100        0.0000        8.8758        8.8759       8.865866       0.14676
  29     18.79        0.0100        0.0000        8.8110        8.8110       8.801038       0.14698
  28     23.16        0.0100        0.0000        8.7365        8.7366       8.726594       0.14395
  27     28.12        0.0100        0.0000        8.6554        8.6555       8.645481       0.13789
  26     33.73        0.0100        0.0000        8.5719        8.5719       8.561981       0.12554
  25     40.54        0.0100        0.0001        8.4812        8.4812       8.471257       0.11255
  24     48.69        0.0099        0.0001        8.3838        8.3839       8.373956       0.10069
  23     57.69        0.0099        0.0001        8.2861        8.2862       8.276221       0.09161
  22     68.43        0.0099        0.0001        8.1751        8.1751       8.165224       0.08726
  21     81.20        0.0099        0.0001        8.0457        8.0458       8.035866       0.08548
  20     96.49        0.0099        0.0001        7.8949        7.8950       7.885162       0.08318
  19     114.6        0.0099        0.0001        7.7162        7.7163       7.706453       0.08344
  18     136.5        0.0098        0.0002        7.5193        7.5194       7.509609       0.07569
  17     162.9        0.0098        0.0002        7.2913        7.2915       7.281718       0.07284
  16     196.4        0.0098        0.0002        6.9660        6.9662       6.956444       0.08188
  15     218.7        0.0098        0.0002        6.6648        6.6650       6.655254       0.11435
  14     243.0        0.0097        0.0002        6.2619        6.2622       6.252456       0.13970
  13     269.0        0.0097        0.0003        5.7576        5.7579       5.748147       0.16360
  12     297.5        0.0097        0.0003        5.1719        5.1722       5.162435       0.17372
  11     328.5        0.0097        0.0002        4.5757        4.5760       4.566239       0.16210
  10     361.9        0.0098        0.0002        3.9995        3.9998       3.990004       0.14579
   9     398.1        0.0099        0.0002        3.4655        3.4657       3.455850       0.12445
   8     437.6        0.0100        0.0002        2.9740        2.9742       2.964239       0.10511
   7     480.5        0.0103        0.0002        2.5307        2.5309       2.520601       0.08713
   6     533.0        0.0108        0.0002        2.0614        2.0616       2.050794       0.07558
   5     589.8        0.0117        0.0002        1.6150        1.6151       1.603432       0.06640
   4     651.6        0.0136        0.0001        1.1565        1.1566       1.142937       0.06297
   3     718.7        0.0180        0.0001        0.7390        0.7391       0.721141       0.05301
   2     792.3        0.0294        0.0001        0.3985        0.3985       0.369085       0.04038
   1     891.5        0.0006        0.0208        0.0733        0.0941       0.093451       0.02346
   0    1013.0        0.0060        0.0022        0.0060        0.0082       0.002145       0.00634



 Wavenumbers:  4000. -  4650. cm-1, ATM      1
 LEVEL PRESSURE   UPWARD FLUX   DIFDOWN FLUX  DIRDOWN FLUX  DOWNWARD FLUX   NET FLUX    HEATING RATE
          mb          W/m2          W/m2          W/m2        W/m2          W/m2       degree/day
  51    .06700        4.9133        0.0000       10.7795       10.7795       5.866260       0.00000
  50    .07753        4.9133        0.0000       10.7795       10.7795       5.866259       0.00080
  49    .09103        4.9133        0.0000       10.7795       10.7795       5.866258       0.00078
  48    0.1069        4.9133        0.0000       10.7795       10.7795       5.866256       0.00076
  47    0.1255        4.9133        0.0000       10.7795       10.7795       5.866255       0.00075
  46    0.1487        4.9133        0.0000       10.7795       10.7795       5.866253       0.00076
  45    0.1794        4.9133        0.0000       10.7795       10.7795       5.866250       0.00078
  44    0.2165        4.9133        0.0000       10.7795       10.7795       5.866246       0.00076
  43    0.2613        4.9133        0.0000       10.7795       10.7795       5.866242       0.00075
  42    0.3336        4.9133        0.0000       10.7795       10.7795       5.866236       0.00077
  41    0.4307        4.9133        0.0000       10.7795       10.7795       5.866227       0.00077
  40    0.5894        4.9133        0.0000       10.7795       10.7795       5.866212       0.00080
  39     1.339        4.9133        0.0000       10.7794       10.7794       5.866123       0.00101
  38     1.782        4.9133        0.0000       10.7793       10.7793       5.866053       0.00133
  37     2.292        4.9133        0.0000       10.7792       10.7792       5.865959       0.00156
  36     2.964        4.9133        0.0000       10.7791       10.7791       5.865818       0.00176
  35     3.853        4.9133        0.0000       10.7789       10.7789       5.865610       0.00197
  34     5.035        4.9133        0.0000       10.7786       10.7786       5.865303       0.00219
  33     6.613        4.9133        0.0000       10.7781       10.7781       5.864851       0.00242
  32     8.786        4.9133        0.0000       10.7774       10.7774       5.864184       0.00259
  31     11.80        4.9133        0.0001       10.7763       10.7764       5.863136       0.00293
  30     15.07        4.9133        0.0001       10.7751       10.7752       5.861907       0.00317
  29     18.79        4.9133        0.0001       10.7736       10.7737       5.860420       0.00337
  28     23.16        4.9132        0.0001       10.7717       10.7718       5.858574       0.00357
  27     28.12        4.9132        0.0001       10.7695       10.7696       5.856338       0.00380
  26     33.73        4.9132        0.0002       10.7667       10.7668       5.853582       0.00414
  25     40.54        4.9133        0.0002       10.7629       10.7631       5.849843       0.00464
  24     48.69        4.9133        0.0002       10.7579       10.7581       5.844861       0.00516
  23     57.69        4.9133        0.0003       10.7520       10.7523       5.838953       0.00554
  22     68.43        4.9134        0.0003       10.7446       10.7449       5.831549       0.00582
  21     81.20        4.9135        0.0004       10.7355       10.7359       5.822430       0.00603
  20     96.49        4.9136        0.0004       10.7245       10.7249       5.811332       0.00613
  19     114.6        4.9138        0.0005       10.7107       10.7112       5.797451       0.00648
  18     136.5        4.9141        0.0006       10.6942       10.6948       5.780723       0.00643
  17     162.9        4.9146        0.0007       10.6740       10.6748       5.760205       0.00656
  16     196.4        4.9154        0.0009       10.6464       10.6473       5.731881       0.00713
  15     218.7        4.9161        0.0010       10.6255       10.6264       5.710313       0.00819
  14     243.0        4.9173        0.0011       10.5980       10.5992       5.681861       0.00987
  13     269.0        4.9190        0.0012       10.5611       10.5623       5.643265       0.01252
  12     297.5        4.9216        0.0013       10.5119       10.5133       5.591639       0.01531
  11     328.5        4.9252        0.0015       10.4499       10.4514       5.526103       0.01782
  10     361.9        4.9300        0.0016       10.3702       10.3718       5.441820       0.02132
   9     398.1        4.9359        0.0018       10.2678       10.2695       5.333674       0.02520
   8     437.6        4.9433        0.0019       10.1390       10.1409       5.197617       0.02909
   7     480.5        4.9526        0.0021        9.9877        9.9898       5.037175       0.03151
   6     533.0        4.9666        0.0023        9.7937        9.7960       4.829332       0.03344
   5     589.8        4.9864        0.0025        9.5752        9.5776       4.591271       0.03534
   4     651.6        5.0170        0.0027        9.2958        9.2985       4.281484       0.04236
   3     718.7        5.0660        0.0029        8.9267        8.9296       3.863615       0.05251
   2     792.3        5.1512        0.0030        8.4542        8.4573       3.306091       0.06394
   1     891.5        4.4144        1.9402        5.0175        6.9578       2.543340       0.06491
   0    1013.0        4.6972        1.7960        4.5553        6.3513       1.654116       0.06174



 Wavenumbers:  4650. -  5150. cm-1, ATM      1
 LEVEL PRESSURE   UPWARD FLUX   DIFDOWN FLUX  DIRDOWN FLUX  DOWNWARD FLUX   NET FLUX    HEATING RATE
          mb          W/m2          W/m2          W/m2        W/m2          W/m2       degree/day
  51    .06700        3.4774        0.0000       10.2033       10.2033       6.725931       0.00000
  50    .07753        3.4774        0.0000       10.2031       10.2031       6.725696       0.18901
  49    .09103        3.4774        0.0000       10.2028       10.2028       6.725401       0.18428
  48    0.1069        3.4774        0.0000       10.2025       10.2025       6.725064       0.17931
  47    0.1255        3.4774        0.0000       10.2021       10.2021       6.724680       0.17426
  46    0.1487        3.4774        0.0000       10.2016       10.2016       6.724198       0.17536
  45    0.1794        3.4774        0.0000       10.2010       10.2010       6.723548       0.17850
  44    0.2165        3.4774        0.0000       10.2002       10.2002       6.722789       0.17277
  43    0.2613        3.4774        0.0000       10.1993       10.1993       6.721903       0.16690
  42    0.3336        3.4774        0.0000       10.1979       10.1979       6.720471       0.16702
  41    0.4307        3.4774        0.0000       10.1960       10.1960       6.718630       0.16002
  40    0.5894        3.4774        0.0000       10.1932       10.1932       6.715756       0.15283
  39     1.339        3.4774        0.0000       10.1816       10.1816       6.704165       0.13050
  38     1.782        3.4774        0.0000       10.1760       10.1760       6.698636       0.10526
  37     2.292        3.4774        0.0000       10.1706       10.1706       6.693179       0.09037
  36     2.964        3.4774        0.0000       10.1646       10.1647       6.687256       0.07435
  35     3.853        3.4774        0.0000       10.1584       10.1584       6.681042       0.05898
  34     5.035        3.4774        0.0000       10.1521       10.1521       6.674705       0.04526
  33     6.613        3.4774        0.0000       10.1456       10.1456       6.668247       0.03453
  32     8.786        3.4774        0.0001       10.1386       10.1386       6.661234       0.02723
  31     11.80        3.4774        0.0001       10.1295       10.1296       6.652190       0.02532
  30     15.07        3.4774        0.0001       10.1196       10.1197       6.642305       0.02552
  29     18.79        3.4774        0.0001       10.1076       10.1077       6.630289       0.02724
  28     23.16        3.4774        0.0002       10.0923       10.0924       6.614972       0.02962
  27     28.12        3.4775        0.0002       10.0731       10.0733       6.595860       0.03249
  26     33.73        3.4775        0.0002       10.0500       10.0503       6.572742       0.03476
  25     40.54        3.4776        0.0003       10.0201       10.0204       6.542803       0.03714
  24     48.69        3.4777        0.0003        9.9820        9.9823       6.504579       0.03956
  23     57.69        3.4779        0.0004        9.9384        9.9388       6.460972       0.04088
  22     68.43        3.4781        0.0005        9.8858        9.8862       6.408142       0.04153
  21     81.20        3.4784        0.0005        9.8234        9.8240       6.345614       0.04132
  20     96.49        3.4788        0.0006        9.7518        9.7524       6.273604       0.03974
  19     114.6        3.4794        0.0007        9.6719        9.6727       6.193284       0.03750
  18     136.5        3.4802        0.0009        9.5858        9.5867       6.106469       0.03338
  17     162.9        3.4814        0.0010        9.4940        9.4951       6.013709       0.02965
  16     196.4        3.4832        0.0012        9.3883        9.3895       5.906341       0.02703
  15     218.7        3.4846        0.0014        9.3229        9.3243       5.839671       0.02531
  14     243.0        3.4865        0.0015        9.2520        9.2535       5.766976       0.02521
  13     269.0        3.4891        0.0017        9.1717        9.1733       5.684223       0.02684
  12     297.5        3.4928        0.0018        9.0763        9.0781       5.585325       0.02933
  11     328.5        3.4976        0.0020        8.9650        8.9670       5.469365       0.03153
  10     361.9        3.5038        0.0022        8.8349        8.8371       5.333257       0.03444
   9     398.1        3.5120        0.0024        8.6820        8.6844       5.172436       0.03747
   8     437.6        3.5225        0.0026        8.5028        8.5054       4.982881       0.04053
   7     480.5        3.5361        0.0028        8.2948        8.2976       4.761430       0.04349
   6     533.0        3.5569        0.0030        8.0209        8.0239       4.466975       0.04737
   5     589.8        3.5856        0.0032        7.7063        7.7095       4.123943       0.05092
   4     651.6        3.6277        0.0034        7.3412        7.3446       3.716972       0.05565
   3     718.7        3.6903        0.0036        6.9387        6.9423       3.252000       0.05843
   2     792.3        3.7872        0.0038        6.5066        6.5104       2.723177       0.06065
   1     891.5        3.2432        1.4591        3.8207        5.2798       2.036652       0.05842
   0    1013.0        3.5084        1.3320        3.4129        4.7449       1.236491       0.05556



 Wavenumbers:  5150. -  6150. cm-1, ATM      1
 LEVEL PRESSURE   UPWARD FLUX   DIFDOWN FLUX  DIRDOWN FLUX  DOWNWARD FLUX   NET FLUX    HEATING RATE
          mb          W/m2          W/m2          W/m2        W/m2          W/m2       degree/day
  51    .06700        8.7488        0.0000       25.5798       25.5798      16.831070       0.00000
  50    .07753        8.7488        0.0000       25.5798       25.5798      16.831030       0.03160
  49    .09103        8.7488        0.0000       25.5797       25.5797      16.830979       0.03208
  48    0.1069        8.7488        0.0000       25.5797       25.5797      16.830918       0.03259
  47    0.1255        8.7488        0.0000       25.5796       25.5796      16.830845       0.03309
  46    0.1487        8.7487        0.0000       25.5795       25.5795      16.830749       0.03486
  45    0.1794        8.7487        0.0000       25.5794       25.5794      16.830614       0.03711
  44    0.2165        8.7487        0.0000       25.5792       25.5792      16.830448       0.03767
  43    0.2613        8.7487        0.0000       25.5790       25.5790      16.830246       0.03825
  42    0.3336        8.7487        0.0000       25.5786       25.5786      16.829899       0.04041
  41    0.4307        8.7487        0.0000       25.5782       25.5782      16.829428       0.04095
  40    0.5894        8.7487        0.0000       25.5774       25.5774      16.828639       0.04196
  39     1.339        8.7487        0.0000       25.5735       25.5736      16.824838       0.04280
  38     1.782        8.7487        0.0001       25.5713       25.5714      16.822624       0.04214
  37     2.292        8.7487        0.0001       25.5688       25.5688      16.820119       0.04149
  36     2.964        8.7487        0.0001       25.5656       25.5657      16.816937       0.03995
  35     3.853        8.7487        0.0001       25.5615       25.5616      16.812892       0.03839
  34     5.035        8.7487        0.0002       25.5562       25.5564      16.807683       0.03721
  33     6.613        8.7487        0.0002       25.5494       25.5496      16.800925       0.03613
  32     8.786        8.7487        0.0003       25.5406       25.5409      16.792167       0.03401
  31     11.80        8.7487        0.0004       25.5287       25.5290      16.780321       0.03316
  30     15.07        8.7487        0.0005       25.5167       25.5172      16.768441       0.03067
  29     18.79        8.7487        0.0006       25.5042       25.5047      16.756020       0.02816
  28     23.16        8.7487        0.0007       25.4907       25.4914      16.742637       0.02588
  27     28.12        8.7488        0.0009       25.4764       25.4773      16.728524       0.02399
  26     33.73        8.7488        0.0010       25.4620       25.4630      16.714217       0.02151
  25     40.54        8.7489        0.0012       25.4463       25.4475      16.698565       0.01942
  24     48.69        8.7491        0.0015       25.4294       25.4308      16.681794       0.01736
  23     57.69        8.7492        0.0018       25.4126       25.4144      16.665133       0.01562
  22     68.43        8.7495        0.0021       25.3944       25.3965      16.647031       0.01423
  21     81.20        8.7498        0.0025       25.3744       25.3769      16.627099       0.01317
  20     96.49        8.7502        0.0029       25.3519       25.3549      16.604688       0.01237
  19     114.6        8.7507        0.0035       25.3262       25.3297      16.578977       0.01201
  18     136.5        8.7513        0.0041       25.2962       25.3003      16.549038       0.01151
  17     162.9        8.7521        0.0049       25.2521       25.2570      16.504948       0.01409
  16     196.4        8.7531        0.0059       25.1593       25.1652      16.412070       0.02338
  15     218.7        8.7539        0.0065       25.0159       25.0225      16.268568       0.05448
  14     243.0        8.7549        0.0072       24.7089       24.7161      15.961255       0.10659
  13     269.0        8.7561        0.0079       24.1619       24.1697      15.413617       0.17765
  12     297.5        8.7577        0.0085       23.4544       23.4629      14.705144       0.21013
  11     328.5        8.7598        0.0092       22.7355       22.7446      13.984769       0.19587
  10     361.9        8.7626        0.0098       21.9224       21.9322      13.169659       0.20623
   9     398.1        8.7661        0.0104       20.9939       21.0044      12.238219       0.21700
   8     437.6        8.7709        0.0110       19.9833       19.9944      11.223454       0.21696
   7     480.5        8.7773        0.0116       18.9483       18.9599      10.182603       0.20442
   6     533.0        8.7878        0.0123       17.7796       17.7919       9.004095       0.18958
   5     589.8        8.8041        0.0130       16.6726       16.6855       7.881427       0.16664
   4     651.6        8.8328        0.0137       15.6343       15.6480       6.815171       0.14581
   3     718.7        8.8833        0.0144       14.7738       14.7882       5.904894       0.11440
   2     792.3        8.9791        0.0153       14.0291       14.0444       5.065355       0.09629
   1     891.5        7.7103        3.3155        8.4205       11.7360       4.025731       0.08847
   0    1013.0        8.0401        3.1181        7.7487       10.8668       2.826697       0.08326



 Wavenumbers:  6150. -  7700. cm-1, ATM      1
 LEVEL PRESSURE   UPWARD FLUX   DIFDOWN FLUX  DIRDOWN FLUX  DOWNWARD FLUX   NET FLUX    HEATING RATE
          mb          W/m2          W/m2          W/m2        W/m2          W/m2       degree/day
  51    .06700       13.1252        0.0000       47.3109       47.3109      34.185696       0.00000
  50    .07753       13.1252        0.0000       47.3108       47.3108      34.185639       0.04553
  49    .09103       13.1252        0.0000       47.3107       47.3107      34.185566       0.04583
  48    0.1069       13.1252        0.0000       47.3106       47.3106      34.185479       0.04614
  47    0.1255       13.1252        0.0000       47.3105       47.3105      34.185377       0.04645
  46    0.1487       13.1252        0.0000       47.3104       47.3104      34.185244       0.04852
  45    0.1794       13.1252        0.0000       47.3102       47.3102      34.185057       0.05127
  44    0.2165       13.1252        0.0000       47.3100       47.3100      34.184830       0.05167
  43    0.2613       13.1251        0.0000       47.3097       47.3097      34.184553       0.05210
  42    0.3336       13.1251        0.0000       47.3092       47.3092      34.184084       0.05471
  41    0.4307       13.1251        0.0000       47.3085       47.3086      34.183449       0.05521
  40    0.5894       13.1251        0.0001       47.3074       47.3075      34.182390       0.05633
  39     1.339       13.1251        0.0002       47.3022       47.3024      34.177297       0.05733
  38     1.782       13.1250        0.0002       47.2991       47.2993      34.174327       0.05655
  37     2.292       13.1250        0.0003       47.2956       47.2959      34.170952       0.05591
  36     2.964       13.1249        0.0004       47.2912       47.2916      34.166633       0.05421
  35     3.853       13.1248        0.0005       47.2855       47.2859      34.161099       0.05252
  34     5.035       13.1247        0.0006       47.2780       47.2787      34.153918       0.05129
  33     6.613       13.1246        0.0008       47.2683       47.2691      34.144531       0.05019
  32     8.786       13.1244        0.0011       47.2556       47.2567      34.132231       0.04777
  31     11.80       13.1242        0.0015       47.2380       47.2395      34.115328       0.04732
  30     15.07       13.1239        0.0019       47.2201       47.2219      34.098041       0.04463
  29     18.79       13.1236        0.0023       47.2008       47.2031      34.079561       0.04190
  28     23.16       13.1232        0.0029       47.1795       47.1824      34.059172       0.03943
  27     28.12       13.1228        0.0035       47.1565       47.1600      34.037178       0.03739
  26     33.73       13.1223        0.0042       47.1324       47.1366      34.014258       0.03446
  25     40.54       13.1218        0.0050       47.1054       47.1104      33.988622       0.03180
  24     48.69       13.1211        0.0060       47.0754       47.0815      33.960371       0.02924
  23     57.69       13.1203        0.0071       47.0449       47.0521      33.931751       0.02683
  22     68.43       13.1195        0.0085       47.0110       47.0195      33.900016       0.02495
  21     81.20       13.1184        0.0101       46.9729       46.9829      33.864526       0.02345
  20     96.49       13.1171        0.0119       46.9294       46.9413      33.824190       0.02226
  19     114.6       13.1156        0.0142       46.8790       46.8932      33.777564       0.02177
  18     136.5       13.1139        0.0168       46.8200       46.8368      33.722953       0.02100
  17     162.9       13.1118        0.0200       46.7361       46.7561      33.644353       0.02512
  16     196.4       13.1091        0.0241       46.5703       46.5943      33.485210       0.04006
  15     218.7       13.1075        0.0267       46.3473       46.3740      33.266523       0.08303
  14     243.0       13.1059        0.0294       45.9299       45.9593      32.853444       0.14327
  13     269.0       13.1045        0.0322       45.1708       45.2030      32.098477       0.24491
  12     297.5       13.1037        0.0349       44.0115       44.0464      30.942640       0.34281
  11     328.5       13.1037        0.0376       42.7242       42.7619      29.658139       0.34925
  10     361.9       13.1049        0.0404       41.3539       41.3944      28.289448       0.34629
   9     398.1       13.1079        0.0431       39.7953       39.8384      26.730450       0.36321
   8     437.6       13.1140        0.0457       37.9948       38.0404      24.926450       0.38571
   7     480.5       13.1243        0.0480       36.0647       36.1128      22.988420       0.38062
   6     533.0       13.1447        0.0506       33.7773       33.8279      20.683157       0.37084
   5     589.8       13.1812        0.0529       31.4082       31.4611      18.279914       0.35672
   4     651.6       13.2518        0.0548       28.8834       28.9382      15.686404       0.35467
   3     718.7       13.3833        0.0564       26.4104       26.4668      13.083473       0.32712
   2     792.3       13.6439        0.0578       24.0056       24.0634      10.419490       0.30553
   1     891.5       11.5314        5.2682       13.6685       18.9367       7.405398       0.25648
   0    1013.0       12.3886        4.7659       11.9823       16.7482       4.359589       0.21149



 Wavenumbers:  7700. -  8050. cm-1, ATM      1
 LEVEL PRESSURE   UPWARD FLUX   DIFDOWN FLUX  DIRDOWN FLUX  DOWNWARD FLUX   NET FLUX    HEATING RATE
          mb          W/m2          W/m2          W/m2        W/m2          W/m2       degree/day
  51    .06700        6.7851        0.0000       11.1810       11.1810       4.395821       0.00000
  50    .07753        6.7851        0.0000       11.1809       11.1809       4.395799       0.01785
  49    .09103        6.7852        0.0000       11.1809       11.1809       4.395771       0.01749
  48    0.1069        6.7852        0.0000       11.1809       11.1809       4.395739       0.01713
  47    0.1255        6.7852        0.0000       11.1809       11.1809       4.395702       0.01676
  46    0.1487        6.7852        0.0000       11.1808       11.1808       4.395655       0.01701
  45    0.1794        6.7852        0.0000       11.1808       11.1808       4.395591       0.01750
  44    0.2165        6.7852        0.0000       11.1807       11.1807       4.395516       0.01717
  43    0.2613        6.7852        0.0000       11.1806       11.1806       4.395427       0.01685
  42    0.3336        6.7852        0.0000       11.1805       11.1805       4.395279       0.01724
  41    0.4307        6.7853        0.0000       11.1803       11.1804       4.395083       0.01705
  40    0.5894        6.7853        0.0000       11.1801       11.1801       4.394762       0.01703
  39     1.339        6.7856        0.0001       11.1788       11.1789       4.393247       0.01706
  38     1.782        6.7858        0.0001       11.1781       11.1782       4.392357       0.01694
  37     2.292        6.7860        0.0001       11.1772       11.1773       4.391327       0.01706
  36     2.964        6.7863        0.0002       11.1761       11.1762       4.389975       0.01698
  35     3.853        6.7866        0.0002       11.1746       11.1748       4.388188       0.01696
  34     5.035        6.7871        0.0003       11.1726       11.1729       4.385814       0.01696
  33     6.613        6.7877        0.0004       11.1700       11.1703       4.382644       0.01695
  32     8.786        6.7885        0.0005       11.1664       11.1669       4.378373       0.01659
  31     11.80        6.7897        0.0007       11.1613       11.1620       4.372267       0.01710
  30     15.07        6.7910        0.0009       11.1558       11.1567       4.365715       0.01691
  29     18.79        6.7924        0.0011       11.1497       11.1508       4.358322       0.01676
  28     23.16        6.7941        0.0013       11.1425       11.1438       4.349696       0.01668
  27     28.12        6.7961        0.0016       11.1343       11.1359       4.339847       0.01674
  26     33.73        6.7983        0.0019       11.1252       11.1271       4.328845       0.01654
  25     40.54        6.8009        0.0023       11.1142       11.1165       4.315581       0.01646
  24     48.69        6.8041        0.0028       11.1010       11.1038       4.299634       0.01650
  23     57.69        6.8077        0.0033       11.0866       11.0899       4.282174       0.01637
  22     68.43        6.8120        0.0039       11.0695       11.0734       4.261457       0.01629
  21     81.20        6.8171        0.0046       11.0494       11.0540       4.236887       0.01623
  20     96.49        6.8232        0.0055       11.0255       11.0310       4.207770       0.01607
  19     114.6        6.8306        0.0065       10.9975       11.0040       4.173420       0.01604
  18     136.5        6.8395        0.0077       10.9648       10.9725       4.133008       0.01554
  17     162.9        6.8502        0.0091       10.9263       10.9354       4.085289       0.01525
  16     196.4        6.8642        0.0110       10.8773       10.8883       4.024021       0.01542
  15     218.7        6.8737        0.0122       10.8455       10.8578       3.984107       0.01515
  14     243.0        6.8841        0.0136       10.8114       10.8250       3.940945       0.01497
  13     269.0        6.8955        0.0150       10.7749       10.7899       3.894349       0.01512
  12     297.5        6.9082        0.0165       10.7357       10.7522       3.844063       0.01491
  11     328.5        6.9222        0.0182       10.6937       10.7120       3.789742       0.01477
  10     361.9        6.9378        0.0200       10.6489       10.6689       3.731121       0.01483
   9     398.1        6.9551        0.0220       10.6008       10.6227       3.667650       0.01479
   8     437.6        6.9745        0.0240       10.5491       10.5731       3.598641       0.01475
   7     480.5        6.9962        0.0263       10.4934       10.5197       3.523455       0.01477
   6     533.0        7.0246        0.0290       10.4243       10.4533       3.428656       0.01525
   5     589.8        7.0577        0.0319       10.3479       10.3798       3.322123       0.01581
   4     651.6        7.0974        0.0351       10.2613       10.2964       3.199050       0.01683
   3     718.7        7.1459        0.0384       10.1618       10.2002       3.054256       0.01820
   2     792.3        7.2075        0.0420       10.0439       10.0859       2.878406       0.02017
   1     891.5        6.3246        2.5957        6.3486        8.9442       2.619594       0.02202
   0    1013.0        6.4612        2.5428        6.1861        8.7289       2.267690       0.02443



 Wavenumbers:  8050. - 12850. cm-1, ATM      1
 LEVEL PRESSURE   UPWARD FLUX   DIFDOWN FLUX  DIRDOWN FLUX  DOWNWARD FLUX   NET FLUX    HEATING RATE
          mb          W/m2          W/m2          W/m2        W/m2          W/m2       degree/day
  51    .06700       83.8696        0.0000      156.5418      156.5418      72.672130       0.00000
  50    .07753       83.8696        0.0000      156.5417      156.5417      72.672130      -0.00000
  49    .09103       83.8696        0.0001      156.5417      156.5417      72.672130       0.00000
  48    0.1069       83.8696        0.0001      156.5416      156.5417      72.672130       0.00000
  47    0.1255       83.8696        0.0002      156.5415      156.5417      72.672130       0.00000
  46    0.1487       83.8695        0.0002      156.5414      156.5417      72.672130      -0.00000
  45    0.1794       83.8695        0.0003      156.5413      156.5416      72.672130       0.00000
  44    0.2165       83.8694        0.0004      156.5412      156.5416      72.672130      -0.00000
  43    0.2613       83.8694        0.0005      156.5410      156.5415      72.672130       0.00000
  42    0.3336       83.8693        0.0007      156.5407      156.5414      72.672130       0.00000
  41    0.4307       83.8692        0.0010      156.5403      156.5413      72.672130      -0.00000
  40    0.5894       83.8690        0.0014      156.5397      156.5411      72.672130       0.00000
  39     1.339       83.8681        0.0035      156.5367      156.5402      72.672130      -0.00000
  38     1.782       83.8676        0.0047      156.5350      156.5397      72.672130      -0.00000
  37     2.292       83.8670        0.0061      156.5330      156.5391      72.672130      -0.00000
  36     2.964       83.8662        0.0079      156.5303      156.5383      72.672130       0.00000
  35     3.853       83.8651        0.0104      156.5268      156.5372      72.672130       0.00000
  34     5.035       83.8637        0.0136      156.5222      156.5358      72.672130      -0.00000
  33     6.613       83.8618        0.0179      156.5160      156.5339      72.672130      -0.00000
  32     8.786       83.8592        0.0237      156.5076      156.5314      72.672130      -0.00000
  31     11.80       83.8556        0.0321      156.4957      156.5277      72.672130       0.00000
  30     15.07       83.8517        0.0410      156.4828      156.5238      72.672130      -0.00000
  29     18.79       83.8473        0.0512      156.4682      156.5194      72.672130       0.00000
  28     23.16       83.8421        0.0630      156.4512      156.5142      72.672130      -0.00000
  27     28.12       83.8362        0.0766      156.4317      156.5083      72.672130       0.00000
  26     33.73       83.8295        0.0918      156.4099      156.5016      72.672130       0.00000
  25     40.54       83.8215        0.1102      156.3834      156.4936      72.672130       0.00000
  24     48.69       83.8118        0.1324      156.3515      156.4839      72.672130      -0.00000
  23     57.69       83.8011        0.1568      156.3164      156.4732      72.672130       0.00000
  22     68.43       83.7883        0.1859      156.2746      156.4605      72.672130       0.00000
  21     81.20       83.7731        0.2207      156.2246      156.4453      72.672130      -0.00000
  20     96.49       83.7550        0.2622      156.1649      156.4271      72.672130       0.00000
  19     114.6       83.7335        0.3115      156.0879      156.3995      72.665930       0.00289
  18     136.5       83.7081        0.3701      155.9962      156.3663      72.658239       0.00296
  17     162.9       83.6777        0.4401      155.8831      156.3232      72.645468       0.00408
  16     196.4       83.6383        0.5311      155.7199      156.2510      72.612712       0.00825
  15     218.7       83.6126        0.5909      155.5733      156.1642      72.551614       0.02320
  14     243.0       83.5851        0.6559      155.3367      155.9926      72.407442       0.05000
  13     269.0       83.5567        0.7262      154.9514      155.6776      72.120947       0.09294
  12     297.5       83.5284        0.8018      154.3896      155.1915      71.663035       0.13581
  11     328.5       83.5012        0.8834      153.7151      154.5985      71.097344       0.15381
  10     361.9       83.4766        0.9709      152.9087      153.8797      70.403088       0.17565
   9     398.1       83.4575        1.0645      151.8986      152.9631      69.505632       0.20909
   8     437.6       83.4487        1.1640      150.6031      151.7671      68.318373       0.25384
   7     480.5       83.4563        1.2691      149.0014      150.2705      66.814184       0.29542
   6     533.0       83.4975        1.3961      146.7375      148.1337      64.636175       0.35037
   5     589.8       83.6007        1.5291      143.8730      145.4021      61.801348       0.42078
   4     651.6       83.8359        1.6653      140.0955      141.7608      57.924872       0.53012
   3     718.7       84.2990        1.8033      135.5278      137.3311      53.032129       0.61488
   2     792.3       85.2142        1.9398      130.0690      132.0088      46.794602       0.71537
   1     891.5       73.5592       32.8147       78.6051      111.4198      37.860601       0.76024
   0    1013.0       76.9295       31.1392       72.6987      103.8379      26.908440       0.76046



 Wavenumbers: 12850. - 16000. cm-1, ATM      1
 LEVEL PRESSURE   UPWARD FLUX   DIFDOWN FLUX  DIRDOWN FLUX  DOWNWARD FLUX   NET FLUX    HEATING RATE
          mb          W/m2          W/m2          W/m2        W/m2          W/m2       degree/day
  51    .06700       73.5274        0.0000       98.0872       98.0872      24.559871       0.00000
  50    .07753       73.5274        0.0001       98.0864       98.0864      24.559080       0.63355
  49    .09103       73.5274        0.0002       98.0853       98.0854      24.558088       0.62035
  48    0.1069       73.5274        0.0003       98.0841       98.0843      24.556948       0.60687
  47    0.1255       73.5274        0.0004       98.0826       98.0830      24.555638       0.59367
  46    0.1487       73.5274        0.0005       98.0809       98.0814      24.553986       0.60220
  45    0.1794       73.5274        0.0007       98.0784       98.0792      24.551739       0.61675
  44    0.2165       73.5275        0.0009       98.0756       98.0766      24.549098       0.60091
  43    0.2613       73.5276        0.0012       98.0723       98.0736      24.545993       0.58527
  42    0.3336       73.5278        0.0017       98.0670       98.0687      24.540928       0.59048
  41    0.4307       73.5281        0.0023       98.0602       98.0625      24.534384       0.56903
  40    0.5894       73.5288        0.0033       98.0496       98.0529      24.524083       0.54780
  39     1.339       73.5347        0.0080       98.0043       98.0123      24.477597       0.52334
  38     1.782       73.5402        0.0107       97.9793       97.9900      24.449814       0.52894
  37     2.292       73.5484        0.0139       97.9498       97.9637      24.415297       0.57169
  36     2.964       73.5620        0.0181       97.9088       97.9269      24.364907       0.63255
  35     3.853       73.5840        0.0236       97.8503       97.8739      24.289966       0.71121
  34     5.035       73.6171        0.0309       97.7680       97.7989      24.181798       0.77271
  33     6.613       73.6634        0.0407       97.6562       97.6969      24.033490       0.79286
  32     8.786       73.7237        0.0539       97.5107       97.5645      23.840890       0.74799
  31     11.80       73.8020        0.0727       97.3179       97.3906      23.588510       0.70658
  30     15.07       73.8771        0.0929       97.1283       97.2212      23.344110       0.63099
  29     18.79       73.9537        0.1157       96.9300       97.0457      23.091990       0.57163
  28     23.16       74.0337        0.1423       96.7166       96.8588      22.825107       0.51607
  27     28.12       74.1142        0.1726       96.4935       96.6661      22.551937       0.46437
  26     33.73       74.1885        0.2066       96.2731       96.4797      22.291265       0.39193
  25     40.54       74.2599        0.2477       96.0408       96.2885      22.028566       0.32591
  24     48.69       74.3283        0.2972       95.7946       96.0918      21.763491       0.27431
  23     57.69       74.3862        0.3516       95.5573       95.9089      21.522684       0.22572
  22     68.43       74.4366        0.4165       95.3106       95.7271      21.290515       0.18252
  21     81.20       74.4710        0.4938       95.0643       95.5581      21.087165       0.13437
  20     96.49       74.4884        0.5861       94.8153       95.4013      20.912975       0.09614
  19     114.6       74.5098        0.6967       94.5411       95.2378      20.727977       0.08638
  18     136.5       74.5245        0.8279       94.2320       95.0599      20.535402       0.07405
  17     162.9       74.5322        0.9840       93.8753       94.8593      20.327151       0.06657
  16     196.4       74.5213        1.1865       93.4347       94.6212      20.099852       0.05721
  15     218.7       74.5067        1.3195       93.1513       94.4708      19.964052       0.05156
  14     243.0       74.4877        1.4640       92.8439       94.3080      19.820312       0.04985
  13     269.0       74.4640        1.6206       92.5111       94.1317      19.667739       0.04949
  12     297.5       74.4362        1.7898       92.1495       93.9393      19.503082       0.04884
  11     328.5       74.4061        1.9726       91.7554       93.7280      19.321913       0.04926
  10     361.9       74.3744        2.1694       91.3262       93.4956      19.121196       0.05078
   9     398.1       74.3424        2.3812       90.8575       93.2387      18.896286       0.05240
   8     437.6       74.3126        2.6084       90.3418       92.9502      18.637620       0.05530
   7     480.5       74.2875        2.8518       89.7728       92.6246      18.337154       0.05901
   6     533.0       74.2701        3.1511       89.0428       92.1939      17.923855       0.06649
   5     589.8       74.2768        3.4727       88.2038       91.6765      17.399728       0.07780
   4     651.6       74.3364        3.8162       87.1979       91.0142      16.677754       0.09873
   3     718.7       74.4690        4.1802       86.0161       90.1964      15.727369       0.11944
   2     792.3       74.7373        4.5608       84.5970       89.1579      14.420571       0.14988
   1     891.5       68.5862       27.8024       53.0737       80.8760      12.289849       0.18131
   0    1013.0       69.7149       27.6765       51.2587       78.9351       9.220211       0.21314



 Wavenumbers: 16000. - 22650. cm-1, ATM      1
 LEVEL PRESSURE   UPWARD FLUX   DIFDOWN FLUX  DIRDOWN FLUX  DOWNWARD FLUX   NET FLUX    HEATING RATE
          mb          W/m2          W/m2          W/m2        W/m2          W/m2       degree/day
  51    .06700      140.2954        0.0000      156.3892      156.3892      16.093814       0.00000
  50    .07753      140.2954        0.0004      156.3887      156.3891      16.093667       0.11795
  49    .09103      140.2954        0.0009      156.3879      156.3888      16.093453       0.13378
  48    0.1069      140.2954        0.0015      156.3871      156.3885      16.093166       0.15256
  47    0.1255      140.2954        0.0021      156.3861      156.3882      16.092783       0.17390
  46    0.1487      140.2954        0.0029      156.3847      156.3877      16.092217       0.20606
  45    0.1794      140.2956        0.0041      156.3828      156.3869      16.091333       0.24262
  44    0.2165      140.2958        0.0054      156.3805      156.3859      16.090135       0.27268
  43    0.2613      140.2961        0.0070      156.3776      156.3846      16.088508       0.30656
  42    0.3336      140.2969        0.0096      156.3726      156.3823      16.085416       0.36051
  41    0.4307      140.2981        0.0131      156.3657      156.3788      16.080755       0.40525
  40    0.5894      140.3006        0.0188      156.3537      156.3725      16.071866       0.47271
  39     1.339      140.3230        0.0458      156.2834      156.3292      16.006193       0.73936
  38     1.782      140.3437        0.0616      156.2324      156.2939      15.950248       1.06511
  37     2.292      140.3747        0.0799      156.1641      156.2440      15.869266       1.34127
  36     2.964      140.4263        0.1039      156.0605      156.1644      15.738075       1.64684
  35     3.853      140.5098        0.1356      155.9041      156.0397      15.529908       1.97554
  34     5.035      140.6358        0.1777      155.6774      155.8551      15.219341       2.21856
  33     6.613      140.8118        0.2339      155.3656      155.5995      14.787747       2.30730
  32     8.786      141.0410        0.3095      154.9577      155.2672      14.226153       2.18103
  31     11.80      141.3394        0.4175      154.4153      154.8328      13.493430       2.05139
  30     15.07      141.6251        0.5333      153.8804      154.4137      12.788587       1.81977
  29     18.79      141.9168        0.6639      153.3191      153.9830      12.066202       1.63787
  28     23.16      142.2216        0.8162      152.7126      153.5288      11.307176       1.46771
  27     28.12      142.5282        0.9902      152.0755      153.0657      10.537414       1.30854
  26     33.73      142.8111        1.1846      151.4409      152.6255       9.814391       1.08708
  25     40.54      143.0832        1.4193      150.7637      152.1830       9.099800       0.88653
  24     48.69      143.3435        1.7020      150.0338      151.7358       8.392359       0.73209
  23     57.69      143.5638        2.0121      149.3151      151.3272       7.763387       0.58957
  22     68.43      143.7557        2.3810      148.5476      150.9286       7.172961       0.46415
  21     81.20      143.8874        2.8203      147.7517      150.5720       6.684551       0.32273
  20     96.49      143.9546        3.3432      146.9127      150.2558       6.301279       0.21154
  19     114.6      143.9882        3.9622      145.9763      149.9385       5.950316       0.16388
  18     136.5      143.9969        4.6932      144.9088      149.6020       5.605065       0.13276
  17     162.9      143.9789        5.5596      143.6785      149.2381       5.259232       0.11054
  16     196.4      143.8943        6.6774      142.1651      148.8425       4.948197       0.07829
  15     218.7      143.8163        7.4079      141.2033      148.6112       4.794971       0.05817
  14     243.0      143.7212        8.1985      140.1753      148.3738       4.652661       0.04936
  13     269.0      143.6074        9.0514      139.0797      148.1311       4.523684       0.04184
  12     297.5      143.4743        9.9687      137.9141      147.8828       4.408422       0.03419
  11     328.5      143.3259       10.9546      136.6676      147.6222       4.296269       0.03049
  10     361.9      143.1619       12.0100      135.3392      147.3492       4.187368       0.02755
   9     398.1      142.9817       13.1391      133.9235      147.0625       4.080838       0.02482
   8     437.6      142.7864       14.3437      132.4163      146.7599       3.973553       0.02294
   7     480.5      142.5755       15.6260      130.8147      146.4407       3.865234       0.02127
   6     533.0      142.3159       17.1922      128.8599      146.0521       3.736203       0.02076
   5     589.8      142.0400       18.8655      126.7679      145.6335       3.593462       0.02119
   4     651.6      141.7541       20.6477      124.5274      145.1751       3.421069       0.02358
   3     718.7      141.4641       22.5404      122.1285      144.6688       3.204707       0.02719
   2     792.3      141.1868       24.5414      119.5548      144.0962       2.909414       0.03387
   1     891.5      133.8800       61.5697       74.6977      136.2674       2.387370       0.04442
   0    1013.0      133.8402       63.4466       71.9840      135.4306       1.590398       0.05534



 Wavenumbers: 22650. - 29000. cm-1, ATM      1
 LEVEL PRESSURE   UPWARD FLUX   DIFDOWN FLUX  DIRDOWN FLUX  DOWNWARD FLUX   NET FLUX    HEATING RATE
          mb          W/m2          W/m2          W/m2        W/m2          W/m2       degree/day
  51    .06700       58.3854        0.0000       59.0156       59.0156       0.630246       0.00000
  50    .07753       58.3853        0.0005       59.0151       59.0155       0.630246      -0.00000
  49    .09103       58.3852        0.0010       59.0144       59.0154       0.630246       0.00000
  48    0.1069       58.3850        0.0017       59.0136       59.0153       0.630246      -0.00000
  47    0.1255       58.3849        0.0025       59.0127       59.0151       0.630246       0.00000
  46    0.1487       58.3847        0.0034       59.0115       59.0149       0.630246      -0.00000
  45    0.1794       58.3844        0.0048       59.0099       59.0147       0.630246       0.00000
  44    0.2165       58.3841        0.0063       59.0080       59.0144       0.630246      -0.00000
  43    0.2613       58.3838        0.0082       59.0058       59.0140       0.630246       0.00000
  42    0.3336       58.3832        0.0113       59.0022       59.0134       0.630246       0.00000
  41    0.4307       58.3824        0.0153       58.9973       59.0126       0.630246       0.00000
  40    0.5894       58.3811        0.0220       58.9894       59.0113       0.630246      -0.00000
  39     1.339       58.3749        0.0534       58.9518       59.0052       0.630246       0.00000
  38     1.782       58.3713        0.0719       58.9297       59.0016       0.630246      -0.00000
  37     2.292       58.3672        0.0933       58.9042       58.9974       0.630246       0.00000
  36     2.964       58.3617        0.1213       58.8706       58.9920       0.630246       0.00000
  35     3.853       58.3545        0.1584       58.8264       58.9847       0.630246      -0.00000
  34     5.035       58.3449        0.2076       58.7676       58.9751       0.630246       0.00000
  33     6.613       58.3321        0.2732       58.6891       58.9623       0.630246       0.00000
  32     8.786       58.3148        0.3617       58.5834       58.9451       0.630246       0.00000
  31     11.80       58.2902        0.4880       58.4324       58.9205       0.630246       0.00000
  30     15.07       58.2638        0.6234       58.2706       58.8941       0.630246       0.00000
  29     18.79       58.2340        0.7761       58.0882       58.8643       0.630246      -0.00000
  28     23.16       58.1994        0.9539       57.8757       58.8296       0.630246       0.00000
  27     28.12       58.1598        1.1567       57.6333       58.7900       0.630246       0.00000
  26     33.73       58.1157        1.3829       57.3631       58.7459       0.630246       0.00000
  25     40.54       58.0626        1.6549       57.0379       58.6928       0.630246       0.00000
  24     48.69       57.9989        1.9813       56.6479       58.6291       0.630246      -0.00000
  23     57.69       57.9294        2.3375       56.2221       58.5596       0.630246       0.00000
  22     68.43       57.8471        2.7588       55.7186       58.4773       0.630246       0.00000
  21     81.20       57.7499        3.2563       55.1239       58.3802       0.630246       0.00000
  20     96.49       57.6353        3.8428       54.4228       58.2656       0.630246       0.00000
  19     114.6       57.5010        4.5302       53.6010       58.1312       0.630246       0.00000
  18     136.5       57.3441        5.3325       52.6418       57.9743       0.630246      -0.00000
  17     162.9       57.1605        6.2704       51.5203       57.7908       0.630246       0.00000
  16     196.4       56.9278        7.4586       50.0994       57.5580       0.630246      -0.00000
  15     218.7       56.7781        8.2221       49.1863       57.4084       0.630246       0.00000
  14     243.0       56.6182        9.0372       48.2113       57.2485       0.630246       0.00000
  13     269.0       56.4482        9.9035       47.1749       57.0784       0.630246      -0.00000
  12     297.5       56.2681       10.8201       46.0783       56.8984       0.630246       0.00000
  11     328.5       56.0777       11.7884       44.9195       56.7079       0.630246      -0.00000
  10     361.9       55.8774       12.8058       43.7018       56.5077       0.630246       0.00000
   9     398.1       55.6672       13.8725       42.4250       56.2975       0.630246       0.00000
   8     437.6       55.4475       14.9861       41.0916       56.0777       0.630246       0.00000
   7     480.5       55.2186       16.1444       39.7045       55.8489       0.630246       0.00000
   6     533.0       54.9460       17.5219       38.0543       55.5762       0.630246      -0.00000
   5     589.8       54.6627       18.9499       36.3431       55.2930       0.630246       0.00000
   4     651.6       54.3703       20.4210       34.5795       55.0005       0.630246       0.00000
   3     718.7       54.0696       21.9296       32.7702       54.6998       0.630246      -0.00000
   2     792.3       53.7623       23.4669       30.9256       54.3925       0.630246      -0.00000
   1     891.5       51.6512       33.8856       18.3959       52.2814       0.630203       0.00000
   0    1013.0       51.3611       35.2764       16.7149       51.9913       0.630203       0.00000



 Wavenumbers: 29000. - 38000. cm-1, ATM      1
 LEVEL PRESSURE   UPWARD FLUX   DIFDOWN FLUX  DIRDOWN FLUX  DOWNWARD FLUX   NET FLUX    HEATING RATE
          mb          W/m2          W/m2          W/m2        W/m2          W/m2       degree/day
  51    .06700        8.7374        0.0000       20.8114       20.8114      12.073914       0.00000
  50    .07753        8.7373        0.0003       20.8070       20.8074      12.070107       3.05152
  49    .09103        8.7370        0.0007       20.8009       20.8016      12.064570       3.46081
  48    0.1069        8.7368        0.0012       20.7928       20.7939      12.057160       3.94425
  47    0.1255        8.7365        0.0017       20.7820       20.7837      12.047256       4.49029
  46    0.1487        8.7361        0.0024       20.7665       20.7688      12.032693       5.30838
  45    0.1794        8.7357        0.0033       20.7424       20.7457      12.010028       6.22197
  44    0.2165        8.7352        0.0044       20.7103       20.7147      11.979506       6.94332
  43    0.2613        8.7346        0.0056       20.6675       20.6731      11.938511       7.72723
  42    0.3336        8.7337        0.0077       20.5880       20.5956      11.861951       8.92614
  41    0.4307        8.7326        0.0104       20.4722       20.4826      11.750000       9.73390
  40    0.5894        8.7311        0.0147       20.2637       20.2784      11.547319      10.77832
  39     1.339        8.7276        0.0331       19.0984       19.1315      10.403863      12.87324
  38     1.782        8.7281        0.0427       18.4394       18.4820       9.753956      12.37318
  37     2.292        8.7307        0.0530       17.7714       17.8244       9.093636      10.93662
  36     2.964        8.7372        0.0656       17.0421       17.1078       8.370552       9.07689
  35     3.853        8.7500        0.0816       16.2678       16.3494       7.599435       7.31804
  34     5.035        8.7710        0.1017       15.4803       15.5820       6.811033       5.63202
  33     6.613        8.8016        0.1275       14.7157       14.8432       6.041577       4.11351
  32     8.786        8.8420        0.1612       13.9936       14.1548       5.312794       2.83033
  31     11.80        8.8947        0.2082       13.2835       13.4918       4.597050       2.00386
  30     15.07        8.9456        0.2570       12.7394       12.9964       4.050790       1.41034
  29     18.79        8.9981        0.3110       12.2666       12.5776       3.579565       1.06841
  28     23.16        9.0539        0.3725       11.8300       12.2025       3.148663       0.83323
  27     28.12        9.1110        0.4413       11.4279       11.8692       2.758215       0.66373
  26     33.73        9.1637        0.5172       11.0695       11.5866       2.422945       0.50409
  25     40.54        9.2137        0.6078       10.7209       11.3287       2.115017       0.38202
  24     48.69        9.2608        0.7153       10.3742       11.0895       1.828703       0.29629
  23     57.69        9.2995        0.8317       10.0549       10.8866       1.587165       0.22641
  22     68.43        9.3306        0.9682        9.7327       10.7010       1.370340       0.17045
  21     81.20        9.3454        1.1295        9.4134       10.5429       1.197456       0.11424
  20     96.49        9.3418        1.3189        9.0887       10.4077       1.065858       0.07263
  19     114.6        9.3279        1.5379        8.7388       10.2767       0.948726       0.05469
  18     136.5        9.3067        1.7882        8.3549       10.1431       0.836342       0.04321
  17     162.9        9.2783        2.0735        7.9311       10.0046       0.726314       0.03517
  16     196.4        9.2307        2.4268        7.4333        9.8601       0.629477       0.02438
  15     218.7        9.1964        2.6491        7.1295        9.7786       0.582250       0.01793
  14     243.0        9.1588        2.8814        6.8161        9.6975       0.538644       0.01512
  13     269.0        9.1178        3.1229        6.4943        9.6173       0.499492       0.01270
  12     297.5        9.0734        3.3726        6.1657        9.5383       0.464980       0.01024
  11     328.5        9.0270        3.6294        5.8295        9.4589       0.431941       0.00898
  10     361.9        8.9790        3.8909        5.4886        9.3796       0.400521       0.00795
   9     398.1        8.9297        4.1565        5.1440        9.3005       0.370748       0.00694
   8     437.6        8.8796        4.4247        4.7969        9.2216       0.342049       0.00614
   7     480.5        8.8289        4.6933        4.4504        9.1437       0.314811       0.00535
   6     533.0        8.7707        4.9995        4.0563        9.0558       0.285120       0.00478
   5     589.8        8.7132        5.3014        3.6682        8.9696       0.256377       0.00427
   4     651.6        8.6575        5.5952        3.2905        8.8857       0.228260       0.00385
   3     718.7        8.6039        5.8794        2.9252        8.8046       0.200725       0.00346
   2     792.3        8.5532        6.1506        2.5764        8.7270       0.173778       0.00309
   1     891.5        8.3478        7.0945        1.3942        8.4887       0.140895       0.00280
   0    1013.0        8.3144        7.2911        1.1281        8.4193       0.104894       0.00250



 Wavenumbers: 38000. - 50000. cm-1, ATM      1
 LEVEL PRESSURE   UPWARD FLUX   DIFDOWN FLUX  DIRDOWN FLUX  DOWNWARD FLUX   NET FLUX    HEATING RATE
          mb          W/m2          W/m2          W/m2        W/m2          W/m2       degree/day
  51    .06700        0.0061        0.0000        1.2836        1.2836       1.277518       0.00000
  50    .07753        0.0061        0.0001        1.2812        1.2812       1.275183       1.87150
  49    .09103        0.0060        0.0002        1.2777        1.2778       1.271851       2.08247
  48    0.1069        0.0059        0.0002        1.2731        1.2734       1.267473       2.33059
  47    0.1255        0.0058        0.0004        1.2672        1.2675       1.261717       2.60908
  46    0.1487        0.0057        0.0005        1.2586        1.2591       1.253391       3.03499
  45    0.1794        0.0055        0.0007        1.2455        1.2462       1.240623       3.50520
  44    0.2165        0.0054        0.0009        1.2282        1.2291       1.223697       3.85037
  43    0.2613        0.0052        0.0011        1.2054        1.2065       1.201348       4.21261
  42    0.3336        0.0049        0.0015        1.1639        1.1654       1.160524       4.75970
  41    0.4307        0.0045        0.0020        1.1051        1.1070       1.102565       5.03943
  40    0.5894        0.0039        0.0026        1.0039        1.0064       1.002524       5.32007
  39     1.339        0.0022        0.0035        0.5438        0.5473       0.545104       5.14971
  38     1.782        0.0016        0.0032        0.3635        0.3666       0.365006       3.42879
  37     2.292        0.0012        0.0027        0.2356        0.2383       0.237058       2.11916
  36     2.964        0.0009        0.0022        0.1455        0.1477       0.146786       1.13318
  35     3.853        0.0006        0.0017        0.0858        0.0875       0.086906       0.56828
  34     5.035        0.0004        0.0013        0.0488        0.0501       0.049701       0.26578
  33     6.613        0.0003        0.0010        0.0273        0.0282       0.027974       0.11615
  32     8.786        0.0002        0.0007        0.0144        0.0151       0.014928       0.05067
  31     11.80        0.0001        0.0004        0.0065        0.0070       0.006903       0.02247
  30     15.07        0.0000        0.0003        0.0031        0.0034       0.003329       0.00923
  29     18.79        0.0000        0.0002        0.0014        0.0016       0.001583       0.00396
  28     23.16        0.0000        0.0001        0.0006        0.0007       0.000720       0.00167
  27     28.12        0.0000        0.0001        0.0003        0.0003       0.000317       0.00069
  26     33.73        0.0000        0.0000        0.0001        0.0001       0.000140       0.00027
  25     40.54        0.0000        0.0000        0.0000        0.0001       0.000057       0.00010
  24     48.69        0.0000        0.0000        0.0000        0.0000       0.000021       0.00004
  23     57.69        0.0000        0.0000        0.0000        0.0000       0.000008       0.00001
  22     68.43        0.0000        0.0000        0.0000        0.0000       0.000003       0.00000
  21     81.20        0.0000        0.0000        0.0000        0.0000       0.000001       0.00000
  20     96.49        0.0000        0.0000        0.0000        0.0000       0.000000       0.00000
  19     114.6        0.0000        0.0000        0.0000        0.0000       0.000000       0.00000
  18     136.5        0.0000        0.0000        0.0000        0.0000       0.000000       0.00000
  17     162.9        0.0000        0.0000        0.0000        0.0000       0.000000       0.00000
  16     196.4        0.0000        0.0000        0.0000        0.0000       0.000000       0.00000
  15     218.7        0.0000        0.0000        0.0000        0.0000       0.000000       0.00000
  14     243.0        0.0000        0.0000        0.0000        0.0000       0.000000       0.00000
  13     269.0        0.0000        0.0000        0.0000        0.0000       0.000000       0.00000
  12     297.5        0.0000        0.0000        0.0000        0.0000       0.000000       0.00000
  11     328.5        0.0000        0.0000        0.0000        0.0000       0.000000       0.00000
  10     361.9        0.0000        0.0000        0.0000        0.0000       0.000000       0.00000
   9     398.1        0.0000        0.0000        0.0000        0.0000       0.000000       0.00000
   8     437.6        0.0000        0.0000        0.0000        0.0000       0.000000       0.00000
   7     480.5        0.0000        0.0000        0.0000        0.0000       0.000000       0.00000
   6     533.0        0.0000        0.0000        0.0000        0.0000       0.000000       0.00000
   5     589.8        0.0000        0.0000        0.0000        0.0000       0.000000       0.00000
   4     651.6        0.0000        0.0000        0.0000        0.0000       0.000000       0.00000
   3     718.7        0.0000        0.0000        0.0000        0.0000       0.000000       0.00000
   2     792.3        0.0000        0.0000        0.0000        0.0000       0.000000       0.00000
   1     891.5        0.0000        0.0000        0.0000        0.0000       0.000000       0.00000
   0    1013.0        0.0000        0.0000        0.0000        0.0000       0.000000       0.00000



 Wavenumbers:   820. -  2600. cm-1, ATM      1
 LEVEL PRESSURE   UPWARD FLUX   DIFDOWN FLUX  DIRDOWN FLUX  DOWNWARD FLUX   NET FLUX    HEATING RATE
          mb          W/m2          W/m2          W/m2        W/m2          W/m2       degree/day
  51    .06700        0.9186        0.0000        6.0047        6.0047       5.086045       0.00000
  50    .07753        0.9186        0.0000        6.0008        6.0008       5.082192       3.08821
  49    .09103        0.9186        0.0000        5.9999        5.9999       5.081306       0.55358
  48    0.1069        0.9186        0.0000        5.9989        5.9989       5.080317       0.52652
  47    0.1255        0.9186        0.0000        5.9978        5.9978       5.079200       0.50650
  46    0.1487        0.9186        0.0000        5.9964        5.9964       5.077843       0.49457
  45    0.1794        0.9186        0.0000        5.9947        5.9947       5.076123       0.47200
  44    0.2165        0.9186        0.0000        5.9929        5.9929       5.074281       0.41910
  43    0.2613        0.9186        0.0000        5.9909        5.9909       5.072322       0.36933
  42    0.3336        0.9186        0.0000        5.9880        5.9880       5.069444       0.33556
  41    0.4307        0.9186        0.0000        5.9846        5.9846       5.065974       0.30165
  40    0.5894        0.9186        0.0000        5.9791        5.9791       5.060469       0.29276
  39     1.339        0.9186        0.0000        5.9536        5.9536       5.034981       0.28694
  38     1.782        0.9186        0.0000        5.9395        5.9395       5.020843       0.26917
  37     2.292        0.9186        0.0000        5.9237        5.9237       5.005092       0.26088
  36     2.964        0.9186        0.0000        5.9039        5.9039       4.985317       0.24823
  35     3.853        0.9186        0.0000        5.8793        5.8793       4.960660       0.23400
  34     5.035        0.9186        0.0000        5.8487        5.8487       4.930097       0.21834
  33     6.613        0.9186        0.0000        5.8108        5.8108       4.892131       0.20296
  32     8.786        0.9186        0.0000        5.7631        5.7631       4.844506       0.18496
  31     11.80        0.9186        0.0000        5.7039        5.7039       4.785246       0.16591
  30     15.07        0.9187        0.0000        5.6539        5.6539       4.735203       0.12920
  29     18.79        0.9187        0.0000        5.6127        5.6127       4.694063       0.09328
  28     23.16        0.9187        0.0000        5.5794        5.5794       4.660680       0.06455
  27     28.12        0.9187        0.0000        5.5518        5.5518       4.633105       0.04688
  26     33.73        0.9187        0.0000        5.5268        5.5268       4.608040       0.03768
  25     40.54        0.9188        0.0000        5.4993        5.4993       4.580582       0.03407
  24     48.69        0.9188        0.0000        5.4678        5.4678       4.549020       0.03266
  23     57.69        0.9188        0.0000        5.4340        5.4340       4.515208       0.03169
  22     68.43        0.9188        0.0000        5.3947        5.3948       4.475904       0.03090
  21     81.20        0.9189        0.0000        5.3497        5.3497       4.430833       0.02978
  20     96.49        0.9190        0.0000        5.2982        5.2982       4.379271       0.02846
  19     114.6        0.9190        0.0000        5.2389        5.2389       4.319889       0.02773
  18     136.5        0.9191        0.0000        5.1716        5.1717       4.252557       0.02589
  17     162.9        0.9192        0.0000        5.0890        5.0890       4.169816       0.02645
  16     196.4        0.9195        0.0000        4.9668        4.9668       4.047387       0.03082
  15     218.7        0.9197        0.0000        4.8585        4.8585       3.938815       0.04122
  14     243.0        0.9200        0.0000        4.7078        4.7079       3.787858       0.05236
  13     269.0        0.9205        0.0000        4.5343        4.5343       3.613762       0.05648
  12     297.5        0.9214        0.0000        4.3419        4.3420       3.420607       0.05729
  11     328.5        0.9225        0.0000        4.1281        4.1281       3.205650       0.05845
  10     361.9        0.9240        0.0000        3.8786        3.8787       2.954660       0.06350
   9     398.1        0.9260        0.0000        3.6159        3.6160       2.689938       0.06167
   8     437.6        0.9286        0.0000        3.3759        3.3759       2.447272       0.05188
   7     480.5        0.9318        0.0000        3.1957        3.1958       2.263949       0.03600
   6     533.0        0.9368        0.0000        3.0467        3.0467       2.109916       0.02478
   5     589.8        0.9442        0.0000        2.9023        2.9023       1.958141       0.02253
   4     651.6        0.9573        0.0000        2.7183        2.7184       1.761054       0.02695
   3     718.7        0.9800        0.0000        2.5058        2.5059       1.525830       0.02956
   2     792.3        1.0224        0.0001        2.2756        2.2757       1.253298       0.03126
   1     891.5        0.8305        0.4468        1.2633        1.7101       0.879516       0.03181
   0    1013.0        1.0036        0.3633        0.9959        1.3592       0.355585       0.03638

  Modules and versions used in this calculation:

       rrtmg_sw.1col.f90:  $Revision$                    rrtmg_sw_init.f90:  $Revision$        
     rrtmgsw_cldprop.f90:  $Revision$                  rrtmgsw_cldprmc.f90:  NOT USED          
     rrtmg_sw_reftra.f90:  $Revision$                  rrtmg_sw_spcvrt.f90:  NOT USED          
     rrtmg_sw_spcvmc.f90:  NOT USED                    rrtmgsw_setcoef.f90:  NOT USED          
     rrtmg_sw_taumol.f90:  $Revision$                  rrtmg_sw_vrtqdr.f90:  NOT USED          
                rrtatm.f:  NOT USED                             util_xxx.f:  NOT USED          
                 extra.f:  NOT USED                       rrtmg_sw_k_g.f90:  $Revision$        

