

 Wavenumbers:   820. - 50000. cm-1, ATM      1
 LEVEL PRESSURE   UPWARD FLUX   DIFDOWN FLUX  DIRDOWN FLUX  DOWNWARD FLUX   NET FLUX    HEATING RATE
          mb          W/m2          W/m2          W/m2        W/m2          W/m2       degree/day
  51    .06700      464.5144        0.0000      617.8126      617.8126     153.298138       0.00000
  50    .07753      464.5141        0.0014      617.7947      617.7961     153.281993      12.94002
  49    .09103      464.5136        0.0031      617.7778      617.7808     153.267177       9.26022
  48    0.1069      464.5132        0.0050      617.7581      617.7631     153.249908       9.19237
  47    0.1255      464.5127        0.0073      617.7340      617.7412     153.228554       9.68099
  46    0.1487      464.5121        0.0101      617.7009      617.7110     153.198855      10.82562
  45    0.1794      464.5114        0.0139      617.6521      617.6660     153.154604      12.14797
  44    0.2165      464.5107        0.0185      617.5895      617.6080     153.097256      13.04559
  43    0.2613      464.5101        0.0239      617.5089      617.5328     153.022709      14.05186
  42    0.3336      464.5093        0.0328      617.3641      617.3969     152.887560      15.75704
  41    0.4307      464.5087        0.0444      617.1591      617.2036     152.694843      16.75635
  40    0.5894      464.5088        0.0633      616.8005      616.8638     152.354976      18.07365
  39     1.339      464.5276        0.1485      614.9443      615.0928     150.565149      20.15020
  38     1.782      464.5516        0.1965      613.9670      614.1635     149.611893      18.14846
  37     2.292      464.5911        0.2511      613.0059      613.2570     148.665864      15.66871
  36     2.964      464.6606        0.3220      611.9577      612.2797     147.619121      13.13978
  35     3.853      464.7769        0.4151      610.8024      611.2175     146.440542      11.18493
  34     5.035      464.9557        0.5379      609.5327      610.0706     145.114852       9.47018
  33     6.613      465.2075        0.7008      608.1464      608.8473     143.639844       7.88540
  32     8.786      465.5354        0.9195      606.6250      607.5446     142.009148       6.33303
  31     11.80      465.9604        1.2309      604.8486      606.0795     140.119126       5.29147
  30     15.07      466.3652        1.5631      603.2440      604.8071     138.441844       4.33041
  29     18.79      466.7766        1.9370      601.6511      603.5881     136.811533       3.69642
  28     23.16      467.2040        2.3714      599.9927      602.3641     135.160025       3.19348
  27     28.12      467.6309        2.8658      598.2881      601.1539     133.523031       2.78278
  26     33.73      468.0178        3.4171      596.5951      600.0122     131.994386       2.29836
  25     40.54      468.3797        4.0808      594.7727      598.8535     130.473881       1.88636
  24     48.69      468.7136        4.8773      592.7865      597.6638     128.950231       1.57674
  23     57.69      468.9811        5.7480      590.7959      596.5439     127.562744       1.30056
  22     68.43      469.1922        6.7796      588.6191      595.3986     126.206429       1.06624
  21     81.20      469.2941        8.0026      586.2690      594.2716     124.977478       0.81207
  20     96.49      469.2770        9.4509      583.6961      593.1470     123.869969       0.61127
  19     114.6      469.1999       11.1547      580.7708      591.9255     122.725606       0.53434
  18     136.5      469.0636       13.1500      577.4359      590.5859     121.522231       0.46273
  17     162.9      468.8634       15.4918      573.5624      589.0542     120.190796       0.42558
  16     196.4      468.5161       18.4786      568.5907      587.0693     118.553243       0.41219
  15     218.7      468.2603       20.4100      565.0572      585.4672     117.206941       0.51114
  14     243.0      467.9759       22.4818      560.7495      583.2313     115.255456       0.67684
  13     269.0      467.6655       24.6954      555.3947      580.0901     112.424625       0.91831
  12     297.5      467.3369       27.0516      548.9964      576.0480     108.711071       1.10140
  11     328.5      467.0016       29.5569      542.0895      571.6464     104.644796       1.10561
  10     361.9      466.6702       32.2075      534.6242      566.8318     100.161596       1.13429
   9     398.1      466.3576       35.0083      526.4204      561.4287      95.071040       1.18599
   8     437.6      466.0928       37.9577      517.3907      555.3483      89.255539       1.24339
   7     480.5      465.9073       41.0539      507.7216      548.7755      82.868198       1.25445
   6     533.0      465.8639       44.7770      495.9006      540.6777      74.813786       1.29570
   5     589.8      466.1570       48.6845      483.0788      531.7633      65.606339       1.36669
   4     651.6      467.1861       52.7633      468.6907      521.4539      54.267859       1.55057
   3     718.7      469.5348       57.0053      453.2257      510.2310      40.696174       1.70558
   2     792.3      474.7926       61.3881      436.4928      497.8809      23.088298       2.01943
   1     891.5      225.4149      238.8994        0.0000      238.8994      13.484437       0.81724
   0    1013.0      226.5222      237.2288        0.0000      237.2288      10.706682       0.19287



 Wavenumbers:  2600. -  3250. cm-1, ATM      1
 LEVEL PRESSURE   UPWARD FLUX   DIFDOWN FLUX  DIRDOWN FLUX  DOWNWARD FLUX   NET FLUX    HEATING RATE
          mb          W/m2          W/m2          W/m2        W/m2          W/m2       degree/day
  51    .06700        2.2012        0.0000        5.4450        5.4450       3.243881       0.00000
  50    .07753        2.2012        0.0000        5.4450        5.4450       3.243873       0.00640
  49    .09103        2.2012        0.0000        5.4450        5.4450       3.243863       0.00627
  48    0.1069        2.2012        0.0000        5.4450        5.4450       3.243851       0.00613
  47    0.1255        2.2012        0.0000        5.4450        5.4450       3.243838       0.00599
  46    0.1487        2.2012        0.0000        5.4450        5.4450       3.243822       0.00608
  45    0.1794        2.2012        0.0000        5.4450        5.4450       3.243799       0.00625
  44    0.2165        2.2012        0.0000        5.4449        5.4449       3.243772       0.00612
  43    0.2613        2.2012        0.0000        5.4449        5.4449       3.243740       0.00600
  42    0.3336        2.2012        0.0000        5.4448        5.4448       3.243687       0.00617
  41    0.4307        2.2012        0.0000        5.4448        5.4448       3.243616       0.00620
  40    0.5894        2.2012        0.0000        5.4446        5.4446       3.243496       0.00637
  39     1.339        2.2012        0.0000        5.4439        5.4439       3.242789       0.00797
  38     1.782        2.2012        0.0000        5.4434        5.4434       3.242246       0.01034
  37     2.292        2.2012        0.0000        5.4427        5.4427       3.241530       0.01186
  36     2.964        2.2012        0.0000        5.4416        5.4416       3.240491       0.01304
  35     3.853        2.2012        0.0000        5.4402        5.4402       3.239013       0.01402
  34     5.035        2.2012        0.0000        5.4381        5.4381       3.236958       0.01469
  33     6.613        2.2012        0.0000        5.4353        5.4353       3.234176       0.01487
  32     8.786        2.2012        0.0000        5.4317        5.4317       3.230543       0.01411
  31     11.80        2.2012        0.0000        5.4269        5.4269       3.225760       0.01339
  30     15.07        2.2012        0.0000        5.4224        5.4224       3.221230       0.01170
  29     18.79        2.2012        0.0000        5.4180        5.4180       3.216813       0.01001
  28     23.16        2.2012        0.0000        5.4135        5.4135       3.212320       0.00869
  27     28.12        2.2012        0.0000        5.4088        5.4088       3.207662       0.00792
  26     33.73        2.2012        0.0000        5.4036        5.4036       3.202406       0.00790
  25     40.54        2.2012        0.0000        5.3966        5.3967       3.195441       0.00864
  24     48.69        2.2013        0.0000        5.3872        5.3872       3.185929       0.00984
  23     57.69        2.2013        0.0000        5.3754        5.3754       3.174096       0.01109
  22     68.43        2.2014        0.0000        5.3599        5.3599       3.158537       0.01223
  21     81.20        2.2015        0.0000        5.3401        5.3401       3.138603       0.01317
  20     96.49        2.2016        0.0000        5.3155        5.3155       3.113893       0.01364
  19     114.6        2.2019        0.0001        5.2853        5.2854       3.083500       0.01419
  18     136.5        2.2022        0.0001        5.2504        5.2505       3.048317       0.01353
  17     162.9        2.2026        0.0001        5.2111        5.2112       3.008576       0.01270
  16     196.4        2.2033        0.0001        5.1640        5.1641       2.960824       0.01202
  15     218.7        2.2040        0.0001        5.1331        5.1332       2.929203       0.01201
  14     243.0        2.2052        0.0001        5.0962        5.0963       2.891152       0.01320
  13     269.0        2.2070        0.0001        5.0511        5.0512       2.844234       0.01522
  12     297.5        2.2097        0.0001        4.9956        4.9957       2.786018       0.01727
  11     328.5        2.2136        0.0001        4.9304        4.9305       2.716955       0.01878
  10     361.9        2.2189        0.0002        4.8511        4.8513       2.632394       0.02139
   9     398.1        2.2262        0.0002        4.7507        4.7509       2.524641       0.02510
   8     437.6        2.2365        0.0002        4.6220        4.6222       2.385742       0.02970
   7     480.5        2.2508        0.0002        4.4625        4.4627       2.211878       0.03415
   6     533.0        2.2743        0.0002        4.2460        4.2462       1.971960       0.03860
   5     589.8        2.3105        0.0002        3.9954        3.9956       1.685172       0.04257
   4     651.6        2.3709        0.0002        3.7089        3.7091       1.338195       0.04745
   3     718.7        2.4725        0.0002        3.4018        3.4021       0.929517       0.05136
   2     792.3        2.6622        0.0002        3.0564        3.0567       0.394488       0.06136
   1     891.5        0.0011        0.1346        0.0000        0.1346       0.133572       0.02220
   0    1013.0        0.0012        0.1171        0.0000        0.1171       0.115878       0.00123



 Wavenumbers:  3250. -  4000. cm-1, ATM      1
 LEVEL PRESSURE   UPWARD FLUX   DIFDOWN FLUX  DIRDOWN FLUX  DOWNWARD FLUX   NET FLUX    HEATING RATE
          mb          W/m2          W/m2          W/m2        W/m2          W/m2       degree/day
  51    .06700        0.0884        0.0000        9.1795        9.1795       9.091151       0.00000
  50    .07753        0.0884        0.0000        9.1747        9.1747       9.086308       3.88148
  49    .09103        0.0884        0.0000        9.1713        9.1713       9.082920       2.11747
  48    0.1069        0.0884        0.0000        9.1688        9.1688       9.080395       1.34402
  47    0.1255        0.0884        0.0000        9.1665        9.1665       9.078136       1.02422
  46    0.1487        0.0884        0.0000        9.1641        9.1641       9.075695       0.88991
  45    0.1794        0.0884        0.0000        9.1612        9.1612       9.072817       0.79008
  44    0.2165        0.0884        0.0000        9.1583        9.1583       9.069897       0.66430
  43    0.2613        0.0884        0.0000        9.1553        9.1553       9.066923       0.56041
  42    0.3336        0.0884        0.0000        9.1511        9.1511       9.062744       0.48723
  41    0.4307        0.0884        0.0000        9.1464        9.1464       9.057976       0.41459
  40    0.5894        0.0884        0.0000        9.1393        9.1394       9.050971       0.37255
  39     1.339        0.0884        0.0000        9.1127        9.1127       9.024357       0.29962
  38     1.782        0.0884        0.0000        9.1011        9.1011       9.012769       0.22062
  37     2.292        0.0884        0.0000        9.0901        9.0901       9.001702       0.18329
  36     2.964        0.0884        0.0000        9.0776        9.0776       8.989272       0.15603
  35     3.853        0.0884        0.0000        9.0629        9.0629       8.974482       0.14036
  34     5.035        0.0884        0.0000        9.0441        9.0441       8.955743       0.13386
  33     6.613        0.0884        0.0000        9.0191        9.0191       8.930742       0.13366
  32     8.786        0.0884        0.0000        8.9843        8.9843       8.895958       0.13509
  31     11.80        0.0884        0.0000        8.9327        8.9327       8.844342       0.14451
  30     15.07        0.0884        0.0000        8.8758        8.8759       8.787497       0.14676
  29     18.79        0.0884        0.0000        8.8110        8.8110       8.722670       0.14698
  28     23.16        0.0883        0.0000        8.7365        8.7366       8.648225       0.14395
  27     28.12        0.0883        0.0000        8.6554        8.6555       8.567112       0.13789
  26     33.73        0.0883        0.0000        8.5719        8.5719       8.483612       0.12554
  25     40.54        0.0883        0.0001        8.4812        8.4812       8.392888       0.11255
  24     48.69        0.0883        0.0001        8.3838        8.3839       8.295587       0.10069
  23     57.69        0.0883        0.0001        8.2861        8.2862       8.197851       0.09161
  22     68.43        0.0883        0.0001        8.1751        8.1751       8.086854       0.08726
  21     81.20        0.0883        0.0001        8.0457        8.0458       7.957496       0.08548
  20     96.49        0.0883        0.0001        7.8949        7.8951       7.806792       0.08318
  19     114.6        0.0882        0.0001        7.7162        7.7163       7.628082       0.08345
  18     136.5        0.0882        0.0002        7.5193        7.5195       7.431237       0.07569
  17     162.9        0.0882        0.0002        7.2913        7.2915       7.203343       0.07284
  16     196.4        0.0882        0.0002        6.9660        6.9662       6.878064       0.08188
  15     218.7        0.0882        0.0002        6.6648        6.6650       6.576860       0.11436
  14     243.0        0.0882        0.0002        6.2619        6.2622       6.174028       0.13972
  13     269.0        0.0882        0.0003        5.7576        5.7579       5.669639       0.16362
  12     297.5        0.0884        0.0003        5.1719        5.1722       5.083755       0.17377
  11     328.5        0.0887        0.0002        4.5757        4.5760       4.487260       0.16219
  10     361.9        0.0893        0.0002        3.9995        3.9998       3.910528       0.14592
   9     398.1        0.0902        0.0002        3.4655        3.4657       3.375559       0.12464
   8     437.6        0.0917        0.0002        2.9740        2.9743       2.882594       0.10540
   7     480.5        0.0941        0.0002        2.5307        2.5309       2.436766       0.08756
   6     533.0        0.0988        0.0002        2.0614        2.0616       1.962733       0.07626
   5     589.8        0.1075        0.0002        1.6150        1.6151       1.507646       0.06755
   4     651.6        0.1256        0.0001        1.1565        1.1566       1.031008       0.06518
   3     718.7        0.1655        0.0001        0.7390        0.7391       0.573580       0.05749
   2     792.3        0.2728        0.0001        0.3985        0.3985       0.125744       0.05136
   1     891.5        0.0000        0.0011        0.0000        0.0011       0.001114       0.01061
   0    1013.0        0.0000        0.0001        0.0000        0.0001       0.000108       0.00007



 Wavenumbers:  4000. -  4650. cm-1, ATM      1
 LEVEL PRESSURE   UPWARD FLUX   DIFDOWN FLUX  DIRDOWN FLUX  DOWNWARD FLUX   NET FLUX    HEATING RATE
          mb          W/m2          W/m2          W/m2        W/m2          W/m2       degree/day
  51    .06700        7.0006        0.0000       10.7795       10.7795       3.778980       0.00000
  50    .07753        7.0006        0.0000       10.7795       10.7795       3.778979       0.00080
  49    .09103        7.0006        0.0000       10.7795       10.7795       3.778978       0.00078
  48    0.1069        7.0006        0.0000       10.7795       10.7795       3.778976       0.00077
  47    0.1255        7.0006        0.0000       10.7795       10.7795       3.778975       0.00075
  46    0.1487        7.0006        0.0000       10.7795       10.7795       3.778973       0.00076
  45    0.1794        7.0006        0.0000       10.7795       10.7795       3.778970       0.00078
  44    0.2165        7.0006        0.0000       10.7795       10.7795       3.778966       0.00076
  43    0.2613        7.0006        0.0000       10.7795       10.7795       3.778963       0.00075
  42    0.3336        7.0006        0.0000       10.7795       10.7795       3.778956       0.00077
  41    0.4307        7.0006        0.0000       10.7795       10.7795       3.778947       0.00078
  40    0.5894        7.0006        0.0000       10.7795       10.7795       3.778932       0.00080
  39     1.339        7.0006        0.0000       10.7794       10.7794       3.778842       0.00101
  38     1.782        7.0006        0.0000       10.7793       10.7793       3.778772       0.00133
  37     2.292        7.0006        0.0000       10.7792       10.7792       3.778678       0.00156
  36     2.964        7.0006        0.0000       10.7791       10.7791       3.778537       0.00177
  35     3.853        7.0006        0.0000       10.7789       10.7789       3.778328       0.00198
  34     5.035        7.0006        0.0000       10.7786       10.7786       3.778021       0.00220
  33     6.613        7.0006        0.0000       10.7781       10.7781       3.777567       0.00242
  32     8.786        7.0006        0.0000       10.7774       10.7775       3.776897       0.00260
  31     11.80        7.0006        0.0001       10.7763       10.7764       3.775844       0.00295
  30     15.07        7.0006        0.0001       10.7751       10.7752       3.774608       0.00319
  29     18.79        7.0006        0.0001       10.7736       10.7737       3.773111       0.00339
  28     23.16        7.0006        0.0001       10.7717       10.7718       3.771251       0.00360
  27     28.12        7.0006        0.0001       10.7695       10.7696       3.768997       0.00383
  26     33.73        7.0006        0.0002       10.7667       10.7668       3.766213       0.00419
  25     40.54        7.0007        0.0002       10.7629       10.7631       3.762432       0.00469
  24     48.69        7.0008        0.0002       10.7579       10.7582       3.757385       0.00522
  23     57.69        7.0009        0.0003       10.7520       10.7523       3.751390       0.00562
  22     68.43        7.0011        0.0003       10.7446       10.7449       3.743860       0.00592
  21     81.20        7.0014        0.0004       10.7355       10.7359       3.734563       0.00614
  20     96.49        7.0017        0.0005       10.7245       10.7250       3.723215       0.00626
  19     114.6        7.0023        0.0006       10.7107       10.7113       3.708977       0.00665
  18     136.5        7.0031        0.0007       10.6942       10.6949       3.691757       0.00662
  17     162.9        7.0043        0.0008       10.6740       10.6748       3.670545       0.00678
  16     196.4        7.0062        0.0010       10.6464       10.6473       3.641101       0.00741
  15     218.7        7.0080        0.0011       10.6255       10.6265       3.618583       0.00855
  14     243.0        7.0105        0.0012       10.5980       10.5993       3.588802       0.01033
  13     269.0        7.0141        0.0013       10.5611       10.5624       3.548298       0.01314
  12     297.5        7.0195        0.0015       10.5119       10.5134       3.493941       0.01612
  11     328.5        7.0268        0.0016       10.4499       10.4515       3.424692       0.01883
  10     361.9        7.0364        0.0018       10.3702       10.3720       3.335535       0.02256
   9     398.1        7.0486        0.0020       10.2678       10.2697       3.221168       0.02664
   8     437.6        7.0642        0.0021       10.1390       10.1411       3.076957       0.03083
   7     480.5        7.0843        0.0023        9.9877        9.9900       2.905695       0.03364
   6     533.0        7.1157        0.0025        9.7937        9.7962       2.680547       0.03622
   5     589.8        7.1616        0.0028        9.5752        9.5779       2.416303       0.03922
   4     651.6        7.2371        0.0030        9.2958        9.2988       2.061705       0.04849
   3     718.7        7.3671        0.0032        8.9267        8.9299       1.562807       0.06270
   2     792.3        7.6210        0.0034        8.4542        8.4576       0.836665       0.08328
   1     891.5        0.0721        0.5373        0.0000        0.5373       0.465189       0.03161
   0    1013.0        0.0757        0.5068        0.0000        0.5068       0.431154       0.00236



 Wavenumbers:  4650. -  5150. cm-1, ATM      1
 LEVEL PRESSURE   UPWARD FLUX   DIFDOWN FLUX  DIRDOWN FLUX  DOWNWARD FLUX   NET FLUX    HEATING RATE
          mb          W/m2          W/m2          W/m2        W/m2          W/m2       degree/day
  51    .06700        5.0681        0.0000       10.2033       10.2033       5.135199       0.00000
  50    .07753        5.0681        0.0000       10.2031       10.2031       5.134964       0.18901
  49    .09103        5.0681        0.0000       10.2028       10.2028       5.134669       0.18428
  48    0.1069        5.0681        0.0000       10.2025       10.2025       5.134332       0.17931
  47    0.1255        5.0681        0.0000       10.2021       10.2021       5.133947       0.17426
  46    0.1487        5.0681        0.0000       10.2016       10.2016       5.133466       0.17536
  45    0.1794        5.0681        0.0000       10.2010       10.2010       5.132816       0.17850
  44    0.2165        5.0681        0.0000       10.2002       10.2002       5.132057       0.17277
  43    0.2613        5.0681        0.0000       10.1993       10.1993       5.131171       0.16690
  42    0.3336        5.0681        0.0000       10.1979       10.1979       5.129739       0.16702
  41    0.4307        5.0681        0.0000       10.1960       10.1960       5.127898       0.16002
  40    0.5894        5.0681        0.0000       10.1932       10.1932       5.125024       0.15283
  39     1.339        5.0681        0.0000       10.1816       10.1816       5.113432       0.13051
  38     1.782        5.0681        0.0000       10.1760       10.1760       5.107902       0.10527
  37     2.292        5.0681        0.0000       10.1706       10.1706       5.102445       0.09039
  36     2.964        5.0681        0.0000       10.1646       10.1647       5.096520       0.07437
  35     3.853        5.0681        0.0000       10.1584       10.1584       5.090303       0.05900
  34     5.035        5.0681        0.0000       10.1521       10.1521       5.083963       0.04529
  33     6.613        5.0681        0.0000       10.1456       10.1456       5.077498       0.03456
  32     8.786        5.0682        0.0001       10.1386       10.1386       5.070473       0.02728
  31     11.80        5.0682        0.0001       10.1295       10.1296       5.061407       0.02538
  30     15.07        5.0682        0.0001       10.1196       10.1197       5.051493       0.02560
  29     18.79        5.0683        0.0001       10.1076       10.1077       5.039436       0.02734
  28     23.16        5.0684        0.0002       10.0923       10.0924       5.024061       0.02973
  27     28.12        5.0685        0.0002       10.0731       10.0733       5.004870       0.03262
  26     33.73        5.0686        0.0002       10.0500       10.0503       4.981647       0.03492
  25     40.54        5.0689        0.0003       10.0201       10.0204       4.951560       0.03733
  24     48.69        5.0692        0.0004        9.9820        9.9823       4.913128       0.03977
  23     57.69        5.0696        0.0004        9.9384        9.9389       4.869255       0.04112
  22     68.43        5.0702        0.0005        9.8858        9.8862       4.816061       0.04182
  21     81.20        5.0710        0.0006        9.8234        9.8240       4.753031       0.04165
  20     96.49        5.0721        0.0007        9.7518        9.7525       4.680330       0.04013
  19     114.6        5.0737        0.0008        9.6719        9.6727       4.599064       0.03795
  18     136.5        5.0758        0.0010        9.5858        9.5868       4.510952       0.03388
  17     162.9        5.0788        0.0011        9.4940        9.4952       4.416399       0.03022
  16     196.4        5.0833        0.0014        9.3883        9.3896       4.306297       0.02771
  15     218.7        5.0869        0.0015        9.3229        9.3244       4.237504       0.02612
  14     243.0        5.0915        0.0017        9.2520        9.2536       4.162097       0.02615
  13     269.0        5.0977        0.0018        9.1717        9.1735       4.075767       0.02801
  12     297.5        5.1063        0.0020        9.0763        9.0783       3.971967       0.03079
  11     328.5        5.1175        0.0022        8.9650        8.9672       3.849656       0.03326
  10     361.9        5.1319        0.0024        8.8349        8.8373       3.705370       0.03651
   9     398.1        5.1507        0.0026        8.6820        8.6846       3.533918       0.03994
   8     437.6        5.1751        0.0028        8.5028        8.5056       3.330492       0.04349
   7     480.5        5.2070        0.0030        8.2948        8.2979       3.090884       0.04706
   6     533.0        5.2557        0.0033        8.0209        8.0242       2.768487       0.05186
   5     589.8        5.3237        0.0035        7.7063        7.7099       2.386136       0.05675
   4     651.6        5.4251        0.0038        7.3412        7.3450       1.919891       0.06376
   3     718.7        5.5802        0.0040        6.9387        6.9427       1.362446       0.07006
   2     792.3        5.8332        0.0042        6.5066        6.5108       0.677554       0.07855
   1     891.5        0.0168        0.3594        0.0000        0.3594       0.342540       0.02851
   0    1013.0        0.0179        0.3343        0.0000        0.3343       0.316383       0.00182



 Wavenumbers:  5150. -  6150. cm-1, ATM      1
 LEVEL PRESSURE   UPWARD FLUX   DIFDOWN FLUX  DIRDOWN FLUX  DOWNWARD FLUX   NET FLUX    HEATING RATE
          mb          W/m2          W/m2          W/m2        W/m2          W/m2       degree/day
  51    .06700       11.9607        0.0000       25.5798       25.5798      13.619144       0.00000
  50    .07753       11.9607        0.0000       25.5798       25.5798      13.619104       0.03163
  49    .09103       11.9607        0.0000       25.5797       25.5797      13.619053       0.03212
  48    0.1069       11.9607        0.0000       25.5797       25.5797      13.618992       0.03262
  47    0.1255       11.9607        0.0000       25.5796       25.5796      13.618919       0.03312
  46    0.1487       11.9607        0.0000       25.5795       25.5795      13.618823       0.03490
  45    0.1794       11.9607        0.0000       25.5794       25.5794      13.618688       0.03714
  44    0.2165       11.9607        0.0000       25.5792       25.5792      13.618522       0.03770
  43    0.2613       11.9607        0.0000       25.5790       25.5790      13.618319       0.03828
  42    0.3336       11.9607        0.0000       25.5786       25.5786      13.617972       0.04044
  41    0.4307       11.9607        0.0000       25.5782       25.5782      13.617501       0.04099
  40    0.5894       11.9607        0.0000       25.5774       25.5774      13.616711       0.04200
  39     1.339       11.9607        0.0000       25.5735       25.5736      13.612905       0.04284
  38     1.782       11.9607        0.0001       25.5713       25.5714      13.610689       0.04220
  37     2.292       11.9607        0.0001       25.5688       25.5688      13.608180       0.04156
  36     2.964       11.9607        0.0001       25.5656       25.5657      13.604991       0.04003
  35     3.853       11.9607        0.0001       25.5615       25.5616      13.600936       0.03848
  34     5.035       11.9607        0.0002       25.5562       25.5564      13.595713       0.03731
  33     6.613       11.9607        0.0002       25.5494       25.5496      13.588934       0.03624
  32     8.786       11.9607        0.0003       25.5406       25.5409      13.580146       0.03413
  31     11.80       11.9608        0.0004       25.5287       25.5290      13.568252       0.03330
  30     15.07       11.9609        0.0005       25.5167       25.5172      13.556315       0.03082
  29     18.79       11.9610        0.0006       25.5042       25.5048      13.543825       0.02832
  28     23.16       11.9611        0.0008       25.4907       25.4914      13.530356       0.02604
  27     28.12       11.9612        0.0009       25.4764       25.4774      13.516138       0.02417
  26     33.73       11.9614        0.0011       25.4620       25.4631      13.501701       0.02171
  25     40.54       11.9617        0.0013       25.4463       25.4476      13.485871       0.01964
  24     48.69       11.9621        0.0016       25.4294       25.4310      13.468860       0.01760
  23     57.69       11.9626        0.0019       25.4126       25.4145      13.451911       0.01589
  22     68.43       11.9632        0.0022       25.3944       25.3967      13.433444       0.01452
  21     81.20       11.9640        0.0026       25.3744       25.3771      13.413056       0.01347
  20     96.49       11.9650        0.0031       25.3519       25.3551      13.390081       0.01268
  19     114.6       11.9662        0.0037       25.3262       25.3299      13.363677       0.01233
  18     136.5       11.9677        0.0044       25.2962       25.3006      13.332891       0.01184
  17     162.9       11.9696        0.0053       25.2521       25.2574      13.287752       0.01443
  16     196.4       11.9722        0.0063       25.1593       25.1656      13.193440       0.02374
  15     218.7       11.9740        0.0070       25.0159       25.0229      13.048904       0.05487
  14     243.0       11.9763        0.0077       24.7089       24.7166      12.740313       0.10703
  13     269.0       11.9792        0.0084       24.1619       24.1703      12.191025       0.17819
  12     297.5       11.9832        0.0091       23.4544       23.4635      11.480275       0.21080
  11     328.5       11.9884        0.0098       22.7355       22.7453      10.756868       0.19669
  10     361.9       11.9953        0.0106       21.9224       21.9330       9.937658       0.20727
   9     398.1       12.0046        0.0113       20.9939       21.0052       9.000557       0.21832
   8     437.6       12.0176        0.0120       19.9833       19.9953       7.977700       0.21869
   7     480.5       12.0356        0.0126       18.9483       18.9609       6.925325       0.20668
   6     533.0       12.0663        0.0134       17.7796       17.7930       5.726680       0.19282
   5     589.8       12.1164        0.0142       16.6726       16.6868       4.570419       0.17163
   4     651.6       12.2085        0.0150       15.6343       15.6493       3.440817       0.15448
   3     718.7       12.3790        0.0159       14.7738       14.7897       2.410722       0.12945
   2     792.3       12.7272        0.0169       14.0291       14.0460       1.318728       0.12524
   1     891.5        0.1602        0.9622        0.0000        0.9622       0.802015       0.04397
   0    1013.0        0.1646        0.9257        0.0000        0.9257       0.761148       0.00284



 Wavenumbers:  6150. -  7700. cm-1, ATM      1
 LEVEL PRESSURE   UPWARD FLUX   DIFDOWN FLUX  DIRDOWN FLUX  DOWNWARD FLUX   NET FLUX    HEATING RATE
          mb          W/m2          W/m2          W/m2        W/m2          W/m2       degree/day
  51    .06700       19.3297        0.0000       47.3109       47.3109      27.981183       0.00000
  50    .07753       19.3297        0.0000       47.3108       47.3108      27.981127       0.04553
  49    .09103       19.3297        0.0000       47.3107       47.3107      27.981053       0.04583
  48    0.1069       19.3297        0.0000       47.3106       47.3106      27.980967       0.04614
  47    0.1255       19.3297        0.0000       47.3105       47.3105      27.980864       0.04645
  46    0.1487       19.3297        0.0000       47.3104       47.3104      27.980731       0.04852
  45    0.1794       19.3297        0.0000       47.3102       47.3102      27.980544       0.05127
  44    0.2165       19.3297        0.0000       47.3100       47.3100      27.980317       0.05167
  43    0.2613       19.3297        0.0000       47.3097       47.3097      27.980041       0.05210
  42    0.3336       19.3297        0.0000       47.3092       47.3092      27.979572       0.05471
  41    0.4307       19.3296        0.0000       47.3085       47.3086      27.978937       0.05521
  40    0.5894       19.3296        0.0001       47.3074       47.3075      27.977877       0.05633
  39     1.339       19.3296        0.0002       47.3022       47.3024      27.972785       0.05733
  38     1.782       19.3295        0.0002       47.2991       47.2994      27.969815       0.05655
  37     2.292       19.3295        0.0003       47.2956       47.2959      27.966439       0.05591
  36     2.964       19.3295        0.0004       47.2912       47.2916      27.962121       0.05421
  35     3.853       19.3294        0.0005       47.2855       47.2860      27.956586       0.05252
  34     5.035       19.3293        0.0007       47.2780       47.2787      27.949405       0.05130
  33     6.613       19.3292        0.0009       47.2683       47.2692      27.940017       0.05019
  32     8.786       19.3290        0.0012       47.2556       47.2567      27.927718       0.04777
  31     11.80       19.3288        0.0016       47.2380       47.2396      27.910813       0.04733
  30     15.07       19.3286        0.0020       47.2201       47.2221      27.893525       0.04464
  29     18.79       19.3283        0.0025       47.2008       47.2033      27.875044       0.04190
  28     23.16       19.3280        0.0031       47.1795       47.1826      27.854652       0.03943
  27     28.12       19.3276        0.0038       47.1565       47.1602      27.832656       0.03739
  26     33.73       19.3272        0.0045       47.1324       47.1369      27.809731       0.03447
  25     40.54       19.3267        0.0054       47.1054       47.1108      27.784090       0.03181
  24     48.69       19.3261        0.0065       47.0754       47.0819      27.755831       0.02924
  23     57.69       19.3254        0.0077       47.0449       47.0526      27.727202       0.02684
  22     68.43       19.3247        0.0091       47.0110       47.0201      27.695455       0.02496
  21     81.20       19.3237        0.0108       46.9729       46.9837      27.659949       0.02346
  20     96.49       19.3226        0.0128       46.9294       46.9422      27.619590       0.02228
  19     114.6       19.3213        0.0153       46.8790       46.8943      27.572930       0.02179
  18     136.5       19.3198        0.0181       46.8200       46.8381      27.518268       0.02102
  17     162.9       19.3181        0.0215       46.7361       46.7576      27.439578       0.02515
  16     196.4       19.3160        0.0259       46.5703       46.5962      27.280205       0.04012
  15     218.7       19.3148        0.0287       46.3473       46.3760      27.061224       0.08314
  14     243.0       19.3140        0.0317       45.9299       45.9616      26.647538       0.14348
  13     269.0       19.3142        0.0347       45.1708       45.2055      25.891279       0.24533
  12     297.5       19.3163        0.0377       44.0115       44.0491      24.732822       0.34359
  11     328.5       19.3210        0.0407       42.7242       42.7649      23.443914       0.35045
  10     361.9       19.3296        0.0438       41.3539       41.3977      22.068122       0.34809
   9     398.1       19.3443        0.0468       39.7953       39.8421      20.497813       0.36585
   8     437.6       19.3688        0.0497       37.9948       38.0445      18.675651       0.38959
   7     480.5       19.4079        0.0525       36.0647       36.1172      16.709310       0.38618
   6     533.0       19.4812        0.0555       33.7773       33.8328      14.351604       0.37928
   5     589.8       19.6090        0.0583       31.4082       31.4665      11.857477       0.37021
   4     651.6       19.8567        0.0606       28.8834       28.9440       9.087335       0.37882
   3     718.7       20.3358        0.0627       26.4104       26.4731       6.137275       0.37074
   2     792.3       21.3820        0.0645       24.0056       24.0701       2.688149       0.39558
   1     891.5        0.3255        1.5447        0.0000        1.5447       1.219291       0.12499
   0    1013.0        0.3413        1.4480        0.0000        1.4480       1.106709       0.00782



 Wavenumbers:  7700. -  8050. cm-1, ATM      1
 LEVEL PRESSURE   UPWARD FLUX   DIFDOWN FLUX  DIRDOWN FLUX  DOWNWARD FLUX   NET FLUX    HEATING RATE
          mb          W/m2          W/m2          W/m2        W/m2          W/m2       degree/day
  51    .06700        8.7648        0.0000       11.1810       11.1810       2.416145       0.00000
  50    .07753        8.7648        0.0000       11.1809       11.1809       2.416121       0.01924
  49    .09103        8.7648        0.0000       11.1809       11.1809       2.416091       0.01886
  48    0.1069        8.7648        0.0000       11.1809       11.1809       2.416056       0.01846
  47    0.1255        8.7649        0.0000       11.1809       11.1809       2.416016       0.01806
  46    0.1487        8.7649        0.0000       11.1808       11.1808       2.415966       0.01833
  45    0.1794        8.7649        0.0000       11.1808       11.1808       2.415897       0.01886
  44    0.2165        8.7649        0.0000       11.1807       11.1807       2.415816       0.01850
  43    0.2613        8.7649        0.0000       11.1806       11.1806       2.415719       0.01816
  42    0.3336        8.7650        0.0000       11.1805       11.1805       2.415560       0.01858
  41    0.4307        8.7650        0.0000       11.1803       11.1804       2.415349       0.01837
  40    0.5894        8.7651        0.0000       11.1801       11.1801       2.415004       0.01836
  39     1.339        8.7655        0.0001       11.1788       11.1789       2.413371       0.01839
  38     1.782        8.7658        0.0001       11.1781       11.1782       2.412411       0.01826
  37     2.292        8.7660        0.0001       11.1772       11.1773       2.411301       0.01839
  36     2.964        8.7664        0.0002       11.1761       11.1763       2.409843       0.01830
  35     3.853        8.7669        0.0002       11.1746       11.1748       2.407916       0.01828
  34     5.035        8.7676        0.0003       11.1726       11.1729       2.405357       0.01828
  33     6.613        8.7684        0.0004       11.1700       11.1704       2.401938       0.01828
  32     8.786        8.7696        0.0005       11.1664       11.1669       2.397332       0.01789
  31     11.80        8.7713        0.0007       11.1613       11.1620       2.390745       0.01844
  30     15.07        8.7731        0.0009       11.1558       11.1568       2.383676       0.01825
  29     18.79        8.7752        0.0012       11.1497       11.1508       2.375695       0.01809
  28     23.16        8.7776        0.0014       11.1425       11.1439       2.366381       0.01801
  27     28.12        8.7803        0.0017       11.1343       11.1361       2.355741       0.01809
  26     33.73        8.7834        0.0021       11.1252       11.1273       2.343850       0.01788
  25     40.54        8.7872        0.0025       11.1142       11.1167       2.329507       0.01779
  24     48.69        8.7918        0.0030       11.1010       11.1040       2.312251       0.01786
  23     57.69        8.7968        0.0036       11.0866       11.0902       2.293343       0.01772
  22     68.43        8.8029        0.0042       11.0695       11.0738       2.270888       0.01765
  21     81.20        8.8101        0.0050       11.0494       11.0544       2.244229       0.01762
  20     96.49        8.8189        0.0059       11.0255       11.0315       2.212595       0.01746
  19     114.6        8.8294        0.0071       10.9975       11.0046       2.175219       0.01745
  18     136.5        8.8420        0.0084       10.9648       10.9731       2.131168       0.01694
  17     162.9        8.8572        0.0099       10.9263       10.9362       2.079039       0.01666
  16     196.4        8.8773        0.0120       10.8773       10.8892       2.011928       0.01689
  15     218.7        8.8907        0.0133       10.8455       10.8588       1.968096       0.01664
  14     243.0        8.9056        0.0147       10.8114       10.8262       1.920598       0.01647
  13     269.0        8.9220        0.0163       10.7749       10.7912       1.869202       0.01667
  12     297.5        8.9401        0.0180       10.7357       10.7537       1.813598       0.01649
  11     328.5        8.9602        0.0198       10.6937       10.7136       1.753370       0.01638
  10     361.9        8.9825        0.0218       10.6489       10.6706       1.688185       0.01649
   9     398.1        9.0073        0.0239       10.6008       10.6247       1.617389       0.01649
   8     437.6        9.0351        0.0262       10.5491       10.5752       1.540164       0.01651
   7     480.5        9.0663        0.0286       10.4934       10.5220       1.455731       0.01658
   6     533.0        9.1070        0.0316       10.4243       10.4559       1.348832       0.01720
   5     589.8        9.1546        0.0348       10.3479       10.3827       1.228141       0.01791
   4     651.6        9.2116        0.0383       10.2613       10.2996       1.087965       0.01917
   3     718.7        9.2817        0.0419       10.1618       10.2037       0.921998       0.02086
   2     792.3        9.3710        0.0458       10.0439       10.0897       0.718733       0.02331
   1     891.5        0.7347        1.3173        0.0000        1.3173       0.582614       0.01158
   0    1013.0        0.7494        1.2905        0.0000        1.2905       0.541098       0.00288



 Wavenumbers:  8050. - 12850. cm-1, ATM      1
 LEVEL PRESSURE   UPWARD FLUX   DIFDOWN FLUX  DIRDOWN FLUX  DOWNWARD FLUX   NET FLUX    HEATING RATE
          mb          W/m2          W/m2          W/m2        W/m2          W/m2       degree/day
  51    .06700      116.3330        0.0000      156.5418      156.5418      40.208799       0.00000
  50    .07753      116.3329        0.0000      156.5417      156.5417      40.208799      -0.00000
  49    .09103      116.3329        0.0001      156.5417      156.5417      40.208799       0.00000
  48    0.1069      116.3329        0.0001      156.5416      156.5417      40.208799       0.00000
  47    0.1255      116.3329        0.0002      156.5415      156.5417      40.208799      -0.00000
  46    0.1487      116.3329        0.0002      156.5414      156.5417      40.208799       0.00000
  45    0.1794      116.3328        0.0003      156.5413      156.5416      40.208799       0.00000
  44    0.2165      116.3328        0.0005      156.5412      156.5416      40.208799      -0.00000
  43    0.2613      116.3328        0.0006      156.5410      156.5416      40.208799       0.00000
  42    0.3336      116.3327        0.0008      156.5407      156.5415      40.208799       0.00000
  41    0.4307      116.3326        0.0011      156.5403      156.5414      40.208799      -0.00000
  40    0.5894      116.3325        0.0016      156.5397      156.5413      40.208799       0.00000
  39     1.339      116.3318        0.0039      156.5367      156.5406      40.208799      -0.00000
  38     1.782      116.3314        0.0052      156.5350      156.5402      40.208799      -0.00000
  37     2.292      116.3309        0.0067      156.5330      156.5397      40.208799       0.00000
  36     2.964      116.3303        0.0088      156.5303      156.5391      40.208799       0.00000
  35     3.853      116.3295        0.0114      156.5268      156.5383      40.208799       0.00000
  34     5.035      116.3284        0.0150      156.5222      156.5372      40.208799      -0.00000
  33     6.613      116.3270        0.0198      156.5160      156.5358      40.208799       0.00000
  32     8.786      116.3250        0.0262      156.5076      156.5338      40.208799       0.00000
  31     11.80      116.3222        0.0354      156.4957      156.5310      40.208799      -0.00000
  30     15.07      116.3192        0.0452      156.4828      156.5280      40.208799       0.00000
  29     18.79      116.3158        0.0564      156.4682      156.5246      40.208799      -0.00000
  28     23.16      116.3119        0.0695      156.4512      156.5207      40.208799       0.00000
  27     28.12      116.3073        0.0844      156.4317      156.5161      40.208799       0.00000
  26     33.73      116.3023        0.1012      156.4099      156.5111      40.208799      -0.00000
  25     40.54      116.2961        0.1215      156.3834      156.5049      40.208799       0.00000
  24     48.69      116.2887        0.1459      156.3515      156.4975      40.208799      -0.00000
  23     57.69      116.2805        0.1729      156.3164      156.4893      40.208799       0.00000
  22     68.43      116.2707        0.2050      156.2746      156.4795      40.208799       0.00000
  21     81.20      116.2591        0.2433      156.2246      156.4679      40.208799       0.00000
  20     96.49      116.2452        0.2891      156.1649      156.4540      40.208799      -0.00000
  19     114.6      116.2290        0.3435      156.0879      156.4315      40.202496       0.00294
  18     136.5      116.2097        0.4082      155.9962      156.4043      40.194681       0.00300
  17     162.9      116.1867        0.4853      155.8831      156.3684      40.181735       0.00414
  16     196.4      116.1570        0.5857      155.7199      156.3056      40.148641       0.00833
  15     218.7      116.1380        0.6517      155.5733      156.2250      40.086966       0.02342
  14     243.0      116.1188        0.7234      155.3367      156.0601      39.941270       0.05053
  13     269.0      116.1014        0.8010      154.9514      155.7525      39.651019       0.09416
  12     297.5      116.0892        0.8846      154.3896      155.2743      39.185025       0.13821
  11     328.5      116.0844        0.9748      153.7151      154.6899      38.605482       0.15758
  10     361.9      116.0916        1.0716      152.9087      153.9804      37.888736       0.18134
   9     398.1      116.1185        1.1752      151.8986      153.0738      36.955334       0.21746
   8     437.6      116.1782        1.2854      150.6031      151.8886      35.710421       0.26617
   7     480.5      116.2867        1.4021      149.0014      150.4035      34.116726       0.31300
   6     533.0      116.5052        1.5433      146.7375      148.2808      31.775584       0.37662
   5     589.8      116.8995        1.6913      143.8730      145.5643      28.664872       0.46173
   4     651.6      117.6666        1.8433      140.0955      141.9388      24.272287       0.60070
   3     718.7      119.1059        1.9976      135.5278      137.5254      18.419489       0.73553
   2     792.3      121.9935        2.1502      130.0690      132.2192      10.225687       0.93974
   1     891.5       24.8460       30.4536        0.0000       30.4536       5.607548       0.39298
   0    1013.0       25.3717       29.7023        0.0000       29.7023       4.330595       0.08867



 Wavenumbers: 12850. - 16000. cm-1, ATM      1
 LEVEL PRESSURE   UPWARD FLUX   DIFDOWN FLUX  DIRDOWN FLUX  DOWNWARD FLUX   NET FLUX    HEATING RATE
          mb          W/m2          W/m2          W/m2        W/m2          W/m2       degree/day
  51    .06700       83.3680        0.0000       98.0872       98.0872      14.719236       0.00000
  50    .07753       83.3680        0.0001       98.0864       98.0864      14.718443       0.63607
  49    .09103       83.3680        0.0002       98.0853       98.0855      14.717446       0.62320
  48    0.1069       83.3680        0.0003       98.0841       98.0843      14.716299       0.61013
  47    0.1255       83.3680        0.0004       98.0826       98.0830      14.714982       0.59738
  46    0.1487       83.3681        0.0005       98.0809       98.0814      14.713318       0.60660
  45    0.1794       83.3681        0.0007       98.0784       98.0792      14.711052       0.62193
  44    0.2165       83.3682        0.0010       98.0756       98.0766      14.708385       0.60674
  43    0.2613       83.3684        0.0013       98.0723       98.0736      14.705245       0.59182
  42    0.3336       83.3687        0.0018       98.0670       98.0688      14.700115       0.59818
  41    0.4307       83.3691        0.0024       98.0602       98.0626      14.693470       0.57769
  40    0.5894       83.3700        0.0034       98.0496       98.0530      14.682979       0.55791
  39     1.339       83.3776        0.0083       98.0043       98.0127      14.635088       0.53917
  38     1.782       83.3844        0.0112       97.9793       97.9905      14.606108       0.55173
  37     2.292       83.3945        0.0146       97.9498       97.9643      14.569857       0.60041
  36     2.964       83.4111        0.0189       97.9088       97.9278      14.516658       0.66782
  35     3.853       83.4378        0.0247       97.8503       97.8751      14.437254       0.75356
  34     5.035       83.4780        0.0324       97.7680       97.8004      14.322420       0.82033
  33     6.613       83.5340        0.0427       97.6562       97.6989      14.164827       0.84249
  32     8.786       83.6070        0.0565       97.5107       97.5672      13.960111       0.79504
  31     11.80       83.7022        0.0762       97.3179       97.3941      13.691859       0.75102
  30     15.07       83.7936        0.0974       97.1283       97.2257      13.432122       0.67059
  29     18.79       83.8871        0.1213       96.9300       97.0513      13.164209       0.60744
  28     23.16       83.9851        0.1492       96.7166       96.8657      12.880646       0.54832
  27     28.12       84.0841        0.1811       96.4935       96.6745      12.590469       0.49328
  26     33.73       84.1761        0.2167       96.2731       96.4898      12.313726       0.41609
  25     40.54       84.2656        0.2599       96.0408       96.3006      12.035030       0.34575
  24     48.69       84.3524        0.3118       95.7946       96.1064      11.753971       0.29085
  23     57.69       84.4275        0.3690       95.5573       95.9262      11.498753       0.23923
  22     68.43       84.4949        0.4370       95.3106       95.7476      11.252796       0.19336
  21     81.20       84.5449        0.5183       95.0643       95.5826      11.037656       0.14216
  20     96.49       84.5768        0.6152       94.8153       95.4304      10.853656       0.10155
  19     114.6       84.6120        0.7313       94.5411       95.2723      10.660378       0.09025
  18     136.5       84.6420        0.8689       94.2320       95.1010      10.458940       0.07746
  17     162.9       84.6673        1.0328       93.8753       94.9081      10.240834       0.06972
  16     196.4       84.6776        1.2454       93.4347       94.6801      10.002492       0.05999
  15     218.7       84.6765        1.3851       93.1513       94.5363       9.859812       0.05417
  14     243.0       84.6724        1.5368       92.8439       94.3808       9.708402       0.05251
  13     269.0       84.6653        1.7013       92.5111       94.2124       9.547089       0.05233
  12     297.5       84.6564        1.8790       92.1495       94.0285       9.372088       0.05190
  11     328.5       84.6481        2.0711       91.7554       93.8265       9.178356       0.05268
  10     361.9       84.6419        2.2778       91.3262       93.6040       8.962137       0.05471
   9     398.1       84.6401        2.5003       90.8575       93.3578       8.717757       0.05694
   8     437.6       84.6469        2.7391       90.3418       93.0809       8.433933       0.06068
   7     480.5       84.6669        2.9948       89.7728       92.7676       8.100701       0.06545
   6     533.0       84.7152        3.3091       89.0428       92.3519       7.636673       0.07465
   5     589.8       84.8109        3.6468       88.2038       91.8506       7.039729       0.08861
   4     651.6       85.0011        4.0073       87.1979       91.2052       6.204153       0.11427
   3     718.7       85.3244        4.3893       86.0161       90.4054       5.080992       0.14115
   2     792.3       85.8932        4.7888       84.5970       89.3859       3.492635       0.18217
   1     891.5       42.2017       44.4946        0.0000       44.4946       2.292894       0.10209
   0    1013.0       42.5712       44.0695        0.0000       44.0695       1.498364       0.05517



 Wavenumbers: 16000. - 22650. cm-1, ATM      1
 LEVEL PRESSURE   UPWARD FLUX   DIFDOWN FLUX  DIRDOWN FLUX  DOWNWARD FLUX   NET FLUX    HEATING RATE
          mb          W/m2          W/m2          W/m2        W/m2          W/m2       degree/day
  51    .06700      141.2047        0.0000      156.3892      156.3892      15.184571       0.00000
  50    .07753      141.2047        0.0004      156.3887      156.3891      15.184423       0.11851
  49    .09103      141.2046        0.0009      156.3879      156.3888      15.184208       0.13442
  48    0.1069      141.2046        0.0015      156.3871      156.3885      15.183920       0.15328
  47    0.1255      141.2046        0.0021      156.3861      156.3882      15.183535       0.17472
  46    0.1487      141.2047        0.0030      156.3847      156.3877      15.182967       0.20704
  45    0.1794      141.2048        0.0041      156.3828      156.3869      15.182079       0.24378
  44    0.2165      141.2051        0.0054      156.3805      156.3859      15.180874       0.27398
  43    0.2613      141.2054        0.0070      156.3776      156.3846      15.179240       0.30802
  42    0.3336      141.2062        0.0097      156.3726      156.3823      15.176133       0.36223
  41    0.4307      141.2074        0.0132      156.3657      156.3789      15.171450       0.40718
  40    0.5894      141.2100        0.0189      156.3537      156.3725      15.162519       0.47496
  39     1.339      141.2327        0.0459      156.2834      156.3293      15.096533       0.74288
  38     1.782      141.2537        0.0617      156.2324      156.2941      15.040320       1.07019
  37     2.292      141.2852        0.0801      156.1641      156.2442      14.958952       1.34767
  36     2.964      141.3375        0.1041      156.0605      156.1646      14.827135       1.65470
  35     3.853      141.4220        0.1359      155.9041      156.0400      14.617973       1.98499
  34     5.035      141.5495        0.1781      155.6774      155.8555      14.305918       2.22919
  33     6.613      141.7278        0.2344      155.3656      155.6000      13.872250       2.31839
  32     8.786      141.9599        0.3102      154.9577      155.2678      13.307946       2.19155
  31     11.80      142.2620        0.4184      154.4153      154.8336      12.571669       2.06134
  30     15.07      142.5514        0.5344      153.8804      154.4148      11.863388       1.82864
  29     18.79      142.8469        0.6653      153.3191      153.9844      11.137459       1.64591
  28     23.16      143.1558        0.8179      152.7126      153.5304      10.374686       1.47496
  27     28.12      143.4666        0.9922      152.0755      153.0677       9.601100       1.31505
  26     33.73      143.7535        1.1870      151.4409      152.6279       8.874462       1.09252
  25     40.54      144.0296        1.4222      150.7637      152.1859       8.156276       0.89099
  24     48.69      144.2940        1.7054      150.0338      151.7393       7.445253       0.73580
  23     57.69      144.5183        2.0162      149.3151      151.3313       6.813076       0.59257
  22     68.43      144.7139        2.3859      148.5476      150.9335       6.219622       0.46653
  21     81.20      144.8491        2.8261      147.7517      150.5778       5.728693       0.32440
  20     96.49      144.9193        3.3501      146.9127      150.2628       5.343434       0.21264
  19     114.6      144.9559        3.9705      145.9763      149.9468       4.990885       0.16462
  18     136.5      144.9678        4.7031      144.9088      149.6118       4.644067       0.13336
  17     162.9      144.9532        5.5713      143.6785      149.2499       4.296653       0.11105
  16     196.4      144.8725        6.6917      142.1651      148.8567       3.984184       0.07865
  15     218.7      144.7969        7.4238      141.2033      148.6271       3.830238       0.05845
  14     243.0      144.7043        8.2162      140.1753      148.3915       3.687232       0.04960
  13     269.0      144.5931        9.0710      139.0797      148.1507       3.557557       0.04207
  12     297.5      144.4629        9.9904      137.9141      147.9045       3.441554       0.03441
  11     328.5      144.3176       10.9786      136.6676      147.6462       3.328550       0.03073
  10     361.9      144.1570       12.0365      135.3392      147.3757       3.218651       0.02781
   9     398.1      143.9808       13.1682      133.9235      147.0917       3.110903       0.02510
   8     437.6      143.7899       14.3757      132.4163      146.7919       3.002065       0.02327
   7     480.5      143.5841       15.6611      130.8147      146.4758       2.891749       0.02167
   6     533.0      143.3314       17.2311      128.8599      146.0910       2.759666       0.02125
   5     589.8      143.0640       18.9086      126.7679      145.6766       2.612567       0.02183
   4     651.6      142.7893       20.6952      124.5274      145.2227       2.433326       0.02451
   3     718.7      142.5147       22.5926      122.1285      144.7211       2.206430       0.02851
   2     792.3      142.2590       24.5987      119.5548      144.1535       1.894481       0.03578
   1     891.5      104.2678      105.8070        0.0000      105.8070       1.539230       0.03023
   0    1013.0      104.4432      105.5942        0.0000      105.5942       1.150976       0.02696



 Wavenumbers: 22650. - 29000. cm-1, ATM      1
 LEVEL PRESSURE   UPWARD FLUX   DIFDOWN FLUX  DIRDOWN FLUX  DOWNWARD FLUX   NET FLUX    HEATING RATE
          mb          W/m2          W/m2          W/m2        W/m2          W/m2       degree/day
  51    .06700       58.7001        0.0000       59.0156       59.0156       0.315510       0.00000
  50    .07753       58.7000        0.0005       59.0151       59.0155       0.315510      -0.00000
  49    .09103       58.6999        0.0010       59.0144       59.0154       0.315510       0.00000
  48    0.1069       58.6998        0.0017       59.0136       59.0153       0.315510      -0.00000
  47    0.1255       58.6996        0.0025       59.0127       59.0151       0.315510       0.00000
  46    0.1487       58.6994        0.0035       59.0115       59.0149       0.315510      -0.00000
  45    0.1794       58.6992        0.0048       59.0099       59.0147       0.315510       0.00000
  44    0.2165       58.6989        0.0063       59.0080       59.0144       0.315510       0.00000
  43    0.2613       58.6985        0.0082       59.0058       59.0140       0.315510      -0.00000
  42    0.3336       58.6979        0.0113       59.0022       59.0134       0.315510       0.00000
  41    0.4307       58.6971        0.0154       58.9973       59.0127       0.315510       0.00000
  40    0.5894       58.6959        0.0220       58.9894       59.0114       0.315510      -0.00000
  39     1.339       58.6898        0.0535       58.9518       59.0053       0.315510       0.00000
  38     1.782       58.6862        0.0720       58.9297       59.0018       0.315510       0.00000
  37     2.292       58.6821        0.0935       58.9042       58.9976       0.315510      -0.00000
  36     2.964       58.6767        0.1216       58.8706       58.9922       0.315510      -0.00000
  35     3.853       58.6696        0.1587       58.8264       58.9851       0.315510       0.00000
  34     5.035       58.6601        0.2080       58.7676       58.9756       0.315510       0.00000
  33     6.613       58.6474        0.2738       58.6891       58.9629       0.315510      -0.00000
  32     8.786       58.6304        0.3625       58.5834       58.9459       0.315510      -0.00000
  31     11.80       58.6060        0.4891       58.4324       58.9215       0.315510       0.00000
  30     15.07       58.5799        0.6248       58.2706       58.8954       0.315510      -0.00000
  29     18.79       58.5505        0.7777       58.0882       58.8660       0.315510       0.00000
  28     23.16       58.5162        0.9560       57.8757       58.8317       0.315510       0.00000
  27     28.12       58.4771        1.1592       57.6333       58.7926       0.315510       0.00000
  26     33.73       58.4335        1.3859       57.3631       58.7490       0.315510      -0.00000
  25     40.54       58.3810        1.6586       57.0379       58.6965       0.315510       0.00000
  24     48.69       58.3180        1.9857       56.6479       58.6335       0.315510      -0.00000
  23     57.69       58.2493        2.3427       56.2221       58.5648       0.315510      -0.00000
  22     68.43       58.1680        2.7649       55.7186       58.4835       0.315510       0.00000
  21     81.20       58.0720        3.2636       55.1239       58.3875       0.315510       0.00000
  20     96.49       57.9588        3.8515       54.4228       58.2743       0.315510      -0.00000
  19     114.6       57.8260        4.5406       53.6010       58.1416       0.315510       0.00000
  18     136.5       57.6711        5.3448       52.6418       57.9866       0.315510       0.00000
  17     162.9       57.4899        6.2850       51.5203       57.8054       0.315510       0.00000
  16     196.4       57.2602        7.4763       50.0994       57.5757       0.315510       0.00000
  15     218.7       57.1125        8.2418       49.1863       57.4280       0.315510      -0.00000
  14     243.0       56.9548        9.0591       48.2113       57.2703       0.315510       0.00000
  13     269.0       56.7871        9.9277       47.1749       57.1026       0.315510       0.00000
  12     297.5       56.6096       10.8469       46.0783       56.9251       0.315510      -0.00000
  11     328.5       56.4220       11.8180       44.9195       56.7375       0.315510       0.00000
  10     361.9       56.2247       12.8384       43.7018       56.5403       0.315510       0.00000
   9     398.1       56.0178       13.9083       42.4250       56.3333       0.315510       0.00000
   8     437.6       55.8016       15.0255       41.0916       56.1171       0.315510      -0.00000
   7     480.5       55.5765       16.1876       39.7045       55.8920       0.315510       0.00000
   6     533.0       55.3086       17.5698       38.0543       55.6241       0.315510      -0.00000
   5     589.8       55.0305       19.0029       36.3431       55.3460       0.315510       0.00000
   4     651.6       54.7436       20.4796       34.5795       55.0591       0.315510       0.00000
   3     718.7       54.4489       21.9942       32.7702       54.7644       0.315510       0.00000
   2     792.3       54.1481       23.5381       30.9256       54.4636       0.315510      -0.00000
   1     891.5       45.6751       45.9877        0.0000       45.9877       0.312642       0.00024
   0    1013.0       45.6642       45.9768        0.0000       45.9768       0.312642      -0.00000



 Wavenumbers: 29000. - 38000. cm-1, ATM      1
 LEVEL PRESSURE   UPWARD FLUX   DIFDOWN FLUX  DIRDOWN FLUX  DOWNWARD FLUX   NET FLUX    HEATING RATE
          mb          W/m2          W/m2          W/m2        W/m2          W/m2       degree/day
  51    .06700        8.7809        0.0000       20.8114       20.8114      12.030436       0.00000
  50    .07753        8.7807        0.0003       20.8070       20.8074      12.026628       3.05159
  49    .09103        8.7805        0.0007       20.8009       20.8016      12.021091       3.46089
  48    0.1069        8.7803        0.0012       20.7928       20.7939      12.013681       3.94434
  47    0.1255        8.7800        0.0017       20.7820       20.7837      12.003776       4.49040
  46    0.1487        8.7796        0.0024       20.7665       20.7688      11.989213       5.30851
  45    0.1794        8.7792        0.0033       20.7424       20.7457      11.966548       6.22213
  44    0.2165        8.7787        0.0044       20.7103       20.7147      11.936025       6.94350
  43    0.2613        8.7781        0.0056       20.6675       20.6731      11.895029       7.72744
  42    0.3336        8.7772        0.0077       20.5880       20.5957      11.818467       8.92639
  41    0.4307        8.7761        0.0104       20.4722       20.4826      11.706513       9.73418
  40    0.5894        8.7746        0.0147       20.2637       20.2784      11.503826      10.77865
  39     1.339        8.7712        0.0331       19.0984       19.1315      10.360322      12.87377
  38     1.782        8.7717        0.0427       18.4394       18.4821       9.710376      12.37394
  37     2.292        8.7744        0.0530       17.7714       17.8244       9.049999      10.93756
  36     2.964        8.7810        0.0657       17.0421       17.1079       8.326823       9.07804
  35     3.853        8.7939        0.0817       16.2678       16.3495       7.555562       7.31941
  34     5.035        8.8152        0.1018       15.4803       15.5822       6.766945       5.63356
  33     6.613        8.8461        0.1276       14.7157       14.8433       5.997188       4.11512
  32     8.786        8.8870        0.1614       13.9936       14.1550       5.268005       2.83188
  31     11.80        8.9404        0.2085       13.2835       13.4921       4.551721       2.00537
  30     15.07        8.9918        0.2574       12.7394       12.9967       4.004918       1.41174
  29     18.79        9.0450        0.3115       12.2666       12.5781       3.533111       1.06973
  28     23.16        9.1016        0.3731       11.8300       12.2031       3.101563       0.83448
  27     28.12        9.1595        0.4421       11.4279       11.8699       2.710418       0.66492
  26     33.73        9.2131        0.5181       11.0695       11.5875       2.374450       0.50514
  25     40.54        9.2640        0.6089       10.7209       11.3298       2.065785       0.38293
  24     48.69        9.3121        0.7166       10.3742       11.0908       1.778691       0.29710
  23     57.69        9.3518        0.8333       10.0549       10.8882       1.536408       0.22710
  22     68.43        9.3840        0.9701        9.7327       10.7029       1.318838       0.17104
  21     81.20        9.3999        1.1317        9.4134       10.5451       1.145294       0.11467
  20     96.49        9.3973        1.3217        9.0887       10.4104       1.013149       0.07293
  19     114.6        9.3845        1.5412        8.7388       10.2800       0.895488       0.05494
  18     136.5        9.3645        1.7922        8.3549       10.1471       0.782552       0.04343
  17     162.9        9.3375        2.0783        7.9311       10.0094       0.671934       0.03536
  16     196.4        9.2915        2.4327        7.4333        9.8661       0.574525       0.02452
  15     218.7        9.2583        2.6557        7.1295        9.7853       0.526999       0.01804
  14     243.0        9.2218        2.8889        6.8161        9.7049       0.483101       0.01523
  13     269.0        9.1819        3.1313        6.4943        9.6256       0.443672       0.01279
  12     297.5        9.1387        3.3819        6.1657        9.5477       0.408903       0.01031
  11     328.5        9.0937        3.6398        5.8295        9.4693       0.375604       0.00905
  10     361.9        9.0472        3.9024        5.4886        9.3911       0.343922       0.00802
   9     398.1        8.9993        4.1693        5.1440        9.3132       0.313887       0.00700
   8     437.6        8.9508        4.4388        4.7969        9.2357       0.284920       0.00619
   7     480.5        8.9018        4.7089        4.4504        9.1593       0.257411       0.00540
   6     533.0        8.8458        5.0169        4.0563        9.0732       0.227408       0.00483
   5     589.8        8.7906        5.3208        3.6682        8.9890       0.198340       0.00431
   4     651.6        8.7374        5.6168        3.2905        8.9073       0.169882       0.00389
   3     718.7        8.6866        5.9034        2.9252        8.8286       0.141989       0.00351
   2     792.3        8.6389        6.1771        2.5764        8.7536       0.114664       0.00313
   1     891.5        7.1133        7.1998        0.0000        7.1998       0.086435       0.00240
   0    1013.0        7.1212        7.1809        0.0000        7.1809       0.059601       0.00186



 Wavenumbers: 38000. - 50000. cm-1, ATM      1
 LEVEL PRESSURE   UPWARD FLUX   DIFDOWN FLUX  DIRDOWN FLUX  DOWNWARD FLUX   NET FLUX    HEATING RATE
          mb          W/m2          W/m2          W/m2        W/m2          W/m2       degree/day
  51    .06700        0.0061        0.0000        1.2836        1.2836       1.277518       0.00000
  50    .07753        0.0061        0.0001        1.2812        1.2812       1.275183       1.87150
  49    .09103        0.0060        0.0002        1.2777        1.2778       1.271851       2.08247
  48    0.1069        0.0059        0.0002        1.2731        1.2734       1.267473       2.33059
  47    0.1255        0.0058        0.0004        1.2672        1.2675       1.261717       2.60908
  46    0.1487        0.0057        0.0005        1.2586        1.2591       1.253391       3.03499
  45    0.1794        0.0055        0.0007        1.2455        1.2462       1.240623       3.50520
  44    0.2165        0.0054        0.0009        1.2282        1.2291       1.223697       3.85037
  43    0.2613        0.0052        0.0011        1.2054        1.2065       1.201348       4.21261
  42    0.3336        0.0049        0.0015        1.1639        1.1654       1.160524       4.75970
  41    0.4307        0.0045        0.0020        1.1051        1.1070       1.102565       5.03943
  40    0.5894        0.0039        0.0026        1.0039        1.0064       1.002524       5.32007
  39     1.339        0.0022        0.0035        0.5438        0.5473       0.545104       5.14971
  38     1.782        0.0016        0.0032        0.3635        0.3666       0.365006       3.42879
  37     2.292        0.0012        0.0027        0.2356        0.2383       0.237058       2.11916
  36     2.964        0.0009        0.0022        0.1455        0.1477       0.146786       1.13318
  35     3.853        0.0006        0.0017        0.0858        0.0875       0.086906       0.56828
  34     5.035        0.0004        0.0013        0.0488        0.0501       0.049701       0.26578
  33     6.613        0.0003        0.0010        0.0273        0.0282       0.027974       0.11615
  32     8.786        0.0002        0.0007        0.0144        0.0151       0.014928       0.05067
  31     11.80        0.0001        0.0004        0.0065        0.0070       0.006903       0.02247
  30     15.07        0.0000        0.0003        0.0031        0.0034       0.003329       0.00923
  29     18.79        0.0000        0.0002        0.0014        0.0016       0.001583       0.00396
  28     23.16        0.0000        0.0001        0.0006        0.0007       0.000720       0.00167
  27     28.12        0.0000        0.0001        0.0003        0.0003       0.000317       0.00069
  26     33.73        0.0000        0.0000        0.0001        0.0001       0.000140       0.00027
  25     40.54        0.0000        0.0000        0.0000        0.0001       0.000057       0.00010
  24     48.69        0.0000        0.0000        0.0000        0.0000       0.000021       0.00004
  23     57.69        0.0000        0.0000        0.0000        0.0000       0.000008       0.00001
  22     68.43        0.0000        0.0000        0.0000        0.0000       0.000003       0.00000
  21     81.20        0.0000        0.0000        0.0000        0.0000       0.000001       0.00000
  20     96.49        0.0000        0.0000        0.0000        0.0000       0.000000       0.00000
  19     114.6        0.0000        0.0000        0.0000        0.0000       0.000000       0.00000
  18     136.5        0.0000        0.0000        0.0000        0.0000       0.000000       0.00000
  17     162.9        0.0000        0.0000        0.0000        0.0000       0.000000       0.00000
  16     196.4        0.0000        0.0000        0.0000        0.0000       0.000000       0.00000
  15     218.7        0.0000        0.0000        0.0000        0.0000       0.000000       0.00000
  14     243.0        0.0000        0.0000        0.0000        0.0000       0.000000       0.00000
  13     269.0        0.0000        0.0000        0.0000        0.0000       0.000000       0.00000
  12     297.5        0.0000        0.0000        0.0000        0.0000       0.000000       0.00000
  11     328.5        0.0000        0.0000        0.0000        0.0000       0.000000       0.00000
  10     361.9        0.0000        0.0000        0.0000        0.0000       0.000000       0.00000
   9     398.1        0.0000        0.0000        0.0000        0.0000       0.000000       0.00000
   8     437.6        0.0000        0.0000        0.0000        0.0000       0.000000       0.00000
   7     480.5        0.0000        0.0000        0.0000        0.0000       0.000000       0.00000
   6     533.0        0.0000        0.0000        0.0000        0.0000       0.000000       0.00000
   5     589.8        0.0000        0.0000        0.0000        0.0000       0.000000       0.00000
   4     651.6        0.0000        0.0000        0.0000        0.0000       0.000000       0.00000
   3     718.7        0.0000        0.0000        0.0000        0.0000       0.000000       0.00000
   2     792.3        0.0000        0.0000        0.0000        0.0000       0.000000       0.00000
   1     891.5        0.0000        0.0000        0.0000        0.0000       0.000000       0.00000
   0    1013.0        0.0000        0.0000        0.0000        0.0000       0.000000       0.00000



 Wavenumbers:   820. -  2600. cm-1, ATM      1
 LEVEL PRESSURE   UPWARD FLUX   DIFDOWN FLUX  DIRDOWN FLUX  DOWNWARD FLUX   NET FLUX    HEATING RATE
          mb          W/m2          W/m2          W/m2        W/m2          W/m2       degree/day
  51    .06700        1.7083        0.0000        6.0047        6.0047       4.296384       0.00000
  50    .07753        1.7083        0.0000        6.0008        6.0008       4.292531       3.08826
  49    .09103        1.7083        0.0000        5.9999        5.9999       4.291645       0.55363
  48    0.1069        1.7083        0.0000        5.9989        5.9989       4.290656       0.52657
  47    0.1255        1.7083        0.0000        5.9978        5.9978       4.289539       0.50655
  46    0.1487        1.7083        0.0000        5.9964        5.9964       4.288182       0.49462
  45    0.1794        1.7083        0.0000        5.9947        5.9947       4.286462       0.47205
  44    0.2165        1.7083        0.0000        5.9929        5.9929       4.284620       0.41916
  43    0.2613        1.7083        0.0000        5.9909        5.9909       4.282660       0.36939
  42    0.3336        1.7083        0.0000        5.9880        5.9880       4.279782       0.33562
  41    0.4307        1.7083        0.0000        5.9846        5.9846       4.276312       0.30171
  40    0.5894        1.7083        0.0000        5.9791        5.9791       4.270805       0.29283
  39     1.339        1.7083        0.0000        5.9536        5.9536       4.245312       0.28701
  38     1.782        1.7083        0.0000        5.9395        5.9395       4.231170       0.26924
  37     2.292        1.7083        0.0000        5.9237        5.9237       4.215415       0.26095
  36     2.964        1.7083        0.0000        5.9039        5.9039       4.195635       0.24829
  35     3.853        1.7083        0.0000        5.8793        5.8793       4.170972       0.23406
  34     5.035        1.7083        0.0000        5.8487        5.8487       4.140400       0.21840
  33     6.613        1.7083        0.0000        5.8108        5.8108       4.102423       0.20303
  32     8.786        1.7084        0.0000        5.7631        5.7631       4.054782       0.18502
  31     11.80        1.7084        0.0000        5.7039        5.7039       3.995501       0.16597
  30     15.07        1.7084        0.0000        5.6539        5.6539       3.945435       0.12926
  29     18.79        1.7085        0.0000        5.6127        5.6127       3.904268       0.09334
  28     23.16        1.7085        0.0000        5.5794        5.5794       3.870854       0.06461
  27     28.12        1.7086        0.0000        5.5518        5.5518       3.843243       0.04694
  26     33.73        1.7086        0.0000        5.5268        5.5268       3.818140       0.03774
  25     40.54        1.7087        0.0000        5.4993        5.4993       3.790634       0.03412
  24     48.69        1.7088        0.0000        5.4678        5.4678       3.759016       0.03272
  23     57.69        1.7089        0.0000        5.4340        5.4340       3.725142       0.03175
  22     68.43        1.7090        0.0000        5.3947        5.3948       3.685762       0.03096
  21     81.20        1.7091        0.0000        5.3497        5.3497       3.640599       0.02984
  20     96.49        1.7093        0.0000        5.2982        5.2982       3.588923       0.02852
  19     114.6        1.7095        0.0000        5.2389        5.2389       3.529400       0.02779
  18     136.5        1.7098        0.0000        5.1716        5.1717       3.461891       0.02596
  17     162.9        1.7102        0.0000        5.0890        5.0891       3.378898       0.02653
  16     196.4        1.7108        0.0000        4.9668        4.9668       3.256030       0.03093
  15     218.7        1.7114        0.0000        4.8585        4.8585       3.147041       0.04138
  14     243.0        1.7125        0.0000        4.7078        4.7079       2.995412       0.05259
  13     269.0        1.7140        0.0000        4.5343        4.5343       2.820333       0.05679
  12     297.5        1.7164        0.0000        4.3419        4.3420       2.625615       0.05775
  11     328.5        1.7196        0.0000        4.1281        4.1281       2.408580       0.05901
  10     361.9        1.7238        0.0000        3.8786        3.8787       2.154848       0.06420
   9     398.1        1.7294        0.0000        3.6159        3.6160       1.886603       0.06250
   8     437.6        1.7365        0.0000        3.3759        3.3759       1.639388       0.05286
   7     480.5        1.7453        0.0000        3.1957        3.1958       1.450513       0.03709
   6     533.0        1.7586        0.0000        3.0467        3.0467       1.288104       0.02613
   5     589.8        1.7783        0.0001        2.9023        2.9023       1.124026       0.02435
   4     651.6        1.8126        0.0001        2.7183        2.7184       0.905785       0.02985
   3     718.7        1.8725        0.0001        2.5058        2.5059       0.633419       0.03423
   2     792.3        1.9904        0.0001        2.2756        2.2757       0.285261       0.03993
   1     891.5        0.0005        0.0999        0.0000        0.0999       0.099352       0.01582
   0    1013.0        0.0007        0.0827        0.0000        0.0827       0.082025       0.00120

  Modules and versions used in this calculation:

       rrtmg_sw.1col.f90:  $Revision$                    rrtmg_sw_init.f90:  $Revision$        
     rrtmgsw_cldprop.f90:  $Revision$                  rrtmgsw_cldprmc.f90:  NOT USED          
     rrtmg_sw_reftra.f90:  $Revision$                  rrtmg_sw_spcvrt.f90:  NOT USED          
     rrtmg_sw_spcvmc.f90:  NOT USED                    rrtmgsw_setcoef.f90:  NOT USED          
     rrtmg_sw_taumol.f90:  $Revision$                  rrtmg_sw_vrtqdr.f90:  NOT USED          
                rrtatm.f:  NOT USED                             util_xxx.f:  NOT USED          
                 extra.f:  NOT USED                       rrtmg_sw_k_g.f90:  $Revision$        

