

 Wavenumbers:   820. - 50000. cm-1, ATM      1
 LEVEL PRESSURE   UPWARD FLUX   DIFDOWN FLUX  DIRDOWN FLUX  DOWNWARD FLUX   NET FLUX    HEATING RATE
          mb          W/m2          W/m2          W/m2        W/m2          W/m2       degree/day
  51    .06700      435.9309        0.0000      617.8126      617.8126     181.881659       0.00000
  50    .07753      435.9306        0.0013      617.7947      617.7961     181.865517      12.93762
  49    .09103      435.9301        0.0030      617.7778      617.7808     181.850706       9.25759
  48    0.1069      435.9296        0.0050      617.7581      617.7631     181.833442       9.18947
  47    0.1255      435.9291        0.0072      617.7340      617.7412     181.812095       9.67779
  46    0.1487      435.9285        0.0100      617.7009      617.7109     181.782406      10.82193
  45    0.1794      435.9278        0.0139      617.6521      617.6660     181.738170      12.14371
  44    0.2165      435.9271        0.0184      617.5895      617.6079     181.680843      13.04089
  43    0.2613      435.9264        0.0238      617.5089      617.5327     181.606324      14.04667
  42    0.3336      435.9255        0.0326      617.3641      617.3967     181.471226      15.75102
  41    0.4307      435.9248        0.0443      617.1591      617.2034     181.278586      16.74966
  40    0.5894      435.9247        0.0630      616.8005      616.8635     180.938865      18.06594
  39     1.339      435.9421        0.1479      614.9443      615.0922     179.150079      20.13848
  38     1.782      435.9650        0.1957      613.9670      614.1627     178.197695      18.13185
  37     2.292      436.0030        0.2500      613.0059      613.2559     177.252919      15.64796
  36     2.964      436.0702        0.3207      611.9577      612.2784     176.208195      13.11445
  35     3.853      436.1829        0.4133      610.8024      611.2157     175.032807      11.15465
  34     5.035      436.3564        0.5356      609.5327      610.0683     173.711876       9.43618
  33     6.613      436.6008        0.6978      608.1464      608.8443     172.243493       7.84998
  32     8.786      436.9191        0.9155      606.6250      607.5406     170.621459       6.29939
  31     11.80      437.3313        1.2255      604.8486      606.0741     168.742824       5.25959
  30     15.07      437.7236        1.5562      603.2440      604.8002     167.076600       4.30187
  29     18.79      438.1217        1.9283      601.6511      603.5795     165.457730       3.67047
  28     23.16      438.5351        2.3607      599.9927      602.3534     163.818379       3.16998
  27     28.12      438.9471        2.8529      598.2881      601.1410     162.193875       2.76155
  26     33.73      439.3195        3.4016      596.5951      599.9967     160.677162       2.28042
  25     40.54      439.6662        4.0622      594.7727      598.8349     159.168702       1.87141
  24     48.69      439.9841        4.8549      592.7865      597.6414     157.657290       1.56407
  23     57.69      440.2363        5.7214      590.7959      596.5173     156.281052       1.29002
  22     68.43      440.4313        6.7480      588.6191      595.3671     154.935769       1.05757
  21     81.20      440.5174        7.9651      586.2690      594.2341     153.716670       0.80556
  20     96.49      440.4844        9.4062      583.6961      593.1023     152.617883       0.60645
  19     114.6      440.3906       11.1015      580.7708      591.8724     151.481792       0.53047
  18     136.5      440.2350       13.0867      577.4359      590.5226     150.287563       0.45921
  17     162.9      440.0123       15.4165      573.5624      588.9789     148.966620       0.42223
  16     196.4      439.6366       18.3876      568.5907      586.9783     147.341638       0.40903
  15     218.7      439.3620       20.3086      565.0572      585.3658     146.003797       0.50793
  14     243.0      439.0559       22.3690      560.7495      583.1186     144.062638       0.67326
  13     269.0      438.7198       24.5704      555.3947      579.9650     141.245273       0.91394
  12     297.5      438.3590       26.9132      548.9964      575.9096     137.550525       1.09582
  11     328.5      437.9837       29.4040      542.0895      571.4936     133.509887       1.09864
  10     361.9      437.6014       32.0391      534.6242      566.6633     129.061870       1.12539
   9     398.1      437.2229       34.8229      526.4204      561.2433     124.020399       1.17455
   8     437.6      436.8695       37.7542      517.3907      555.1448     118.275324       1.22833
   7     480.5      436.5638       40.8309      507.7216      548.5525     111.988714       1.23467
   6     533.0      436.3241       44.5300      495.9006      540.4306     104.106504       1.26800
   5     589.8      436.3148       48.4116      483.0788      531.4905      95.175612       1.32564
   4     651.6      436.8203       52.4630      468.6907      521.1536      84.333328       1.48271
   3     718.7      438.2366       56.6758      453.2257      509.9016      71.664936       1.59207
   2     792.3      441.6059       61.0282      436.4928      497.5210      55.915143       1.80632
   1     891.5      308.0674      344.1475        5.0542      349.2017      41.134346       1.25777
   0    1013.0      312.4079      336.9917        4.7426      341.7344      29.326434       0.81988



 Wavenumbers:  2600. -  3250. cm-1, ATM      1
 LEVEL PRESSURE   UPWARD FLUX   DIFDOWN FLUX  DIRDOWN FLUX  DOWNWARD FLUX   NET FLUX    HEATING RATE
          mb          W/m2          W/m2          W/m2        W/m2          W/m2       degree/day
  51    .06700        1.7919        0.0000        5.4450        5.4450       3.653181       0.00000
  50    .07753        1.7919        0.0000        5.4450        5.4450       3.653173       0.00640
  49    .09103        1.7919        0.0000        5.4450        5.4450       3.653163       0.00627
  48    0.1069        1.7919        0.0000        5.4450        5.4450       3.653152       0.00613
  47    0.1255        1.7919        0.0000        5.4450        5.4450       3.653138       0.00599
  46    0.1487        1.7919        0.0000        5.4450        5.4450       3.653122       0.00608
  45    0.1794        1.7919        0.0000        5.4450        5.4450       3.653099       0.00625
  44    0.2165        1.7919        0.0000        5.4449        5.4449       3.653072       0.00612
  43    0.2613        1.7919        0.0000        5.4449        5.4449       3.653040       0.00600
  42    0.3336        1.7919        0.0000        5.4448        5.4448       3.652987       0.00617
  41    0.4307        1.7919        0.0000        5.4448        5.4448       3.652916       0.00620
  40    0.5894        1.7919        0.0000        5.4446        5.4446       3.652796       0.00637
  39     1.339        1.7919        0.0000        5.4439        5.4439       3.652089       0.00797
  38     1.782        1.7919        0.0000        5.4434        5.4434       3.651546       0.01034
  37     2.292        1.7919        0.0000        5.4427        5.4427       3.650830       0.01186
  36     2.964        1.7919        0.0000        5.4416        5.4416       3.649791       0.01304
  35     3.853        1.7919        0.0000        5.4402        5.4402       3.648314       0.01402
  34     5.035        1.7919        0.0000        5.4381        5.4381       3.646258       0.01469
  33     6.613        1.7919        0.0000        5.4353        5.4353       3.643476       0.01487
  32     8.786        1.7919        0.0000        5.4317        5.4317       3.639844       0.01411
  31     11.80        1.7919        0.0000        5.4269        5.4269       3.635062       0.01339
  30     15.07        1.7919        0.0000        5.4224        5.4224       3.630533       0.01169
  29     18.79        1.7919        0.0000        5.4180        5.4180       3.626118       0.01001
  28     23.16        1.7919        0.0000        5.4135        5.4135       3.621627       0.00868
  27     28.12        1.7919        0.0000        5.4088        5.4088       3.616972       0.00791
  26     33.73        1.7919        0.0000        5.4036        5.4036       3.611721       0.00789
  25     40.54        1.7919        0.0000        5.3966        5.3967       3.604764       0.00863
  24     48.69        1.7919        0.0000        5.3872        5.3872       3.595263       0.00983
  23     57.69        1.7920        0.0000        5.3754        5.3754       3.583445       0.01108
  22     68.43        1.7920        0.0000        5.3599        5.3599       3.567909       0.01221
  21     81.20        1.7921        0.0000        5.3401        5.3401       3.548006       0.01315
  20     96.49        1.7922        0.0000        5.3155        5.3155       3.523341       0.01361
  19     114.6        1.7923        0.0001        5.2853        5.2854       3.493009       0.01416
  18     136.5        1.7926        0.0001        5.2504        5.2505       3.457911       0.01350
  17     162.9        1.7929        0.0001        5.2111        5.2112       3.418292       0.01266
  16     196.4        1.7934        0.0001        5.1640        5.1641       3.370738       0.01197
  15     218.7        1.7939        0.0001        5.1331        5.1332       3.339307       0.01193
  14     243.0        1.7948        0.0001        5.0962        5.0963       3.301563       0.01309
  13     269.0        1.7961        0.0001        5.0511        5.0512       3.255121       0.01507
  12     297.5        1.7981        0.0001        4.9956        4.9957       3.197632       0.01705
  11     328.5        1.8009        0.0001        4.9304        4.9305       3.129594       0.01850
  10     361.9        1.8048        0.0002        4.8511        4.8512       3.046461       0.02103
   9     398.1        1.8101        0.0002        4.7507        4.7508       2.940709       0.02464
   8     437.6        1.8176        0.0002        4.6220        4.6222       2.804643       0.02909
   7     480.5        1.8279        0.0002        4.4625        4.4627       2.634791       0.03336
   6     533.0        1.8447        0.0002        4.2460        4.2462       2.401553       0.03752
   5     589.8        1.8704        0.0002        3.9954        3.9956       2.125226       0.04102
   4     651.6        1.9129        0.0002        3.7089        3.7091       1.796146       0.04500
   3     718.7        1.9835        0.0002        3.4018        3.4020       1.418535       0.04746
   2     792.3        2.1125        0.0002        3.0564        3.0567       0.944166       0.05440
   1     891.5        0.7671        1.2554        0.0315        1.2869       0.519854       0.03611
   0    1013.0        0.8688        1.0712        0.0255        1.0967       0.227851       0.02028



 Wavenumbers:  3250. -  4000. cm-1, ATM      1
 LEVEL PRESSURE   UPWARD FLUX   DIFDOWN FLUX  DIRDOWN FLUX  DOWNWARD FLUX   NET FLUX    HEATING RATE
          mb          W/m2          W/m2          W/m2        W/m2          W/m2       degree/day
  51    .06700        0.0475        0.0000        9.1795        9.1795       9.131986       0.00000
  50    .07753        0.0475        0.0000        9.1747        9.1747       9.127143       3.88148
  49    .09103        0.0475        0.0000        9.1713        9.1713       9.123755       2.11747
  48    0.1069        0.0475        0.0000        9.1688        9.1688       9.121230       1.34402
  47    0.1255        0.0475        0.0000        9.1665        9.1665       9.118971       1.02422
  46    0.1487        0.0475        0.0000        9.1641        9.1641       9.116530       0.88991
  45    0.1794        0.0475        0.0000        9.1612        9.1612       9.113652       0.79008
  44    0.2165        0.0475        0.0000        9.1583        9.1583       9.110732       0.66430
  43    0.2613        0.0475        0.0000        9.1553        9.1553       9.107759       0.56041
  42    0.3336        0.0475        0.0000        9.1511        9.1511       9.103580       0.48723
  41    0.4307        0.0475        0.0000        9.1464        9.1464       9.098811       0.41459
  40    0.5894        0.0475        0.0000        9.1393        9.1394       9.091806       0.37255
  39     1.339        0.0475        0.0000        9.1127        9.1127       9.065192       0.29962
  38     1.782        0.0475        0.0000        9.1011        9.1011       9.053604       0.22062
  37     2.292        0.0475        0.0000        9.0901        9.0901       9.042537       0.18329
  36     2.964        0.0475        0.0000        9.0776        9.0776       9.030107       0.15603
  35     3.853        0.0475        0.0000        9.0629        9.0629       9.015317       0.14036
  34     5.035        0.0475        0.0000        9.0441        9.0441       8.996578       0.13386
  33     6.613        0.0475        0.0000        9.0191        9.0191       8.971577       0.13366
  32     8.786        0.0475        0.0000        8.9843        8.9843       8.936793       0.13509
  31     11.80        0.0475        0.0000        8.9327        8.9327       8.885177       0.14451
  30     15.07        0.0475        0.0000        8.8758        8.8759       8.828332       0.14676
  29     18.79        0.0475        0.0000        8.8110        8.8110       8.763505       0.14698
  28     23.16        0.0475        0.0000        8.7365        8.7366       8.689060       0.14395
  27     28.12        0.0475        0.0000        8.6554        8.6555       8.607947       0.13789
  26     33.73        0.0475        0.0000        8.5719        8.5719       8.524447       0.12554
  25     40.54        0.0475        0.0001        8.4812        8.4812       8.433723       0.11255
  24     48.69        0.0475        0.0001        8.3838        8.3839       8.336422       0.10069
  23     57.69        0.0475        0.0001        8.2861        8.2862       8.238687       0.09161
  22     68.43        0.0475        0.0001        8.1751        8.1751       8.127690       0.08726
  21     81.20        0.0474        0.0001        8.0457        8.0458       7.998332       0.08548
  20     96.49        0.0474        0.0001        7.8949        7.8951       7.847628       0.08318
  19     114.6        0.0474        0.0001        7.7162        7.7163       7.668918       0.08344
  18     136.5        0.0474        0.0002        7.5193        7.5195       7.472074       0.07569
  17     162.9        0.0473        0.0002        7.2913        7.2915       7.244181       0.07284
  16     196.4        0.0473        0.0002        6.9660        6.9662       6.918905       0.08188
  15     218.7        0.0473        0.0002        6.6648        6.6650       6.617708       0.11435
  14     243.0        0.0473        0.0002        6.2619        6.2622       6.214894       0.13971
  13     269.0        0.0473        0.0003        5.7576        5.7579       5.710546       0.16361
  12     297.5        0.0474        0.0003        5.1719        5.1722       5.124752       0.17374
  11     328.5        0.0476        0.0002        4.5757        4.5760       4.528413       0.16214
  10     361.9        0.0478        0.0002        3.9995        3.9998       3.951940       0.14585
   9     398.1        0.0483        0.0002        3.4655        3.4657       3.417396       0.12454
   8     437.6        0.0491        0.0002        2.9740        2.9743       2.925137       0.10525
   7     480.5        0.0504        0.0002        2.5307        2.5309       2.480451       0.08733
   6     533.0        0.0529        0.0002        2.0614        2.0616       2.008621       0.07590
   5     589.8        0.0576        0.0002        1.6150        1.6151       1.557561       0.06695
   4     651.6        0.0672        0.0001        1.1565        1.1566       1.089343       0.06403
   3     718.7        0.0886        0.0001        0.7390        0.7391       0.650524       0.05515
   2     792.3        0.1455        0.0001        0.3985        0.3985       0.253043       0.04559
   1     891.5        0.0003        0.0315        0.0014        0.0329       0.032609       0.01876
   0    1013.0        0.0027        0.0033        0.0001        0.0034       0.000705       0.00222



 Wavenumbers:  4000. -  4650. cm-1, ATM      1
 LEVEL PRESSURE   UPWARD FLUX   DIFDOWN FLUX  DIRDOWN FLUX  DOWNWARD FLUX   NET FLUX    HEATING RATE
          mb          W/m2          W/m2          W/m2        W/m2          W/m2       degree/day
  51    .06700        6.1011        0.0000       10.7795       10.7795       4.678437       0.00000
  50    .07753        6.1011        0.0000       10.7795       10.7795       4.678436       0.00080
  49    .09103        6.1011        0.0000       10.7795       10.7795       4.678434       0.00078
  48    0.1069        6.1011        0.0000       10.7795       10.7795       4.678433       0.00077
  47    0.1255        6.1011        0.0000       10.7795       10.7795       4.678431       0.00075
  46    0.1487        6.1011        0.0000       10.7795       10.7795       4.678429       0.00076
  45    0.1794        6.1011        0.0000       10.7795       10.7795       4.678426       0.00078
  44    0.2165        6.1011        0.0000       10.7795       10.7795       4.678423       0.00076
  43    0.2613        6.1011        0.0000       10.7795       10.7795       4.678419       0.00075
  42    0.3336        6.1011        0.0000       10.7795       10.7795       4.678413       0.00077
  41    0.4307        6.1011        0.0000       10.7795       10.7795       4.678404       0.00077
  40    0.5894        6.1011        0.0000       10.7795       10.7795       4.678389       0.00080
  39     1.339        6.1011        0.0000       10.7794       10.7794       4.678299       0.00101
  38     1.782        6.1011        0.0000       10.7793       10.7793       4.678229       0.00133
  37     2.292        6.1011        0.0000       10.7792       10.7792       4.678135       0.00156
  36     2.964        6.1011        0.0000       10.7791       10.7791       4.677994       0.00176
  35     3.853        6.1011        0.0000       10.7789       10.7789       4.677786       0.00198
  34     5.035        6.1011        0.0000       10.7786       10.7786       4.677479       0.00220
  33     6.613        6.1011        0.0000       10.7781       10.7781       4.677026       0.00242
  32     8.786        6.1011        0.0000       10.7774       10.7775       4.676357       0.00260
  31     11.80        6.1011        0.0001       10.7763       10.7764       4.675307       0.00294
  30     15.07        6.1011        0.0001       10.7751       10.7752       4.674074       0.00318
  29     18.79        6.1011        0.0001       10.7736       10.7737       4.672582       0.00338
  28     23.16        6.1011        0.0001       10.7717       10.7718       4.670728       0.00358
  27     28.12        6.1011        0.0001       10.7695       10.7696       4.668483       0.00382
  26     33.73        6.1011        0.0002       10.7667       10.7668       4.665712       0.00417
  25     40.54        6.1012        0.0002       10.7629       10.7631       4.661951       0.00467
  24     48.69        6.1012        0.0002       10.7579       10.7582       4.656935       0.00519
  23     57.69        6.1013        0.0003       10.7520       10.7523       4.650981       0.00558
  22     68.43        6.1014        0.0003       10.7446       10.7449       4.643509       0.00587
  21     81.20        6.1016        0.0004       10.7355       10.7359       4.634295       0.00609
  20     96.49        6.1019        0.0005       10.7245       10.7249       4.623064       0.00620
  19     114.6        6.1023        0.0006       10.7107       10.7113       4.608991       0.00657
  18     136.5        6.1029        0.0007       10.6942       10.6949       4.591999       0.00653
  17     162.9        6.1037        0.0008       10.6740       10.6748       4.571107       0.00668
  16     196.4        6.1051        0.0009       10.6464       10.6473       4.542177       0.00728
  15     218.7        6.1064        0.0011       10.6255       10.6265       4.520094       0.00838
  14     243.0        6.1083        0.0012       10.5980       10.5992       4.490918       0.01012
  13     269.0        6.1111        0.0013       10.5611       10.5624       4.451283       0.01286
  12     297.5        6.1152        0.0014       10.5119       10.5134       4.398166       0.01575
  11     328.5        6.1208        0.0016       10.4499       10.4514       4.330603       0.01837
  10     361.9        6.1282        0.0017       10.3702       10.3719       4.243660       0.02200
   9     398.1        6.1375        0.0019       10.2678       10.2697       4.132124       0.02599
   8     437.6        6.1494        0.0020       10.1390       10.1410       3.991636       0.03004
   7     480.5        6.1646        0.0022        9.9877        9.9899       3.825334       0.03266
   6     533.0        6.1880        0.0024        9.7937        9.7961       3.608153       0.03494
   5     589.8        6.2218        0.0026        9.5752        9.5778       3.356033       0.03742
   4     651.6        6.2763        0.0029        9.2958        9.2987       3.022349       0.04563
   3     718.7        6.3681        0.0031        8.9267        8.9298       2.561669       0.05789
   2     792.3        6.5412        0.0032        8.4542        8.4575       1.916307       0.07402
   1     891.5        3.1198        4.3385        0.0952        4.4337       1.313873       0.05126
   0    1013.0        3.2851        4.0592        0.0864        4.1457       0.860563       0.03148



 Wavenumbers:  4650. -  5150. cm-1, ATM      1
 LEVEL PRESSURE   UPWARD FLUX   DIFDOWN FLUX  DIRDOWN FLUX  DOWNWARD FLUX   NET FLUX    HEATING RATE
          mb          W/m2          W/m2          W/m2        W/m2          W/m2       degree/day
  51    .06700        4.3739        0.0000       10.2033       10.2033       5.829439       0.00000
  50    .07753        4.3739        0.0000       10.2031       10.2031       5.829203       0.18901
  49    .09103        4.3739        0.0000       10.2028       10.2028       5.828908       0.18428
  48    0.1069        4.3739        0.0000       10.2025       10.2025       5.828571       0.17931
  47    0.1255        4.3739        0.0000       10.2021       10.2021       5.828187       0.17426
  46    0.1487        4.3739        0.0000       10.2016       10.2016       5.827706       0.17536
  45    0.1794        4.3739        0.0000       10.2010       10.2010       5.827055       0.17850
  44    0.2165        4.3739        0.0000       10.2002       10.2002       5.826296       0.17277
  43    0.2613        4.3739        0.0000       10.1993       10.1993       5.825410       0.16690
  42    0.3336        4.3739        0.0000       10.1979       10.1979       5.823978       0.16702
  41    0.4307        4.3739        0.0000       10.1960       10.1960       5.822137       0.16002
  40    0.5894        4.3739        0.0000       10.1932       10.1932       5.819264       0.15283
  39     1.339        4.3739        0.0000       10.1816       10.1816       5.807672       0.13051
  38     1.782        4.3739        0.0000       10.1760       10.1760       5.802142       0.10527
  37     2.292        4.3739        0.0000       10.1706       10.1706       5.796685       0.09038
  36     2.964        4.3739        0.0000       10.1646       10.1647       5.790761       0.07437
  35     3.853        4.3739        0.0000       10.1584       10.1584       5.784545       0.05899
  34     5.035        4.3739        0.0000       10.1521       10.1521       5.778207       0.04528
  33     6.613        4.3739        0.0000       10.1456       10.1456       5.771745       0.03455
  32     8.786        4.3739        0.0001       10.1386       10.1386       5.764725       0.02726
  31     11.80        4.3739        0.0001       10.1295       10.1296       5.755669       0.02536
  30     15.07        4.3739        0.0001       10.1196       10.1197       5.745768       0.02556
  29     18.79        4.3740        0.0001       10.1076       10.1077       5.733729       0.02730
  28     23.16        4.3740        0.0002       10.0923       10.0924       5.718380       0.02968
  27     28.12        4.3741        0.0002       10.0731       10.0733       5.699224       0.03256
  26     33.73        4.3742        0.0002       10.0500       10.0503       5.676048       0.03485
  25     40.54        4.3744        0.0003       10.0201       10.0204       5.646027       0.03724
  24     48.69        4.3746        0.0003        9.9820        9.9823       5.607688       0.03968
  23     57.69        4.3749        0.0004        9.9384        9.9388       5.563933       0.04101
  22     68.43        4.3753        0.0005        9.8858        9.8862       5.510902       0.04169
  21     81.20        4.3759        0.0006        9.8234        9.8240       5.448095       0.04150
  20     96.49        4.3767        0.0007        9.7518        9.7524       5.375703       0.03996
  19     114.6        4.3778        0.0008        9.6719        9.6727       5.294858       0.03775
  18     136.5        4.3794        0.0009        9.5858        9.5867       5.207324       0.03366
  17     162.9        4.3816        0.0011        9.4940        9.4951       5.113570       0.02997
  16     196.4        4.3849        0.0013        9.3883        9.3896       5.004686       0.02741
  15     218.7        4.3875        0.0014        9.3229        9.3244       4.936839       0.02576
  14     243.0        4.3909        0.0016        9.2520        9.2536       4.862641       0.02573
  13     269.0        4.3955        0.0018        9.1717        9.1734       4.777905       0.02749
  12     297.5        4.4019        0.0019        9.0763        9.0782       4.676290       0.03014
  11     328.5        4.4103        0.0021        8.9650        8.9671       4.556809       0.03249
  10     361.9        4.4211        0.0023        8.8349        8.8372       4.416168       0.03558
   9     398.1        4.4351        0.0025        8.6820        8.6845       4.249456       0.03884
   8     437.6        4.4533        0.0027        8.5028        8.5055       4.052215       0.04217
   7     480.5        4.4770        0.0029        8.2948        8.2977       3.820707       0.04547
   6     533.0        4.5133        0.0032        8.0209        8.0240       3.510784       0.04986
   5     589.8        4.5637        0.0034        7.7063        7.7097       3.146015       0.05414
   4     651.6        4.6385        0.0036        7.3412        7.3449       2.706350       0.06013
   3     718.7        4.7519        0.0038        6.9387        6.9425       2.190616       0.06481
   2     792.3        4.9336        0.0040        6.5066        6.5106       1.577060       0.07037
   1     891.5        2.2420        3.2067        0.0725        3.2791       1.037098       0.04595
   0    1013.0        2.3954        2.9584        0.0647        3.0231       0.627676       0.02843



 Wavenumbers:  5150. -  6150. cm-1, ATM      1
 LEVEL PRESSURE   UPWARD FLUX   DIFDOWN FLUX  DIRDOWN FLUX  DOWNWARD FLUX   NET FLUX    HEATING RATE
          mb          W/m2          W/m2          W/m2        W/m2          W/m2       degree/day
  51    .06700       10.5969        0.0000       25.5798       25.5798      14.982952       0.00000
  50    .07753       10.5969        0.0000       25.5798       25.5798      14.982913       0.03162
  49    .09103       10.5969        0.0000       25.5797       25.5797      14.982861       0.03210
  48    0.1069       10.5969        0.0000       25.5797       25.5797      14.982800       0.03261
  47    0.1255       10.5969        0.0000       25.5796       25.5796      14.982727       0.03311
  46    0.1487       10.5969        0.0000       25.5795       25.5795      14.982631       0.03488
  45    0.1794       10.5969        0.0000       25.5794       25.5794      14.982496       0.03713
  44    0.2165       10.5969        0.0000       25.5792       25.5792      14.982330       0.03769
  43    0.2613       10.5969        0.0000       25.5790       25.5790      14.982127       0.03826
  42    0.3336       10.5969        0.0000       25.5786       25.5786      14.981781       0.04043
  41    0.4307       10.5969        0.0000       25.5782       25.5782      14.981310       0.04097
  40    0.5894       10.5969        0.0000       25.5774       25.5774      14.980520       0.04198
  39     1.339       10.5969        0.0000       25.5735       25.5736      14.976716       0.04282
  38     1.782       10.5969        0.0001       25.5713       25.5714      14.974501       0.04217
  37     2.292       10.5969        0.0001       25.5688       25.5688      14.971994       0.04153
  36     2.964       10.5969        0.0001       25.5656       25.5657      14.968808       0.04000
  35     3.853       10.5969        0.0001       25.5615       25.5616      14.964758       0.03844
  34     5.035       10.5969        0.0002       25.5562       25.5564      14.959541       0.03727
  33     6.613       10.5969        0.0002       25.5494       25.5496      14.952771       0.03619
  32     8.786       10.5969        0.0003       25.5406       25.5409      14.943996       0.03408
  31     11.80       10.5969        0.0004       25.5287       25.5290      14.932123       0.03324
  30     15.07       10.5970        0.0005       25.5167       25.5172      14.920211       0.03075
  29     18.79       10.5970        0.0006       25.5042       25.5048      14.907751       0.02825
  28     23.16       10.5971        0.0007       25.4907       25.4914      14.894321       0.02597
  27     28.12       10.5972        0.0009       25.4764       25.4773      14.880148       0.02409
  26     33.73       10.5973        0.0011       25.4620       25.4631      14.865768       0.02162
  25     40.54       10.5975        0.0013       25.4463       25.4475      14.850017       0.01954
  24     48.69       10.5978        0.0015       25.4294       25.4309      14.833111       0.01749
  23     57.69       10.5981        0.0018       25.4126       25.4144      14.816288       0.01577
  22     68.43       10.5986        0.0022       25.3944       25.3966      14.797982       0.01439
  21     81.20       10.5992        0.0026       25.3744       25.3770      14.777794       0.01334
  20     96.49       10.5999        0.0030       25.3519       25.3550      14.755067       0.01254
  19     114.6       10.6008        0.0036       25.3262       25.3298      14.728967       0.01219
  18     136.5       10.6019        0.0043       25.2962       25.3005      14.698553       0.01169
  17     162.9       10.6033        0.0051       25.2521       25.2572      14.653875       0.01428
  16     196.4       10.6052        0.0061       25.1593       25.1654      14.560192       0.02358
  15     218.7       10.6066        0.0068       25.0159       25.0227      14.416111       0.05470
  14     243.0       10.6083        0.0075       24.7089       24.7164      14.108081       0.10683
  13     269.0       10.6105        0.0082       24.1619       24.1700      13.559518       0.17795
  12     297.5       10.6135        0.0089       23.4544       23.4632      12.849769       0.21050
  11     328.5       10.6173        0.0096       22.7355       22.7450      12.127697       0.19633
  10     361.9       10.6224        0.0102       21.9224       21.9327      11.310291       0.20681
   9     398.1       10.6292        0.0109       20.9939       21.0048      10.375683       0.21774
   8     437.6       10.6385        0.0116       19.9833       19.9949       9.356389       0.21793
   7     480.5       10.6514        0.0122       18.9483       18.9605       8.309092       0.20569
   6     533.0       10.6732        0.0129       17.7796       17.7925       7.119324       0.19140
   5     589.8       10.7084        0.0137       16.6726       16.6863       5.977882       0.16943
   4     651.6       10.7725        0.0144       15.6343       15.6487       4.876270       0.15065
   3     718.7       10.8897        0.0153       14.7738       14.7891       3.899359       0.12277
   2     792.3       11.1235        0.0162       14.0291       14.0453       2.921797       0.11212
   1     891.5        5.6151        7.5448        0.1597        7.7045       2.089404       0.07083
   0    1013.0        5.8021        7.1745        0.1470        7.3214       1.519369       0.03958



 Wavenumbers:  6150. -  7700. cm-1, ATM      1
 LEVEL PRESSURE   UPWARD FLUX   DIFDOWN FLUX  DIRDOWN FLUX  DOWNWARD FLUX   NET FLUX    HEATING RATE
          mb          W/m2          W/m2          W/m2        W/m2          W/m2       degree/day
  51    .06700       16.6411        0.0000       47.3109       47.3109      30.669744       0.00000
  50    .07753       16.6411        0.0000       47.3108       47.3108      30.669687       0.04553
  49    .09103       16.6411        0.0000       47.3107       47.3107      30.669614       0.04583
  48    0.1069       16.6411        0.0000       47.3106       47.3106      30.669527       0.04614
  47    0.1255       16.6411        0.0000       47.3105       47.3105      30.669425       0.04645
  46    0.1487       16.6411        0.0000       47.3104       47.3104      30.669292       0.04852
  45    0.1794       16.6411        0.0000       47.3102       47.3102      30.669105       0.05127
  44    0.2165       16.6411        0.0000       47.3100       47.3100      30.668878       0.05167
  43    0.2613       16.6411        0.0000       47.3097       47.3097      30.668601       0.05210
  42    0.3336       16.6411        0.0000       47.3092       47.3092      30.668132       0.05471
  41    0.4307       16.6411        0.0000       47.3085       47.3086      30.667497       0.05521
  40    0.5894       16.6411        0.0001       47.3074       47.3075      30.666438       0.05633
  39     1.339       16.6410        0.0002       47.3022       47.3024      30.661346       0.05733
  38     1.782       16.6410        0.0002       47.2991       47.2994      30.658376       0.05655
  37     2.292       16.6409        0.0003       47.2956       47.2959      30.655000       0.05591
  36     2.964       16.6409        0.0004       47.2912       47.2916      30.650681       0.05421
  35     3.853       16.6408        0.0005       47.2855       47.2860      30.645147       0.05252
  34     5.035       16.6407        0.0006       47.2780       47.2787      30.637966       0.05129
  33     6.613       16.6406        0.0009       47.2683       47.2692      30.628578       0.05019
  32     8.786       16.6404        0.0011       47.2556       47.2567      30.616279       0.04777
  31     11.80       16.6402        0.0015       47.2380       47.2396      30.599375       0.04733
  30     15.07       16.6399        0.0020       47.2201       47.2220      30.582087       0.04463
  29     18.79       16.6396        0.0024       47.2008       47.2032      30.563607       0.04190
  28     23.16       16.6393        0.0030       47.1795       47.1825      30.543216       0.03943
  27     28.12       16.6389        0.0036       47.1565       47.1601      30.521221       0.03739
  26     33.73       16.6385        0.0044       47.1324       47.1368      30.498298       0.03447
  25     40.54       16.6380        0.0052       47.1054       47.1106      30.472660       0.03181
  24     48.69       16.6373        0.0063       47.0754       47.0817      30.444404       0.02924
  23     57.69       16.6366        0.0075       47.0449       47.0524      30.415779       0.02683
  22     68.43       16.6358        0.0088       47.0110       47.0198      30.384038       0.02495
  21     81.20       16.6348        0.0105       46.9729       46.9834      30.348539       0.02346
  20     96.49       16.6336        0.0125       46.9294       46.9418      30.308191       0.02227
  19     114.6       16.6323        0.0148       46.8790       46.8938      30.261546       0.02178
  18     136.5       16.6306        0.0176       46.8200       46.8375      30.206908       0.02101
  17     162.9       16.6287        0.0209       46.7361       46.7570      30.128258       0.02514
  16     196.4       16.6264        0.0251       46.5703       46.5954      29.968991       0.04009
  15     218.7       16.6250        0.0279       46.3473       46.3752      29.750144       0.08309
  14     243.0       16.6239        0.0307       45.9299       45.9606      29.336736       0.14338
  13     269.0       16.6233        0.0336       45.1708       45.2044      28.581071       0.24513
  12     297.5       16.6241        0.0365       44.0115       44.0479      27.423820       0.34323
  11     328.5       16.6267        0.0394       42.7242       42.7636      26.136942       0.34990
  10     361.9       16.6318        0.0423       41.3539       41.3963      24.764422       0.34726
   9     398.1       16.6412        0.0452       39.7953       39.8405      23.199330       0.36463
   8     437.6       16.6572        0.0480       37.9948       38.0427      21.385551       0.38780
   7     480.5       16.6830        0.0506       36.0647       36.1153      19.432290       0.38361
   6     533.0       16.7318        0.0534       33.7773       33.8307      17.098855       0.37538
   5     589.8       16.8173        0.0560       31.4082       31.4642      14.646911       0.36395
   4     651.6       16.9823        0.0581       28.8834       28.9415      11.959188       0.36755
   3     718.7       17.2974        0.0600       26.4104       26.4704       9.172957       0.35015
   2     792.3       17.9633        0.0616       24.0056       24.0672       6.103920       0.35198
   1     891.5        8.1725       11.6207        0.2592       11.8799       3.707364       0.20394
   0    1013.0        8.6497       10.6883        0.2272       10.9155       2.265843       0.10009



 Wavenumbers:  7700. -  8050. cm-1, ATM      1
 LEVEL PRESSURE   UPWARD FLUX   DIFDOWN FLUX  DIRDOWN FLUX  DOWNWARD FLUX   NET FLUX    HEATING RATE
          mb          W/m2          W/m2          W/m2        W/m2          W/m2       degree/day
  51    .06700        7.8962        0.0000       11.1810       11.1810       3.284738       0.00000
  50    .07753        7.8962        0.0000       11.1809       11.1809       3.284714       0.01863
  49    .09103        7.8962        0.0000       11.1809       11.1809       3.284685       0.01826
  48    0.1069        7.8962        0.0000       11.1809       11.1809       3.284652       0.01787
  47    0.1255        7.8963        0.0000       11.1809       11.1809       3.284613       0.01749
  46    0.1487        7.8963        0.0000       11.1808       11.1808       3.284564       0.01775
  45    0.1794        7.8963        0.0000       11.1808       11.1808       3.284498       0.01826
  44    0.2165        7.8963        0.0000       11.1807       11.1807       3.284419       0.01791
  43    0.2613        7.8963        0.0000       11.1806       11.1806       3.284326       0.01758
  42    0.3336        7.8964        0.0000       11.1805       11.1805       3.284171       0.01799
  41    0.4307        7.8964        0.0000       11.1803       11.1804       3.283967       0.01779
  40    0.5894        7.8965        0.0000       11.1801       11.1801       3.283633       0.01777
  39     1.339        7.8968        0.0001       11.1788       11.1789       3.282052       0.01780
  38     1.782        7.8970        0.0001       11.1781       11.1782       3.281123       0.01768
  37     2.292        7.8973        0.0001       11.1772       11.1773       3.280048       0.01781
  36     2.964        7.8976        0.0002       11.1761       11.1763       3.278636       0.01772
  35     3.853        7.8980        0.0002       11.1746       11.1748       3.276771       0.01770
  34     5.035        7.8986        0.0003       11.1726       11.1729       3.274294       0.01770
  33     6.613        7.8994        0.0004       11.1700       11.1703       3.270985       0.01769
  32     8.786        7.9004        0.0005       11.1664       11.1669       3.266526       0.01732
  31     11.80        7.9019        0.0007       11.1613       11.1620       3.260151       0.01785
  30     15.07        7.9034        0.0009       11.1558       11.1567       3.253311       0.01766
  29     18.79        7.9052        0.0011       11.1497       11.1508       3.245589       0.01751
  28     23.16        7.9073        0.0014       11.1425       11.1439       3.236578       0.01742
  27     28.12        7.9097        0.0017       11.1343       11.1360       3.226287       0.01749
  26     33.73        7.9124        0.0020       11.1252       11.1272       3.214788       0.01729
  25     40.54        7.9157        0.0024       11.1142       11.1166       3.200921       0.01720
  24     48.69        7.9197        0.0029       11.1010       11.1039       3.184242       0.01726
  23     57.69        7.9241        0.0034       11.0866       11.0900       3.165972       0.01713
  22     68.43        7.9293        0.0041       11.0695       11.0736       3.144284       0.01705
  21     81.20        7.9357        0.0048       11.0494       11.0542       3.118547       0.01701
  20     96.49        7.9433        0.0057       11.0255       11.0313       3.088023       0.01685
  19     114.6        7.9524        0.0068       10.9975       11.0044       3.051981       0.01683
  18     136.5        7.9633        0.0081       10.9648       10.9728       3.009535       0.01632
  17     162.9        7.9765        0.0096       10.9263       10.9359       2.959352       0.01604
  16     196.4        7.9940        0.0115       10.8773       10.8888       2.894818       0.01624
  15     218.7        8.0057        0.0128       10.8455       10.8584       2.852715       0.01599
  14     243.0        8.0185        0.0142       10.8114       10.8257       2.807130       0.01581
  13     269.0        8.0328        0.0157       10.7749       10.7906       2.757851       0.01599
  12     297.5        8.0485        0.0174       10.7357       10.7531       2.704594       0.01580
  11     328.5        8.0659        0.0191       10.6937       10.7129       2.646972       0.01567
  10     361.9        8.0852        0.0210       10.6489       10.6699       2.584684       0.01576
   9     398.1        8.1067        0.0230       10.6008       10.6238       2.517121       0.01574
   8     437.6        8.1308        0.0252       10.5491       10.5743       2.443522       0.01574
   7     480.5        8.1578        0.0276       10.4934       10.5210       2.363170       0.01578
   6     533.0        8.1931        0.0305       10.4243       10.4547       2.261613       0.01634
   5     589.8        8.2343        0.0335       10.3479       10.3814       2.147172       0.01699
   4     651.6        8.2837        0.0369       10.2613       10.2982       2.014547       0.01814
   3     718.7        8.3442        0.0404       10.1618       10.2022       1.857930       0.01968
   2     792.3        8.4213        0.0441       10.0439       10.0880       1.666777       0.02192
   1     891.5        4.6059        5.9432        0.1205        6.0637       1.457799       0.01778
   0    1013.0        4.7026        5.8165        0.1174        5.9339       1.231292       0.01573



 Wavenumbers:  8050. - 12850. cm-1, ATM      1
 LEVEL PRESSURE   UPWARD FLUX   DIFDOWN FLUX  DIRDOWN FLUX  DOWNWARD FLUX   NET FLUX    HEATING RATE
          mb          W/m2          W/m2          W/m2        W/m2          W/m2       degree/day
  51    .06700      101.3820        0.0000      156.5418      156.5418      55.159705       0.00000
  50    .07753      101.3820        0.0000      156.5417      156.5417      55.159705      -0.00000
  49    .09103      101.3820        0.0001      156.5417      156.5417      55.159705      -0.00000
  48    0.1069      101.3820        0.0001      156.5416      156.5417      55.159705       0.00000
  47    0.1255      101.3820        0.0002      156.5415      156.5417      55.159705       0.00000
  46    0.1487      101.3820        0.0002      156.5414      156.5417      55.159705      -0.00000
  45    0.1794      101.3819        0.0003      156.5413      156.5416      55.159705       0.00000
  44    0.2165      101.3819        0.0004      156.5412      156.5416      55.159705      -0.00000
  43    0.2613      101.3818        0.0006      156.5410      156.5415      55.159705      -0.00000
  42    0.3336      101.3818        0.0008      156.5407      156.5415      55.159705       0.00000
  41    0.4307      101.3817        0.0011      156.5403      156.5414      55.159705      -0.00000
  40    0.5894      101.3815        0.0015      156.5397      156.5412      55.159705       0.00000
  39     1.339      101.3807        0.0037      156.5367      156.5404      55.159705       0.00000
  38     1.782      101.3803        0.0050      156.5350      156.5400      55.159705       0.00000
  37     2.292      101.3797        0.0064      156.5330      156.5394      55.159705       0.00000
  36     2.964      101.3790        0.0084      156.5303      156.5387      55.159705      -0.00000
  35     3.853      101.3781        0.0109      156.5268      156.5378      55.159705       0.00000
  34     5.035      101.3769        0.0144      156.5222      156.5366      55.159705       0.00000
  33     6.613      101.3752        0.0189      156.5160      156.5349      55.159705       0.00000
  32     8.786      101.3730        0.0251      156.5076      156.5327      55.159705      -0.00000
  31     11.80      101.3698        0.0338      156.4957      156.5295      55.159705       0.00000
  30     15.07      101.3664        0.0433      156.4828      156.5261      55.159705       0.00000
  29     18.79      101.3625        0.0540      156.4682      156.5222      55.159705      -0.00000
  28     23.16      101.3580        0.0665      156.4512      156.5177      55.159705      -0.00000
  27     28.12      101.3528        0.0808      156.4317      156.5125      55.159705       0.00000
  26     33.73      101.3470        0.0968      156.4099      156.5067      55.159705       0.00000
  25     40.54      101.3400        0.1163      156.3834      156.4997      55.159705       0.00000
  24     48.69      101.3315        0.1397      156.3515      156.4912      55.159705       0.00000
  23     57.69      101.3222        0.1654      156.3164      156.4819      55.159705      -0.00000
  22     68.43      101.3110        0.1962      156.2746      156.4707      55.159705       0.00000
  21     81.20      101.2978        0.2329      156.2246      156.4575      55.159705      -0.00000
  20     96.49      101.2819        0.2767      156.1649      156.4416      55.159705       0.00000
  19     114.6      101.2633        0.3288      156.0879      156.4167      55.153449       0.00292
  18     136.5      101.2411        0.3906      155.9962      156.3868      55.145691       0.00298
  17     162.9      101.2147        0.4645      155.8831      156.3475      55.132824       0.00411
  16     196.4      101.1805        0.5605      155.7199      156.2804      55.099885       0.00829
  15     218.7      101.1584        0.6236      155.5733      156.1969      55.038475       0.02332
  14     243.0      101.1355        0.6923      155.3367      156.0289      54.893477       0.05029
  13     269.0      101.1130        0.7665      154.9514      155.7179      54.604943       0.09360
  12     297.5      101.0934        0.8464      154.3896      155.2361      54.142642       0.13711
  11     328.5      101.0783        0.9326      153.7151      154.6477      53.569426       0.15586
  10     361.9      101.0709        1.0251      152.9087      153.9339      52.862952       0.17874
   9     398.1      101.0767        1.1241      151.8986      153.0227      51.945968       0.21364
   8     437.6      101.1051        1.2294      150.6031      151.8325      50.727388       0.26054
   7     480.5      101.1675        1.3407      149.0014      150.3421      49.174580       0.30497
   6     533.0      101.3049        1.4754      146.7375      148.2129      46.907987       0.36462
   5     589.8      101.5660        1.6165      143.8730      145.4894      43.923465       0.44300
   4     651.6      102.0893        1.7611      140.0955      141.8567      39.767364       0.56836
   3     718.7      103.0795        1.9079      135.5278      137.4357      34.356166       0.68004
   2     792.3      105.0510        2.0530      130.0690      132.1221      27.071010       0.83553
   1     891.5       53.1276       71.6236        1.4906       73.1142      19.986676       0.60284
   0    1013.0       55.1176       68.1708        1.3786       69.5494      14.431817       0.38570



 Wavenumbers: 12850. - 16000. cm-1, ATM      1
 LEVEL PRESSURE   UPWARD FLUX   DIFDOWN FLUX  DIRDOWN FLUX  DOWNWARD FLUX   NET FLUX    HEATING RATE
          mb          W/m2          W/m2          W/m2        W/m2          W/m2       degree/day
  51    .06700       78.0218        0.0000       98.0872       98.0872      20.065409       0.00000
  50    .07753       78.0218        0.0001       98.0864       98.0864      20.064617       0.63473
  49    .09103       78.0218        0.0002       98.0853       98.0855      20.063622       0.62169
  48    0.1069       78.0218        0.0003       98.0841       98.0843      20.062479       0.60840
  47    0.1255       78.0218        0.0004       98.0826       98.0830      20.061166       0.59542
  46    0.1487       78.0219        0.0005       98.0809       98.0814      20.059508       0.60427
  45    0.1794       78.0219        0.0007       98.0784       98.0792      20.057253       0.61919
  44    0.2165       78.0220        0.0010       98.0756       98.0766      20.054599       0.60365
  43    0.2613       78.0221        0.0012       98.0723       98.0736      20.051478       0.58835
  42    0.3336       78.0223        0.0017       98.0670       98.0687      20.046382       0.59410
  41    0.4307       78.0227        0.0023       98.0602       98.0625      20.039791       0.57310
  40    0.5894       78.0235        0.0033       98.0496       98.0529      20.029400       0.55256
  39     1.339       78.0302        0.0081       98.0043       98.0125      19.982253       0.53079
  38     1.782       78.0363        0.0109       97.9793       97.9902      19.953907       0.53966
  37     2.292       78.0454        0.0142       97.9498       97.9640      19.918574       0.58520
  36     2.964       78.0604        0.0185       97.9088       97.9273      19.866862       0.64914
  35     3.853       78.0846        0.0241       97.8503       97.8745      19.789821       0.73113
  34     5.035       78.1211        0.0316       97.7680       97.7996      19.678517       0.79511
  33     6.613       78.1720        0.0416       97.6562       97.6978      19.525840       0.81621
  32     8.786       78.2382        0.0551       97.5107       97.5657      19.327539       0.77013
  31     11.80       78.3245        0.0743       97.3179       97.3922      19.067690       0.72749
  30     15.07       78.4072        0.0950       97.1283       97.2233      18.816073       0.64963
  29     18.79       78.4917        0.1182       96.9300       97.0483      18.556522       0.58848
  28     23.16       78.5802        0.1454       96.7166       96.8620      18.281790       0.53124
  27     28.12       78.6694        0.1765       96.4935       96.6700      18.000616       0.47798
  26     33.73       78.7520        0.2113       96.2731       96.4844      17.732381       0.40330
  25     40.54       78.8319        0.2533       96.0408       96.2941      17.462153       0.33525
  24     48.69       78.9090        0.3040       95.7946       96.0985      17.189552       0.28210
  23     57.69       78.9749        0.3596       95.5573       95.9169      16.941951       0.23209
  22     68.43       79.0333        0.4259       95.3106       95.7365      16.703268       0.18764
  21     81.20       79.0751        0.5051       95.0643       95.5694      16.494323       0.13807
  20     96.49       79.0993        0.5995       94.8153       95.4147      16.315440       0.09873
  19     114.6       79.1271        0.7126       94.5411       95.2537      16.126558       0.08819
  18     136.5       79.1490        0.8467       94.2320       95.0788      15.929772       0.07567
  17     162.9       79.1650        1.0064       93.8753       94.8818      15.716769       0.06808
  16     196.4       79.1642        1.2136       93.4347       94.6482      15.484009       0.05859
  15     218.7       79.1561        1.3496       93.1513       94.5009      15.344736       0.05288
  14     243.0       79.1443        1.4974       92.8439       94.3414      15.197080       0.05121
  13     269.0       79.1287        1.6576       92.5111       94.1687      15.039996       0.05096
  12     297.5       79.1103        1.8307       92.1495       93.9802      14.869953       0.05043
  11     328.5       79.0909        2.0178       91.7554       93.7732      14.682214       0.05105
  10     361.9       79.0720        2.2191       91.3262       93.5453      14.473364       0.05284
   9     398.1       79.0551        2.4357       90.8575       93.2933      14.238222       0.05478
   8     437.6       79.0437        2.6683       90.3418       93.0101      13.966332       0.05813
   7     480.5       79.0414        2.9173       89.7728       92.6901      13.648648       0.06239
   6     533.0       79.0575        3.2234       89.0428       92.2662      13.208718       0.07077
   5     589.8       79.1097        3.5523       88.2038       91.7561      12.646428       0.08346
   4     651.6       79.2364        3.9035       87.1979       91.1015      11.865064       0.10685
   3     718.7       79.4675        4.2757       86.0161       90.2918      10.824327       0.13079
   2     792.3       79.8917        4.6648       84.5970       89.2619       9.370147       0.16678
   1     891.5       54.6748       61.3337        1.0068       62.3405       7.665714       0.14504
   0    1013.0       55.4938       60.2706        0.9724       61.2429       5.749165       0.13308



 Wavenumbers: 16000. - 22650. cm-1, ATM      1
 LEVEL PRESSURE   UPWARD FLUX   DIFDOWN FLUX  DIRDOWN FLUX  DOWNWARD FLUX   NET FLUX    HEATING RATE
          mb          W/m2          W/m2          W/m2        W/m2          W/m2       degree/day
  51    .06700      140.5748        0.0000      156.3892      156.3892      15.814411       0.00000
  50    .07753      140.5748        0.0004      156.3887      156.3891      15.814263       0.11816
  49    .09103      140.5748        0.0009      156.3879      156.3888      15.814049       0.13401
  48    0.1069      140.5748        0.0015      156.3871      156.3885      15.813762       0.15282
  47    0.1255      140.5748        0.0021      156.3861      156.3882      15.813378       0.17419
  46    0.1487      140.5749        0.0030      156.3847      156.3877      15.812811       0.20642
  45    0.1794      140.5750        0.0041      156.3828      156.3869      15.811926       0.24304
  44    0.2165      140.5752        0.0054      156.3805      156.3859      15.810725       0.27315
  43    0.2613      140.5755        0.0070      156.3776      156.3846      15.809096       0.30709
  42    0.3336      140.5763        0.0096      156.3726      156.3823      15.805999       0.36113
  41    0.4307      140.5775        0.0131      156.3657      156.3788      15.801330       0.40595
  40    0.5894      140.5801        0.0188      156.3537      156.3725      15.792425       0.47352
  39     1.339      140.6026        0.0458      156.2834      156.3292      15.726639       0.74063
  38     1.782      140.6234        0.0616      156.2324      156.2940      15.670598       1.06694
  37     2.292      140.6546        0.0799      156.1641      156.2440      15.589477       1.34357
  36     2.964      140.7064        0.1040      156.0605      156.1645      15.458061       1.64967
  35     3.853      140.7903        0.1357      155.9041      156.0398      15.249535       1.97895
  34     5.035      140.9168        0.1778      155.6774      155.8552      14.938432       2.22239
  33     6.613      141.0936        0.2341      155.3656      155.5997      14.506091       2.31130
  32     8.786      141.3238        0.3097      154.9577      155.2674      13.943521       2.18482
  31     11.80      141.6235        0.4178      154.4153      154.8330      13.209517       2.05498
  30     15.07      141.9106        0.5336      153.8804      154.4140      12.503435       1.82297
  29     18.79      142.2036        0.6643      153.3191      153.9834      11.779772       1.64077
  28     23.16      142.5099        0.8167      152.7126      153.5293      11.019395       1.47032
  27     28.12      142.8179        0.9907      152.0755      153.0662      10.248254       1.31089
  26     33.73      143.1023        1.1853      151.4409      152.6262       9.523927       1.08904
  25     40.54      143.3758        1.4201      150.7637      152.1838       8.808039       0.88814
  24     48.69      143.6375        1.7029      150.0338      151.7368       8.099305       0.73343
  23     57.69      143.8592        2.0132      149.3151      151.3284       7.469176       0.59065
  22     68.43      144.0523        2.3824      148.5476      150.9300       6.877657       0.46501
  21     81.20      144.1852        2.8219      147.7517      150.5736       6.388337       0.32333
  20     96.49      144.2534        3.3451      146.9127      150.2577       6.004348       0.21193
  19     114.6      144.2880        3.9645      145.9763      149.9408       5.652830       0.16413
  18     136.5      144.2977        4.6959      144.9088      149.6047       5.307031       0.13297
  17     162.9      144.2807        5.5628      143.6785      149.2414       4.960644       0.11072
  16     196.4      144.1973        6.6813      142.1651      148.8464       4.649107       0.07842
  15     218.7      144.1200        7.4123      141.2033      148.6156       4.495628       0.05827
  14     243.0      144.0256        8.2034      140.1753      148.3787       4.353072       0.04944
  13     269.0      143.9127        9.0568      139.0797      148.1365       4.223842       0.04192
  12     297.5      143.7804        9.9747      137.9141      147.8887       4.108301       0.03427
  11     328.5      143.6330       10.9612      136.6676      147.6288       3.995820       0.03058
  10     361.9      143.4700       12.0173      135.3392      147.3565       3.886524       0.02765
   9     398.1      143.2911       13.1471      133.9235      147.0706       3.779500       0.02493
   8     437.6      143.0972       14.3525      132.4163      146.7687       3.671573       0.02308
   7     480.5      142.8880       15.6357      130.8147      146.4504       3.562414       0.02144
   6     533.0      142.6307       17.2029      128.8599      146.0628       3.432084       0.02097
   5     589.8      142.3579       18.8774      126.7679      145.6454       3.287470       0.02147
   4     651.6      142.0761       20.6608      124.5274      145.1882       3.112110       0.02398
   3     718.7      141.7920       22.5547      122.1285      144.6832       2.891164       0.02777
   2     792.3      141.5233       24.5571      119.5548      144.1119       2.588604       0.03470
   1     891.5      119.3434      120.0737        1.4176      121.4912       2.147800       0.03751
   0    1013.0      119.6119      119.7820        1.3661      121.1480       1.536121       0.04247



 Wavenumbers: 22650. - 29000. cm-1, ATM      1
 LEVEL PRESSURE   UPWARD FLUX   DIFDOWN FLUX  DIRDOWN FLUX  DOWNWARD FLUX   NET FLUX    HEATING RATE
          mb          W/m2          W/m2          W/m2        W/m2          W/m2       degree/day
  51    .06700       58.3992        0.0000       59.0156       59.0156       0.616412       0.00000
  50    .07753       58.3991        0.0005       59.0151       59.0155       0.616412      -0.00000
  49    .09103       58.3990        0.0010       59.0144       59.0154       0.616412       0.00000
  48    0.1069       58.3989        0.0017       59.0136       59.0153       0.616412       0.00000
  47    0.1255       58.3987        0.0025       59.0127       59.0151       0.616412      -0.00000
  46    0.1487       58.3985        0.0034       59.0115       59.0149       0.616412       0.00000
  45    0.1794       58.3983        0.0048       59.0099       59.0147       0.616412       0.00000
  44    0.2165       58.3980        0.0063       59.0080       59.0144       0.616412       0.00000
  43    0.2613       58.3976        0.0082       59.0058       59.0140       0.616412       0.00000
  42    0.3336       58.3970        0.0113       59.0022       59.0134       0.616412       0.00000
  41    0.4307       58.3962        0.0153       58.9973       59.0126       0.616412      -0.00000
  40    0.5894       58.3949        0.0220       58.9894       59.0113       0.616412       0.00000
  39     1.339       58.3888        0.0534       58.9518       59.0052       0.616412      -0.00000
  38     1.782       58.3852        0.0719       58.9297       59.0016       0.616412       0.00000
  37     2.292       58.3810        0.0933       58.9042       58.9974       0.616412       0.00000
  36     2.964       58.3756        0.1213       58.8706       58.9920       0.616412       0.00000
  35     3.853       58.3683        0.1584       58.8264       58.9848       0.616412       0.00000
  34     5.035       58.3588        0.2076       58.7676       58.9752       0.616412      -0.00000
  33     6.613       58.3460        0.2733       58.6891       58.9624       0.616412       0.00000
  32     8.786       58.3287        0.3617       58.5834       58.9451       0.616412       0.00000
  31     11.80       58.3041        0.4881       58.4324       58.9205       0.616412      -0.00000
  30     15.07       58.2777        0.6235       58.2706       58.8941       0.616412       0.00000
  29     18.79       58.2479        0.7761       58.0882       58.8644       0.616412       0.00000
  28     23.16       58.2133        0.9540       57.8757       58.8297       0.616412      -0.00000
  27     28.12       58.1737        1.1568       57.6333       58.7901       0.616412       0.00000
  26     33.73       58.1296        1.3830       57.3631       58.7460       0.616412      -0.00000
  25     40.54       58.0766        1.6551       57.0379       58.6930       0.616412       0.00000
  24     48.69       58.0129        1.9815       56.6479       58.6293       0.616412      -0.00000
  23     57.69       57.9434        2.3377       56.2221       58.5598       0.616412       0.00000
  22     68.43       57.8612        2.7590       55.7186       58.4776       0.616412      -0.00000
  21     81.20       57.7641        3.2566       55.1239       58.3805       0.616412       0.00000
  20     96.49       57.6496        3.8432       54.4228       58.2660       0.616412       0.00000
  19     114.6       57.5152        4.5307       53.6010       58.1317       0.616412       0.00000
  18     136.5       57.3584        5.3331       52.6418       57.9748       0.616412       0.00000
  17     162.9       57.1750        6.2710       51.5203       57.7914       0.616412      -0.00000
  16     196.4       56.9424        7.4594       50.0994       57.5588       0.616412       0.00000
  15     218.7       56.7928        8.2230       49.1863       57.4092       0.616412       0.00000
  14     243.0       56.6330        9.0382       48.2113       57.2494       0.616412      -0.00000
  13     269.0       56.4631        9.9046       47.1749       57.0795       0.616412       0.00000
  12     297.5       56.2831       10.8213       46.0783       56.8995       0.616412      -0.00000
  11     328.5       56.0928       11.7897       44.9195       56.7092       0.616412       0.00000
  10     361.9       55.8927       12.8072       43.7018       56.5091       0.616412       0.00000
   9     398.1       55.6826       13.8740       42.4250       56.2990       0.616412       0.00000
   8     437.6       55.4630       14.9878       41.0916       56.0794       0.616412      -0.00000
   7     480.5       55.2343       16.1463       39.7045       55.8507       0.616412       0.00000
   6     533.0       54.9619       17.5240       38.0543       55.5783       0.616412      -0.00000
   5     589.8       54.6789       18.9522       36.3431       55.2953       0.616412       0.00000
   4     651.6       54.3867       20.4235       34.5795       55.0031       0.616412       0.00000
   3     718.7       54.0862       21.9324       32.7702       54.7026       0.616412      -0.00000
   2     792.3       53.7792       23.4700       30.9256       54.3956       0.616412      -0.00000
   1     891.5       47.9603       48.2274        0.3489       48.5763       0.616011       0.00003
   0    1013.0       47.9337       48.2327        0.3170       48.5498       0.616011       0.00000



 Wavenumbers: 29000. - 38000. cm-1, ATM      1
 LEVEL PRESSURE   UPWARD FLUX   DIFDOWN FLUX  DIRDOWN FLUX  DOWNWARD FLUX   NET FLUX    HEATING RATE
          mb          W/m2          W/m2          W/m2        W/m2          W/m2       degree/day
  51    .06700        8.7415        0.0000       20.8114       20.8114      12.069850       0.00000
  50    .07753        8.7413        0.0003       20.8070       20.8074      12.066043       3.05153
  49    .09103        8.7411        0.0007       20.8009       20.8016      12.060506       3.46083
  48    0.1069        8.7408        0.0012       20.7928       20.7939      12.053096       3.94426
  47    0.1255        8.7406        0.0017       20.7820       20.7837      12.043191       4.49031
  46    0.1487        8.7402        0.0024       20.7665       20.7688      12.028628       5.30840
  45    0.1794        8.7397        0.0033       20.7424       20.7457      12.005963       6.22199
  44    0.2165        8.7392        0.0044       20.7103       20.7147      11.975441       6.94335
  43    0.2613        8.7387        0.0056       20.6675       20.6731      11.934447       7.72727
  42    0.3336        8.7378        0.0077       20.5880       20.5956      11.857886       8.92618
  41    0.4307        8.7367        0.0104       20.4722       20.4826      11.745935       9.73394
  40    0.5894        8.7351        0.0147       20.2637       20.2784      11.543253      10.77837
  39     1.339        8.7317        0.0331       19.0984       19.1315      10.399789      12.87332
  38     1.782        8.7322        0.0427       18.4394       18.4820       9.749877      12.37329
  37     2.292        8.7348        0.0530       17.7714       17.8244       9.089548      10.93676
  36     2.964        8.7413        0.0657       17.0421       17.1078       8.366450       9.07707
  35     3.853        8.7541        0.0816       16.2678       16.3494       7.595312       7.31825
  34     5.035        8.7752        0.1017       15.4803       15.5820       6.806876       5.63225
  33     6.613        8.8058        0.1275       14.7157       14.8432       6.037375       4.11376
  32     8.786        8.8463        0.1612       13.9936       14.1548       5.308530       2.83057
  31     11.80        8.8991        0.2083       13.2835       13.4918       4.592701       2.00409
  30     15.07        8.9500        0.2570       12.7394       12.9964       4.046354       1.41056
  29     18.79        9.0027        0.3111       12.2666       12.5777       3.575035       1.06863
  28     23.16        9.0585        0.3726       11.8300       12.2026       3.144027       0.83343
  27     28.12        9.1158        0.4414       11.4279       11.8693       2.753463       0.66393
  26     33.73        9.1687        0.5173       11.0695       11.5867       2.418075       0.50427
  25     40.54        9.2188        0.6079       10.7209       11.3288       2.110020       0.38218
  24     48.69        9.2661        0.7155       10.3742       11.0897       1.823570       0.29643
  23     57.69        9.3049        0.8319       10.0549       10.8868       1.581901       0.22653
  22     68.43        9.3362        0.9684        9.7327       10.7012       1.364943       0.17056
  21     81.20        9.3512        1.1297        9.4134       10.5431       1.191940       0.11432
  20     96.49        9.3477        1.3192        9.0887       10.4080       1.060243       0.07269
  19     114.6        9.3340        1.5382        8.7388       10.2770       0.943014       0.05474
  18     136.5        9.3130        1.7886        8.3549       10.1435       0.830529       0.04325
  17     162.9        9.2847        2.0740        7.9311       10.0051       0.720392       0.03520
  16     196.4        9.2373        2.4275        7.4333        9.8608       0.623448       0.02440
  15     218.7        9.2032        2.6498        7.1295        9.7794       0.576166       0.01795
  14     243.0        9.1658        2.8822        6.8161        9.6983       0.532505       0.01514
  13     269.0        9.1249        3.1239        6.4943        9.6182       0.493301       0.01272
  12     297.5        9.0806        3.3736        6.1657        9.5394       0.458741       0.01025
  11     328.5        9.0344        3.6306        5.8295        9.4601       0.425653       0.00900
  10     361.9        8.9867        3.8922        5.4886        9.3809       0.394184       0.00796
   9     398.1        8.9376        4.1579        5.1440        9.3019       0.364361       0.00695
   8     437.6        8.8876        4.4263        4.7969        9.2232       0.335612       0.00615
   7     480.5        8.8371        4.6951        4.4504        9.1455       0.308322       0.00536
   6     533.0        8.7792        5.0015        4.0563        9.0578       0.278573       0.00479
   5     589.8        8.7221        5.3036        3.6682        8.9718       0.249768       0.00428
   4     651.6        8.6666        5.5977        3.2905        8.8882       0.221587       0.00385
   3     718.7        8.6134        5.8822        2.9252        8.8074       0.193984       0.00347
   2     792.3        8.5631        6.1536        2.5764        8.7301       0.166964       0.00310
   1     891.5        7.9359        8.0451        0.0265        8.0716       0.135667       0.00266
   0    1013.0        7.9429        8.0237        0.0214        8.0451       0.102134       0.00233



 Wavenumbers: 38000. - 50000. cm-1, ATM      1
 LEVEL PRESSURE   UPWARD FLUX   DIFDOWN FLUX  DIRDOWN FLUX  DOWNWARD FLUX   NET FLUX    HEATING RATE
          mb          W/m2          W/m2          W/m2        W/m2          W/m2       degree/day
  51    .06700        0.0061        0.0000        1.2836        1.2836       1.277518       0.00000
  50    .07753        0.0061        0.0001        1.2812        1.2812       1.275183       1.87150
  49    .09103        0.0060        0.0002        1.2777        1.2778       1.271851       2.08247
  48    0.1069        0.0059        0.0002        1.2731        1.2734       1.267473       2.33059
  47    0.1255        0.0058        0.0004        1.2672        1.2675       1.261717       2.60908
  46    0.1487        0.0057        0.0005        1.2586        1.2591       1.253391       3.03499
  45    0.1794        0.0055        0.0007        1.2455        1.2462       1.240623       3.50520
  44    0.2165        0.0054        0.0009        1.2282        1.2291       1.223697       3.85037
  43    0.2613        0.0052        0.0011        1.2054        1.2065       1.201348       4.21261
  42    0.3336        0.0049        0.0015        1.1639        1.1654       1.160524       4.75970
  41    0.4307        0.0045        0.0020        1.1051        1.1070       1.102565       5.03943
  40    0.5894        0.0039        0.0026        1.0039        1.0064       1.002524       5.32007
  39     1.339        0.0022        0.0035        0.5438        0.5473       0.545104       5.14971
  38     1.782        0.0016        0.0032        0.3635        0.3666       0.365006       3.42879
  37     2.292        0.0012        0.0027        0.2356        0.2383       0.237058       2.11916
  36     2.964        0.0009        0.0022        0.1455        0.1477       0.146786       1.13318
  35     3.853        0.0006        0.0017        0.0858        0.0875       0.086906       0.56828
  34     5.035        0.0004        0.0013        0.0488        0.0501       0.049701       0.26578
  33     6.613        0.0003        0.0010        0.0273        0.0282       0.027974       0.11615
  32     8.786        0.0002        0.0007        0.0144        0.0151       0.014928       0.05067
  31     11.80        0.0001        0.0004        0.0065        0.0070       0.006903       0.02247
  30     15.07        0.0000        0.0003        0.0031        0.0034       0.003329       0.00923
  29     18.79        0.0000        0.0002        0.0014        0.0016       0.001583       0.00396
  28     23.16        0.0000        0.0001        0.0006        0.0007       0.000720       0.00167
  27     28.12        0.0000        0.0001        0.0003        0.0003       0.000317       0.00069
  26     33.73        0.0000        0.0000        0.0001        0.0001       0.000140       0.00027
  25     40.54        0.0000        0.0000        0.0000        0.0001       0.000057       0.00010
  24     48.69        0.0000        0.0000        0.0000        0.0000       0.000021       0.00004
  23     57.69        0.0000        0.0000        0.0000        0.0000       0.000008       0.00001
  22     68.43        0.0000        0.0000        0.0000        0.0000       0.000003       0.00000
  21     81.20        0.0000        0.0000        0.0000        0.0000       0.000001       0.00000
  20     96.49        0.0000        0.0000        0.0000        0.0000       0.000000       0.00000
  19     114.6        0.0000        0.0000        0.0000        0.0000       0.000000       0.00000
  18     136.5        0.0000        0.0000        0.0000        0.0000       0.000000       0.00000
  17     162.9        0.0000        0.0000        0.0000        0.0000       0.000000       0.00000
  16     196.4        0.0000        0.0000        0.0000        0.0000       0.000000       0.00000
  15     218.7        0.0000        0.0000        0.0000        0.0000       0.000000       0.00000
  14     243.0        0.0000        0.0000        0.0000        0.0000       0.000000       0.00000
  13     269.0        0.0000        0.0000        0.0000        0.0000       0.000000       0.00000
  12     297.5        0.0000        0.0000        0.0000        0.0000       0.000000       0.00000
  11     328.5        0.0000        0.0000        0.0000        0.0000       0.000000       0.00000
  10     361.9        0.0000        0.0000        0.0000        0.0000       0.000000       0.00000
   9     398.1        0.0000        0.0000        0.0000        0.0000       0.000000       0.00000
   8     437.6        0.0000        0.0000        0.0000        0.0000       0.000000       0.00000
   7     480.5        0.0000        0.0000        0.0000        0.0000       0.000000       0.00000
   6     533.0        0.0000        0.0000        0.0000        0.0000       0.000000       0.00000
   5     589.8        0.0000        0.0000        0.0000        0.0000       0.000000       0.00000
   4     651.6        0.0000        0.0000        0.0000        0.0000       0.000000       0.00000
   3     718.7        0.0000        0.0000        0.0000        0.0000       0.000000       0.00000
   2     792.3        0.0000        0.0000        0.0000        0.0000       0.000000       0.00000
   1     891.5        0.0000        0.0000        0.0000        0.0000       0.000000       0.00000
   0    1013.0        0.0000        0.0000        0.0000        0.0000       0.000000       0.00000



 Wavenumbers:   820. -  2600. cm-1, ATM      1
 LEVEL PRESSURE   UPWARD FLUX   DIFDOWN FLUX  DIRDOWN FLUX  DOWNWARD FLUX   NET FLUX    HEATING RATE
          mb          W/m2          W/m2          W/m2        W/m2          W/m2       degree/day
  51    .06700        1.3568        0.0000        6.0047        6.0047       4.647878       0.00000
  50    .07753        1.3568        0.0000        6.0008        6.0008       4.644025       3.08824
  49    .09103        1.3568        0.0000        5.9999        5.9999       4.643140       0.55361
  48    0.1069        1.3568        0.0000        5.9989        5.9989       4.642151       0.52655
  47    0.1255        1.3568        0.0000        5.9978        5.9978       4.641033       0.50653
  46    0.1487        1.3568        0.0000        5.9964        5.9964       4.639676       0.49460
  45    0.1794        1.3568        0.0000        5.9947        5.9947       4.637957       0.47203
  44    0.2165        1.3568        0.0000        5.9929        5.9929       4.636114       0.41913
  43    0.2613        1.3568        0.0000        5.9909        5.9909       4.634155       0.36936
  42    0.3336        1.3568        0.0000        5.9880        5.9880       4.631276       0.33560
  41    0.4307        1.3568        0.0000        5.9846        5.9846       4.627807       0.30168
  40    0.5894        1.3568        0.0000        5.9791        5.9791       4.622301       0.29280
  39     1.339        1.3568        0.0000        5.9536        5.9536       4.596810       0.28698
  38     1.782        1.3568        0.0000        5.9395        5.9395       4.582670       0.26921
  37     2.292        1.3568        0.0000        5.9237        5.9237       4.566916       0.26092
  36     2.964        1.3568        0.0000        5.9039        5.9039       4.547139       0.24826
  35     3.853        1.3568        0.0000        5.8793        5.8793       4.522479       0.23403
  34     5.035        1.3568        0.0000        5.8487        5.8487       4.491910       0.21837
  33     6.613        1.3568        0.0000        5.8108        5.8108       4.453938       0.20300
  32     8.786        1.3568        0.0000        5.7631        5.7631       4.406304       0.18499
  31     11.80        1.3569        0.0000        5.7039        5.7039       4.347032       0.16594
  30     15.07        1.3569        0.0000        5.6539        5.6539       4.296976       0.12923
  29     18.79        1.3569        0.0000        5.6127        5.6127       4.255821       0.09331
  28     23.16        1.3569        0.0000        5.5794        5.5794       4.222421       0.06459
  27     28.12        1.3570        0.0000        5.5518        5.5518       4.194826       0.04691
  26     33.73        1.3570        0.0000        5.5268        5.5268       4.169739       0.03772
  25     40.54        1.3571        0.0000        5.4993        5.4993       4.142254       0.03410
  24     48.69        1.3571        0.0000        5.4678        5.4678       4.110661       0.03269
  23     57.69        1.3572        0.0000        5.4340        5.4340       4.076814       0.03173
  22     68.43        1.3573        0.0000        5.3947        5.3948       4.037467       0.03093
  21     81.20        1.3574        0.0000        5.3497        5.3497       3.992344       0.02982
  20     96.49        1.3575        0.0000        5.2982        5.2982       3.940719       0.02849
  19     114.6        1.3577        0.0000        5.2389        5.2389       3.881258       0.02776
  18     136.5        1.3578        0.0000        5.1716        5.1717       3.813825       0.02593
  17     162.9        1.3581        0.0000        5.0890        5.0891       3.730943       0.02649
  16     196.4        1.3586        0.0000        4.9668        4.9668       3.608268       0.03088
  15     218.7        1.3590        0.0000        4.8585        4.8585       3.499462       0.04131
  14     243.0        1.3597        0.0000        4.7078        4.7079       3.348129       0.05249
  13     269.0        1.3608        0.0000        4.5343        4.5343       3.173482       0.05665
  12     297.5        1.3625        0.0000        4.3419        4.3420       2.979451       0.05755
  11     328.5        1.3648        0.0000        4.1281        4.1281       2.763331       0.05876
  10     361.9        1.3679        0.0000        3.8786        3.8787       2.510807       0.06389
   9     398.1        1.3718        0.0000        3.6159        3.6160       2.244117       0.06213
   8     437.6        1.3770        0.0000        3.3759        3.3759       1.998914       0.05243
   7     480.5        1.3833        0.0000        3.1957        3.1958       1.812503       0.03661
   6     533.0        1.3929        0.0000        3.0467        3.0467       1.653828       0.02553
   5     589.8        1.4071        0.0000        2.9023        2.9023       1.495267       0.02354
   4     651.6        1.4318        0.0001        2.7183        2.7184       1.286596       0.02854
   3     718.7        1.4746        0.0001        2.5058        2.5059       1.031294       0.03208
   2     792.3        1.5567        0.0001        2.2756        2.2757       0.718936       0.03582
   1     891.5        0.5026        0.9031        0.0240        0.9271       0.424477       0.02506
   0    1013.0        0.6016        0.7406        0.0189        0.7595       0.157886       0.01851

  Modules and versions used in this calculation:

       rrtmg_sw.1col.f90:  $Revision$                    rrtmg_sw_init.f90:  $Revision$        
     rrtmgsw_cldprop.f90:  $Revision$                  rrtmgsw_cldprmc.f90:  NOT USED          
     rrtmg_sw_reftra.f90:  $Revision$                  rrtmg_sw_spcvrt.f90:  NOT USED          
     rrtmg_sw_spcvmc.f90:  NOT USED                    rrtmgsw_setcoef.f90:  NOT USED          
     rrtmg_sw_taumol.f90:  $Revision$                  rrtmg_sw_vrtqdr.f90:  NOT USED          
                rrtatm.f:  NOT USED                             util_xxx.f:  NOT USED          
                 extra.f:  NOT USED                       rrtmg_sw_k_g.f90:  $Revision$        

