

 Wavenumbers:   820. - 50000. cm-1, ATM      1
 LEVEL PRESSURE   UPWARD FLUX   DIFDOWN FLUX  DIRDOWN FLUX  DOWNWARD FLUX   NET FLUX    HEATING RATE
          mb          W/m2          W/m2          W/m2        W/m2          W/m2       degree/day
  51    .06700      459.8859        0.0000      617.8126      617.8126     157.926635       0.00000
  50    .07753      459.8856        0.0014      617.7947      617.7961     157.910491      12.93963
  49    .09103      459.8851        0.0031      617.7778      617.7808     157.895676       9.25979
  48    0.1069      459.8847        0.0050      617.7581      617.7631     157.878408       9.19191
  47    0.1255      459.8842        0.0073      617.7340      617.7412     157.857055       9.68049
  46    0.1487      459.8836        0.0101      617.7009      617.7110     157.827357      10.82505
  45    0.1794      459.8829        0.0139      617.6521      617.6660     157.783109      12.14731
  44    0.2165      459.8822        0.0185      617.5895      617.6080     157.725764      13.04487
  43    0.2613      459.8816        0.0239      617.5089      617.5328     157.651221      14.05108
  42    0.3336      459.8808        0.0328      617.3641      617.3969     157.516080      15.75614
  41    0.4307      459.8802        0.0444      617.1591      617.2036     157.323374      16.75536
  40    0.5894      459.8802        0.0633      616.8005      616.8637     156.983529      18.07251
  39     1.339      459.8989        0.1485      614.9443      615.0927     155.193854      20.14849
  38     1.782      459.9227        0.1964      613.9670      614.1634     154.240724      18.14606
  37     2.292      459.9620        0.2510      613.0059      613.2568     153.294875      15.66573
  36     2.964      460.0311        0.3219      611.9577      612.2795     152.248421      13.13615
  35     3.853      460.1470        0.4149      610.8024      611.2173     151.070299      11.18060
  34     5.035      460.3250        0.5376      609.5327      610.0703     149.745290       9.46531
  33     6.613      460.5757        0.7005      608.1464      608.8470     148.271229       7.88033
  32     8.786      460.9024        0.9191      606.6250      607.5441     146.641774       6.32822
  31     11.80      461.3255        1.2303      604.8486      606.0789     144.753386       5.28689
  30     15.07      461.7286        1.5624      603.2440      604.8063     143.077696       4.32630
  29     18.79      462.1381        1.9360      601.6511      603.5872     141.449037       3.69267
  28     23.16      462.5636        2.3702      599.9927      602.3629     139.799289       3.19008
  27     28.12      462.9884        2.8644      598.2881      601.1525     138.164111       2.77969
  26     33.73      463.3733        3.4154      596.5951      600.0105     136.637210       2.29574
  25     40.54      463.7330        4.0788      594.7727      598.8515     135.118478       1.88416
  24     48.69      464.0647        4.8748      592.7865      597.6613     133.596643       1.57486
  23     57.69      464.3301        5.7451      590.7959      596.5410     132.210840       1.29898
  22     68.43      464.5390        6.7761      588.6191      595.3952     130.856197       1.06493
  21     81.20      464.6387        7.9985      586.2690      594.2675     129.628766       0.81107
  20     96.49      464.6194        9.4459      583.6961      593.1420     128.522637       0.61050
  19     114.6      464.5402       11.1488      580.7708      591.9197     127.379461       0.53378
  18     136.5      464.4015       13.1430      577.4359      590.5789     126.177435       0.46221
  17     162.9      464.1983       15.4835      573.5624      589.0459     124.847586       0.42507
  16     196.4      463.8473       18.4686      568.5907      587.0593     123.212013       0.41169
  15     218.7      463.5890       20.3988      565.0572      585.4561     121.867080       0.51062
  14     243.0      463.3016       22.4694      560.7495      583.2189     119.917278       0.67626
  13     269.0      462.9877       24.6816      555.3947      580.0763     117.088650       0.91759
  12     297.5      462.6546       27.0363      548.9964      576.0327     113.378166       1.10049
  11     328.5      462.3136       29.5401      542.0895      571.6296     109.316054       1.10448
  10     361.9      461.9747       32.1890      534.6242      566.8132     104.838533       1.13286
   9     398.1      461.6524       34.9879      526.4204      561.4083      99.755847       1.18415
   8     437.6      461.3744       37.9353      517.3907      555.3260      93.951560       1.24099
   7     480.5      461.1708       41.0294      507.7216      548.7510      87.580165       1.25132
   6     533.0      461.0977       44.7500      495.9006      540.6506      79.552879       1.29134
   5     589.8      461.3446       48.6547      483.0788      531.7335      70.388828       1.36025
   4     651.6      462.2932       52.7305      468.6907      521.4212      59.128030       1.53994
   3     718.7      464.4972       56.9695      453.2257      510.1952      45.698030       1.68778
   2     792.3      469.4572       61.3491      436.4928      497.8420      28.384811       1.98563
   1     891.5      245.9536      263.7118        0.0000      263.7118      17.758218       0.90427
   0    1013.0      247.4659      261.3195        0.0000      261.3195      13.853567       0.27112



 Wavenumbers:  2600. -  3250. cm-1, ATM      1
 LEVEL PRESSURE   UPWARD FLUX   DIFDOWN FLUX  DIRDOWN FLUX  DOWNWARD FLUX   NET FLUX    HEATING RATE
          mb          W/m2          W/m2          W/m2        W/m2          W/m2       degree/day
  51    .06700        2.1203        0.0000        5.4450        5.4450       3.324761       0.00000
  50    .07753        2.1203        0.0000        5.4450        5.4450       3.324753       0.00640
  49    .09103        2.1203        0.0000        5.4450        5.4450       3.324743       0.00627
  48    0.1069        2.1203        0.0000        5.4450        5.4450       3.324732       0.00613
  47    0.1255        2.1203        0.0000        5.4450        5.4450       3.324719       0.00599
  46    0.1487        2.1203        0.0000        5.4450        5.4450       3.324702       0.00608
  45    0.1794        2.1203        0.0000        5.4450        5.4450       3.324679       0.00625
  44    0.2165        2.1203        0.0000        5.4449        5.4449       3.324652       0.00612
  43    0.2613        2.1203        0.0000        5.4449        5.4449       3.324620       0.00600
  42    0.3336        2.1203        0.0000        5.4448        5.4448       3.324568       0.00617
  41    0.4307        2.1203        0.0000        5.4448        5.4448       3.324496       0.00620
  40    0.5894        2.1203        0.0000        5.4446        5.4446       3.324376       0.00637
  39     1.339        2.1203        0.0000        5.4439        5.4439       3.323669       0.00797
  38     1.782        2.1203        0.0000        5.4434        5.4434       3.323126       0.01034
  37     2.292        2.1203        0.0000        5.4427        5.4427       3.322410       0.01186
  36     2.964        2.1203        0.0000        5.4416        5.4416       3.321371       0.01304
  35     3.853        2.1203        0.0000        5.4402        5.4402       3.319894       0.01402
  34     5.035        2.1203        0.0000        5.4381        5.4381       3.317838       0.01469
  33     6.613        2.1203        0.0000        5.4353        5.4353       3.315056       0.01487
  32     8.786        2.1203        0.0000        5.4317        5.4317       3.311423       0.01411
  31     11.80        2.1203        0.0000        5.4269        5.4269       3.306641       0.01339
  30     15.07        2.1203        0.0000        5.4224        5.4224       3.302111       0.01169
  29     18.79        2.1203        0.0000        5.4180        5.4180       3.297694       0.01001
  28     23.16        2.1203        0.0000        5.4135        5.4135       3.293201       0.00869
  27     28.12        2.1203        0.0000        5.4088        5.4088       3.288544       0.00792
  26     33.73        2.1203        0.0000        5.4036        5.4036       3.283289       0.00790
  25     40.54        2.1203        0.0000        5.3966        5.3967       3.276325       0.00864
  24     48.69        2.1204        0.0000        5.3872        5.3872       3.266815       0.00984
  23     57.69        2.1204        0.0000        5.3754        5.3754       3.254984       0.01109
  22     68.43        2.1205        0.0000        5.3599        5.3599       3.239429       0.01223
  21     81.20        2.1206        0.0000        5.3401        5.3401       3.219500       0.01317
  20     96.49        2.1207        0.0000        5.3155        5.3155       3.194798       0.01363
  19     114.6        2.1209        0.0001        5.2853        5.2854       3.164414       0.01419
  18     136.5        2.1212        0.0001        5.2504        5.2505       3.129245       0.01352
  17     162.9        2.1216        0.0001        5.2111        5.2112       3.089524       0.01270
  16     196.4        2.1223        0.0001        5.1640        5.1641       3.041805       0.01201
  15     218.7        2.1230        0.0001        5.1331        5.1332       3.010216       0.01199
  14     243.0        2.1241        0.0001        5.0962        5.0963       2.972216       0.01318
  13     269.0        2.1258        0.0001        5.0511        5.0512       2.925378       0.01519
  12     297.5        2.1285        0.0001        4.9956        4.9957       2.867283       0.01723
  11     328.5        2.1321        0.0001        4.9304        4.9305       2.798392       0.01873
  10     361.9        2.1372        0.0002        4.8511        4.8513       2.714070       0.02133
   9     398.1        2.1442        0.0002        4.7507        4.7509       2.606649       0.02503
   8     437.6        2.1540        0.0002        4.6220        4.6222       2.468219       0.02960
   7     480.5        2.1677        0.0002        4.4625        4.4627       2.295016       0.03402
   6     533.0        2.1901        0.0002        4.2460        4.2462       2.056194       0.03842
   5     589.8        2.2245        0.0002        3.9954        3.9956       1.771117       0.04231
   4     651.6        2.2820        0.0002        3.7089        3.7091       1.427057       0.04705
   3     718.7        2.3786        0.0002        3.4018        3.4020       1.023422       0.05073
   2     792.3        2.5584        0.0002        3.0564        3.0567       0.498219       0.06023
   1     891.5        0.0016        0.2119        0.0000        0.2119       0.210279       0.02450
   0    1013.0        0.0019        0.1816        0.0000        0.1816       0.179728       0.00212



 Wavenumbers:  3250. -  4000. cm-1, ATM      1
 LEVEL PRESSURE   UPWARD FLUX   DIFDOWN FLUX  DIRDOWN FLUX  DOWNWARD FLUX   NET FLUX    HEATING RATE
          mb          W/m2          W/m2          W/m2        W/m2          W/m2       degree/day
  51    .06700        0.0814        0.0000        9.1795        9.1795       9.098147       0.00000
  50    .07753        0.0814        0.0000        9.1747        9.1747       9.093304       3.88148
  49    .09103        0.0814        0.0000        9.1713        9.1713       9.089916       2.11747
  48    0.1069        0.0814        0.0000        9.1688        9.1688       9.087391       1.34402
  47    0.1255        0.0814        0.0000        9.1665        9.1665       9.085132       1.02422
  46    0.1487        0.0814        0.0000        9.1641        9.1641       9.082691       0.88991
  45    0.1794        0.0814        0.0000        9.1612        9.1612       9.079813       0.79008
  44    0.2165        0.0814        0.0000        9.1583        9.1583       9.076893       0.66430
  43    0.2613        0.0814        0.0000        9.1553        9.1553       9.073919       0.56041
  42    0.3336        0.0814        0.0000        9.1511        9.1511       9.069740       0.48723
  41    0.4307        0.0814        0.0000        9.1464        9.1464       9.064972       0.41459
  40    0.5894        0.0814        0.0000        9.1393        9.1394       9.057967       0.37255
  39     1.339        0.0814        0.0000        9.1127        9.1127       9.031353       0.29962
  38     1.782        0.0814        0.0000        9.1011        9.1011       9.019765       0.22062
  37     2.292        0.0814        0.0000        9.0901        9.0901       9.008698       0.18329
  36     2.964        0.0814        0.0000        9.0776        9.0776       8.996268       0.15603
  35     3.853        0.0814        0.0000        9.0629        9.0629       8.981478       0.14036
  34     5.035        0.0814        0.0000        9.0441        9.0441       8.962739       0.13386
  33     6.613        0.0814        0.0000        9.0191        9.0191       8.937738       0.13366
  32     8.786        0.0814        0.0000        8.9843        8.9843       8.902954       0.13509
  31     11.80        0.0814        0.0000        8.9327        8.9327       8.851338       0.14451
  30     15.07        0.0814        0.0000        8.8758        8.8759       8.794493       0.14676
  29     18.79        0.0814        0.0000        8.8110        8.8110       8.729666       0.14698
  28     23.16        0.0814        0.0000        8.7365        8.7366       8.655221       0.14395
  27     28.12        0.0813        0.0000        8.6554        8.6555       8.574108       0.13789
  26     33.73        0.0813        0.0000        8.5719        8.5719       8.490608       0.12554
  25     40.54        0.0813        0.0001        8.4812        8.4812       8.399884       0.11255
  24     48.69        0.0813        0.0001        8.3838        8.3839       8.302583       0.10069
  23     57.69        0.0813        0.0001        8.2861        8.2862       8.204847       0.09161
  22     68.43        0.0813        0.0001        8.1751        8.1751       8.093851       0.08726
  21     81.20        0.0813        0.0001        8.0457        8.0458       7.964492       0.08548
  20     96.49        0.0813        0.0001        7.8949        7.8951       7.813788       0.08318
  19     114.6        0.0812        0.0001        7.7162        7.7163       7.635078       0.08345
  18     136.5        0.0812        0.0002        7.5193        7.5195       7.438233       0.07569
  17     162.9        0.0812        0.0002        7.2913        7.2915       7.210340       0.07284
  16     196.4        0.0812        0.0002        6.9660        6.9662       6.885061       0.08188
  15     218.7        0.0812        0.0002        6.6648        6.6650       6.583859       0.11436
  14     243.0        0.0812        0.0002        6.2619        6.2622       6.181030       0.13971
  13     269.0        0.0812        0.0003        5.7576        5.7579       5.676647       0.16362
  12     297.5        0.0814        0.0003        5.1719        5.1722       5.090779       0.17376
  11     328.5        0.0817        0.0002        4.5757        4.5760       4.494310       0.16218
  10     361.9        0.0822        0.0002        3.9995        3.9998       3.917623       0.14591
   9     398.1        0.0830        0.0002        3.4655        3.4657       3.382727       0.12462
   8     437.6        0.0844        0.0002        2.9740        2.9743       2.889883       0.10537
   7     480.5        0.0866        0.0002        2.5307        2.5309       2.444251       0.08752
   6     533.0        0.0910        0.0002        2.0614        2.0616       1.970595       0.07620
   5     589.8        0.0989        0.0002        1.6150        1.6151       1.516199       0.06745
   4     651.6        0.1156        0.0001        1.1565        1.1566       1.041005       0.06498
   3     718.7        0.1523        0.0001        0.7390        0.7391       0.586773       0.05708
   2     792.3        0.2509        0.0001        0.3985        0.3985       0.147656       0.05036
   1     891.5        0.0000        0.0031        0.0000        0.0031       0.003053       0.01231
   0    1013.0        0.0000        0.0003        0.0000        0.0003       0.000295       0.00019



 Wavenumbers:  4000. -  4650. cm-1, ATM      1
 LEVEL PRESSURE   UPWARD FLUX   DIFDOWN FLUX  DIRDOWN FLUX  DOWNWARD FLUX   NET FLUX    HEATING RATE
          mb          W/m2          W/m2          W/m2        W/m2          W/m2       degree/day
  51    .06700        6.7666        0.0000       10.7795       10.7795       4.012920       0.00000
  50    .07753        6.7666        0.0000       10.7795       10.7795       4.012919       0.00080
  49    .09103        6.7666        0.0000       10.7795       10.7795       4.012918       0.00078
  48    0.1069        6.7666        0.0000       10.7795       10.7795       4.012916       0.00077
  47    0.1255        6.7666        0.0000       10.7795       10.7795       4.012915       0.00075
  46    0.1487        6.7666        0.0000       10.7795       10.7795       4.012913       0.00076
  45    0.1794        6.7666        0.0000       10.7795       10.7795       4.012910       0.00078
  44    0.2165        6.7666        0.0000       10.7795       10.7795       4.012907       0.00076
  43    0.2613        6.7666        0.0000       10.7795       10.7795       4.012903       0.00075
  42    0.3336        6.7666        0.0000       10.7795       10.7795       4.012896       0.00077
  41    0.4307        6.7666        0.0000       10.7795       10.7795       4.012887       0.00078
  40    0.5894        6.7666        0.0000       10.7795       10.7795       4.012872       0.00080
  39     1.339        6.7666        0.0000       10.7794       10.7794       4.012782       0.00101
  38     1.782        6.7666        0.0000       10.7793       10.7793       4.012712       0.00133
  37     2.292        6.7666        0.0000       10.7792       10.7792       4.012618       0.00156
  36     2.964        6.7666        0.0000       10.7791       10.7791       4.012477       0.00177
  35     3.853        6.7666        0.0000       10.7789       10.7789       4.012269       0.00198
  34     5.035        6.7666        0.0000       10.7786       10.7786       4.011961       0.00220
  33     6.613        6.7666        0.0000       10.7781       10.7781       4.011507       0.00242
  32     8.786        6.7666        0.0000       10.7774       10.7775       4.010838       0.00260
  31     11.80        6.7666        0.0001       10.7763       10.7764       4.009785       0.00295
  30     15.07        6.7666        0.0001       10.7751       10.7752       4.008549       0.00319
  29     18.79        6.7666        0.0001       10.7736       10.7737       4.007054       0.00339
  28     23.16        6.7666        0.0001       10.7717       10.7718       4.005195       0.00359
  27     28.12        6.7667        0.0001       10.7695       10.7696       4.002942       0.00383
  26     33.73        6.7667        0.0002       10.7667       10.7668       4.000160       0.00418
  25     40.54        6.7667        0.0002       10.7629       10.7631       3.996383       0.00469
  24     48.69        6.7668        0.0002       10.7579       10.7582       3.991341       0.00522
  23     57.69        6.7669        0.0003       10.7520       10.7523       3.985353       0.00561
  22     68.43        6.7671        0.0003       10.7446       10.7449       3.977832       0.00591
  21     81.20        6.7674        0.0004       10.7355       10.7359       3.968549       0.00613
  20     96.49        6.7677        0.0005       10.7245       10.7250       3.957221       0.00625
  19     114.6        6.7683        0.0006       10.7107       10.7113       3.943011       0.00664
  18     136.5        6.7690        0.0007       10.6942       10.6949       3.925829       0.00661
  17     162.9        6.7702        0.0008       10.6740       10.6748       3.904671       0.00676
  16     196.4        6.7720        0.0010       10.6464       10.6473       3.875315       0.00739
  15     218.7        6.7737        0.0011       10.6255       10.6265       3.852873       0.00852
  14     243.0        6.7761        0.0012       10.5980       10.5993       3.823197       0.01029
  13     269.0        6.7796        0.0013       10.5611       10.5624       3.782848       0.01309
  12     297.5        6.7847        0.0015       10.5119       10.5134       3.728712       0.01606
  11     328.5        6.7917        0.0016       10.4499       10.4515       3.659764       0.01875
  10     361.9        6.8009        0.0018       10.3702       10.3719       3.571003       0.02246
   9     398.1        6.8126        0.0019       10.2678       10.2697       3.457140       0.02653
   8     437.6        6.8275        0.0021       10.1390       10.1411       3.313586       0.03069
   7     480.5        6.8468        0.0023        9.9877        9.9900       3.143190       0.03347
   6     533.0        6.8768        0.0025        9.7937        9.7962       2.919418       0.03600
   5     589.8        6.9206        0.0027        9.5752        9.5779       2.657250       0.03891
   4     651.6        6.9925        0.0029        9.2958        9.2987       2.306197       0.04801
   3     718.7        7.1162        0.0032        8.9267        8.9299       1.813729       0.06189
   2     792.3        7.3565        0.0034        8.4542        8.4576       1.101125       0.08173
   1     891.5        0.1061        0.7994        0.0000        0.7994       0.693328       0.03470
   0    1013.0        0.1118        0.7489        0.0000        0.7489       0.637102       0.00390



 Wavenumbers:  4650. -  5150. cm-1, ATM      1
 LEVEL PRESSURE   UPWARD FLUX   DIFDOWN FLUX  DIRDOWN FLUX  DOWNWARD FLUX   NET FLUX    HEATING RATE
          mb          W/m2          W/m2          W/m2        W/m2          W/m2       degree/day
  51    .06700        4.8946        0.0000       10.2033       10.2033       5.308725       0.00000
  50    .07753        4.8946        0.0000       10.2031       10.2031       5.308489       0.18901
  49    .09103        4.8946        0.0000       10.2028       10.2028       5.308194       0.18428
  48    0.1069        4.8946        0.0000       10.2025       10.2025       5.307858       0.17931
  47    0.1255        4.8946        0.0000       10.2021       10.2021       5.307473       0.17426
  46    0.1487        4.8946        0.0000       10.2016       10.2016       5.306992       0.17536
  45    0.1794        4.8946        0.0000       10.2010       10.2010       5.306342       0.17850
  44    0.2165        4.8946        0.0000       10.2002       10.2002       5.305582       0.17277
  43    0.2613        4.8946        0.0000       10.1993       10.1993       5.304697       0.16690
  42    0.3336        4.8946        0.0000       10.1979       10.1979       5.303264       0.16702
  41    0.4307        4.8946        0.0000       10.1960       10.1960       5.301424       0.16002
  40    0.5894        4.8946        0.0000       10.1932       10.1932       5.298550       0.15283
  39     1.339        4.8946        0.0000       10.1816       10.1816       5.286958       0.13051
  38     1.782        4.8946        0.0000       10.1760       10.1760       5.281428       0.10527
  37     2.292        4.8946        0.0000       10.1706       10.1706       5.275971       0.09039
  36     2.964        4.8946        0.0000       10.1646       10.1647       5.270046       0.07437
  35     3.853        4.8946        0.0000       10.1584       10.1584       5.263829       0.05900
  34     5.035        4.8946        0.0000       10.1521       10.1521       5.257489       0.04529
  33     6.613        4.8946        0.0000       10.1456       10.1456       5.251025       0.03456
  32     8.786        4.8946        0.0001       10.1386       10.1386       5.244001       0.02728
  31     11.80        4.8947        0.0001       10.1295       10.1296       5.234936       0.02538
  30     15.07        4.8947        0.0001       10.1196       10.1197       5.225024       0.02559
  29     18.79        4.8947        0.0001       10.1076       10.1077       5.212970       0.02733
  28     23.16        4.8948        0.0002       10.0923       10.0924       5.197599       0.02972
  27     28.12        4.8949        0.0002       10.0731       10.0733       5.178414       0.03261
  26     33.73        4.8951        0.0002       10.0500       10.0503       5.155199       0.03490
  25     40.54        4.8953        0.0003       10.0201       10.0204       5.125123       0.03731
  24     48.69        4.8956        0.0003        9.9820        9.9823       5.086705       0.03976
  23     57.69        4.8960        0.0004        9.9384        9.9389       5.042852       0.04111
  22     68.43        4.8966        0.0005        9.8858        9.8862       4.989684       0.04180
  21     81.20        4.8973        0.0006        9.8234        9.8240       4.926689       0.04163
  20     96.49        4.8984        0.0007        9.7518        9.7524       4.854039       0.04010
  19     114.6        4.8999        0.0008        9.6719        9.6727       4.772840       0.03791
  18     136.5        4.9019        0.0010        9.5858        9.5868       4.684822       0.03385
  17     162.9        4.9048        0.0011        9.4940        9.4952       4.590398       0.03018
  16     196.4        4.9091        0.0013        9.3883        9.3896       4.480493       0.02766
  15     218.7        4.9126        0.0015        9.3229        9.3244       4.411853       0.02606
  14     243.0        4.9170        0.0016        9.2520        9.2536       4.336644       0.02609
  13     269.0        4.9229        0.0018        9.1717        9.1735       4.250575       0.02792
  12     297.5        4.9311        0.0020        9.0763        9.0783       4.147136       0.03068
  11     328.5        4.9419        0.0022        8.9650        8.9671       4.025292       0.03313
  10     361.9        4.9557        0.0024        8.8349        8.8373       3.881609       0.03635
   9     398.1        4.9737        0.0026        8.6820        8.6846       3.710941       0.03976
   8     437.6        4.9971        0.0028        8.5028        8.5056       3.508536       0.04328
   7     480.5        5.0276        0.0030        8.2948        8.2978       3.270264       0.04680
   6     533.0        5.0742        0.0033        8.0209        8.0241       2.949921       0.05153
   5     589.8        5.1394        0.0035        7.7063        7.7098       2.570461       0.05632
   4     651.6        5.2364        0.0037        7.3412        7.3450       2.108580       0.06316
   3     718.7        5.3847        0.0040        6.9387        6.9426       1.557970       0.06920
   2     792.3        5.6260        0.0042        6.5066        6.5108       0.884777       0.07721
   1     891.5        0.0252        0.5448        0.0000        0.5448       0.519675       0.03107
   0    1013.0        0.0269        0.5026        0.0000        0.5026       0.475669       0.00306



 Wavenumbers:  5150. -  6150. cm-1, ATM      1
 LEVEL PRESSURE   UPWARD FLUX   DIFDOWN FLUX  DIRDOWN FLUX  DOWNWARD FLUX   NET FLUX    HEATING RATE
          mb          W/m2          W/m2          W/m2        W/m2          W/m2       degree/day
  51    .06700       11.5641        0.0000       25.5798       25.5798      14.015752       0.00000
  50    .07753       11.5641        0.0000       25.5798       25.5798      14.015712       0.03163
  49    .09103       11.5641        0.0000       25.5797       25.5797      14.015661       0.03211
  48    0.1069       11.5641        0.0000       25.5797       25.5797      14.015599       0.03262
  47    0.1255       11.5641        0.0000       25.5796       25.5796      14.015526       0.03312
  46    0.1487       11.5641        0.0000       25.5795       25.5795      14.015431       0.03489
  45    0.1794       11.5641        0.0000       25.5794       25.5794      14.015295       0.03714
  44    0.2165       11.5641        0.0000       25.5792       25.5792      14.015130       0.03770
  43    0.2613       11.5641        0.0000       25.5790       25.5790      14.014927       0.03828
  42    0.3336       11.5641        0.0000       25.5786       25.5786      14.014580       0.04044
  41    0.4307       11.5641        0.0000       25.5782       25.5782      14.014108       0.04098
  40    0.5894       11.5641        0.0000       25.5774       25.5774      14.013319       0.04200
  39     1.339       11.5641        0.0000       25.5735       25.5736      14.009514       0.04284
  38     1.782       11.5641        0.0001       25.5713       25.5714      14.007297       0.04219
  37     2.292       11.5641        0.0001       25.5688       25.5688      14.004789       0.04155
  36     2.964       11.5641        0.0001       25.5656       25.5657      14.001600       0.04002
  35     3.853       11.5641        0.0001       25.5615       25.5616      13.997547       0.03847
  34     5.035       11.5641        0.0002       25.5562       25.5564      13.992324       0.03730
  33     6.613       11.5641        0.0002       25.5494       25.5496      13.985548       0.03623
  32     8.786       11.5641        0.0003       25.5406       25.5409      13.976762       0.03412
  31     11.80       11.5642        0.0004       25.5287       25.5290      13.964872       0.03329
  30     15.07       11.5642        0.0005       25.5167       25.5172      13.952940       0.03081
  29     18.79       11.5643        0.0006       25.5042       25.5048      13.940456       0.02831
  28     23.16       11.5644        0.0007       25.4907       25.4914      13.926995       0.02603
  27     28.12       11.5646        0.0009       25.4764       25.4774      13.912786       0.02415
  26     33.73       11.5648        0.0011       25.4620       25.4631      13.898360       0.02169
  25     40.54       11.5650        0.0013       25.4463       25.4476      13.882545       0.01962
  24     48.69       11.5654        0.0016       25.4294       25.4309      13.865555       0.01758
  23     57.69       11.5658        0.0019       25.4126       25.4145      13.848631       0.01586
  22     68.43       11.5664        0.0022       25.3944       25.3966      13.830195       0.01449
  21     81.20       11.5672        0.0026       25.3744       25.3770      13.809846       0.01345
  20     96.49       11.5681        0.0031       25.3519       25.3550      13.786919       0.01265
  19     114.6       11.5693        0.0037       25.3262       25.3299      13.760575       0.01230
  18     136.5       11.5707        0.0044       25.2962       25.3006      13.729862       0.01181
  17     162.9       11.5725        0.0052       25.2521       25.2573      13.684813       0.01440
  16     196.4       11.5749        0.0063       25.1593       25.1656      13.590623       0.02371
  15     218.7       11.5767        0.0070       25.0159       25.0229      13.446176       0.05484
  14     243.0       11.5789        0.0077       24.7089       24.7166      13.137690       0.10699
  13     269.0       11.5817        0.0084       24.1619       24.1702      12.588538       0.17814
  12     297.5       11.5855        0.0090       23.4544       23.4634      11.877969       0.21075
  11     328.5       11.5904        0.0098       22.7355       22.7452      11.154801       0.19663
  10     361.9       11.5970        0.0105       21.9224       21.9329      10.335906       0.20719
   9     398.1       11.6059        0.0112       20.9939       21.0051       9.399232       0.21822
   8     437.6       11.6182        0.0119       19.9833       19.9952       8.376973       0.21857
   7     480.5       11.6354        0.0125       18.9483       18.9608       7.325438       0.20652
   6     533.0       11.6646        0.0133       17.7796       17.7929       6.128241       0.19259
   5     589.8       11.7123        0.0141       16.6726       16.6866       4.974362       0.17127
   4     651.6       11.7999        0.0148       15.6343       15.6491       3.849211       0.15387
   3     718.7       11.9620        0.0157       14.7738       14.7895       2.827528       0.12840
   2     792.3       12.2919        0.0167       14.0291       14.0458       1.753848       0.12314
   1     891.5        0.2324        1.4121        0.0000        1.4121       1.179686       0.04886
   0    1013.0        0.2397        1.3480        0.0000        1.3480       1.108308       0.00496



 Wavenumbers:  6150. -  7700. cm-1, ATM      1
 LEVEL PRESSURE   UPWARD FLUX   DIFDOWN FLUX  DIRDOWN FLUX  DOWNWARD FLUX   NET FLUX    HEATING RATE
          mb          W/m2          W/m2          W/m2        W/m2          W/m2       degree/day
  51    .06700       18.6756        0.0000       47.3109       47.3109      28.635245       0.00000
  50    .07753       18.6756        0.0000       47.3108       47.3108      28.635188       0.04553
  49    .09103       18.6756        0.0000       47.3107       47.3107      28.635115       0.04583
  48    0.1069       18.6756        0.0000       47.3106       47.3106      28.635028       0.04614
  47    0.1255       18.6756        0.0000       47.3105       47.3105      28.634926       0.04645
  46    0.1487       18.6756        0.0000       47.3104       47.3104      28.634792       0.04852
  45    0.1794       18.6756        0.0000       47.3102       47.3102      28.634606       0.05127
  44    0.2165       18.6756        0.0000       47.3100       47.3100      28.634379       0.05167
  43    0.2613       18.6756        0.0000       47.3097       47.3097      28.634102       0.05210
  42    0.3336       18.6756        0.0000       47.3092       47.3092      28.633633       0.05471
  41    0.4307       18.6756        0.0000       47.3085       47.3086      28.632998       0.05521
  40    0.5894       18.6756        0.0001       47.3074       47.3075      28.631939       0.05633
  39     1.339       18.6755        0.0002       47.3022       47.3024      28.626846       0.05733
  38     1.782       18.6755        0.0002       47.2991       47.2994      28.623876       0.05655
  37     2.292       18.6754        0.0003       47.2956       47.2959      28.620500       0.05591
  36     2.964       18.6754        0.0004       47.2912       47.2916      28.616182       0.05421
  35     3.853       18.6753        0.0005       47.2855       47.2860      28.610647       0.05252
  34     5.035       18.6752        0.0007       47.2780       47.2787      28.603467       0.05130
  33     6.613       18.6751        0.0009       47.2683       47.2692      28.594079       0.05019
  32     8.786       18.6750        0.0012       47.2556       47.2567      28.581779       0.04777
  31     11.80       18.6747        0.0016       47.2380       47.2396      28.564875       0.04733
  30     15.07       18.6745        0.0020       47.2201       47.2221      28.547586       0.04464
  29     18.79       18.6742        0.0025       47.2008       47.2033      28.529106       0.04190
  28     23.16       18.6739        0.0031       47.1795       47.1826      28.508714       0.03943
  27     28.12       18.6735        0.0037       47.1565       47.1602      28.486718       0.03739
  26     33.73       18.6731        0.0045       47.1324       47.1369      28.463793       0.03447
  25     40.54       18.6726        0.0054       47.1054       47.1107      28.438153       0.03181
  24     48.69       18.6720        0.0064       47.0754       47.0819      28.409895       0.02924
  23     57.69       18.6713        0.0076       47.0449       47.0526      28.381266       0.02683
  22     68.43       18.6705        0.0090       47.0110       47.0200      28.349521       0.02496
  21     81.20       18.6696        0.0107       46.9729       46.9836      28.314015       0.02346
  20     96.49       18.6685        0.0127       46.9294       46.9421      28.273658       0.02227
  19     114.6       18.6672        0.0151       46.8790       46.8942      28.227000       0.02179
  18     136.5       18.6656        0.0180       46.8200       46.8379      28.172343       0.02102
  17     162.9       18.6638        0.0214       46.7361       46.7575      28.093659       0.02515
  16     196.4       18.6617        0.0257       46.5703       46.5960      27.934304       0.04011
  15     218.7       18.6605        0.0285       46.3473       46.3758      27.715344       0.08313
  14     243.0       18.6596        0.0315       45.9299       45.9613      27.301704       0.14346
  13     269.0       18.6597        0.0345       45.1708       45.2052      26.545541       0.24530
  12     297.5       18.6616        0.0374       44.0115       44.0489      25.387280       0.34353
  11     328.5       18.6659        0.0404       42.7242       42.7646      24.098699       0.35036
  10     361.9       18.6739        0.0434       41.3539       41.3974      22.723436       0.34796
   9     398.1       18.6877        0.0464       39.7953       39.8417      21.153968       0.36565
   8     437.6       18.7109        0.0493       37.9948       38.0441      19.333155       0.38930
   7     480.5       18.7478        0.0520       36.0647       36.1167      17.368915       0.38577
   6     533.0       18.8172        0.0550       33.7773       33.8323      15.015110       0.37865
   5     589.8       18.9382        0.0577       31.4082       31.4659      12.527771       0.36920
   4     651.6       19.1725        0.0600       28.8834       28.9434       9.770926       0.37701
   3     718.7       19.6250        0.0621       26.4104       26.4724       6.847482       0.36740
   2     792.3       20.6082        0.0638       24.0056       24.0694       3.461174       0.38837
   1     891.5        0.4756        2.2971        0.0000        2.2971       1.821459       0.13953
   0    1013.0        0.5018        2.1291        0.0000        2.1291       1.627240       0.01349



 Wavenumbers:  7700. -  8050. cm-1, ATM      1
 LEVEL PRESSURE   UPWARD FLUX   DIFDOWN FLUX  DIRDOWN FLUX  DOWNWARD FLUX   NET FLUX    HEATING RATE
          mb          W/m2          W/m2          W/m2        W/m2          W/m2       degree/day
  51    .06700        8.5361        0.0000       11.1810       11.1810       2.644911       0.00000
  50    .07753        8.5361        0.0000       11.1809       11.1809       2.644887       0.01910
  49    .09103        8.5361        0.0000       11.1809       11.1809       2.644857       0.01872
  48    0.1069        8.5361        0.0000       11.1809       11.1809       2.644823       0.01832
  47    0.1255        8.5361        0.0000       11.1809       11.1809       2.644783       0.01793
  46    0.1487        8.5361        0.0000       11.1808       11.1808       2.644733       0.01820
  45    0.1794        8.5361        0.0000       11.1808       11.1808       2.644665       0.01872
  44    0.2165        8.5361        0.0000       11.1807       11.1807       2.644584       0.01837
  43    0.2613        8.5362        0.0000       11.1806       11.1806       2.644489       0.01802
  42    0.3336        8.5362        0.0000       11.1805       11.1805       2.644330       0.01844
  41    0.4307        8.5362        0.0000       11.1803       11.1804       2.644121       0.01824
  40    0.5894        8.5363        0.0000       11.1801       11.1801       2.643778       0.01822
  39     1.339        8.5367        0.0001       11.1788       11.1789       2.642157       0.01825
  38     1.782        8.5370        0.0001       11.1781       11.1782       2.641204       0.01813
  37     2.292        8.5372        0.0001       11.1772       11.1773       2.640102       0.01826
  36     2.964        8.5376        0.0002       11.1761       11.1763       2.638655       0.01817
  35     3.853        8.5381        0.0002       11.1746       11.1748       2.636742       0.01815
  34     5.035        8.5387        0.0003       11.1726       11.1729       2.634202       0.01815
  33     6.613        8.5396        0.0004       11.1700       11.1704       2.630808       0.01814
  32     8.786        8.5407        0.0005       11.1664       11.1669       2.626236       0.01776
  31     11.80        8.5423        0.0007       11.1613       11.1620       2.619697       0.01831
  30     15.07        8.5441        0.0009       11.1558       11.1568       2.612680       0.01812
  29     18.79        8.5461        0.0012       11.1497       11.1508       2.604758       0.01796
  28     23.16        8.5484        0.0014       11.1425       11.1439       2.595514       0.01788
  27     28.12        8.5511        0.0017       11.1343       11.1361       2.584954       0.01795
  26     33.73        8.5541        0.0021       11.1252       11.1273       2.573152       0.01774
  25     40.54        8.5578        0.0025       11.1142       11.1167       2.558917       0.01766
  24     48.69        8.5622        0.0030       11.1010       11.1040       2.541793       0.01772
  23     57.69        8.5671        0.0035       11.0866       11.0901       2.523030       0.01759
  22     68.43        8.5730        0.0042       11.0695       11.0737       2.500750       0.01752
  21     81.20        8.5800        0.0050       11.0494       11.0543       2.474300       0.01748
  20     96.49        8.5885        0.0059       11.0255       11.0314       2.442919       0.01732
  19     114.6        8.5987        0.0070       10.9975       11.0045       2.405845       0.01731
  18     136.5        8.6109        0.0083       10.9648       10.9731       2.362157       0.01680
  17     162.9        8.6257        0.0098       10.9263       10.9361       2.310468       0.01652
  16     196.4        8.6452        0.0119       10.8773       10.8891       2.243939       0.01675
  15     218.7        8.6582        0.0132       10.8455       10.8587       2.200495       0.01649
  14     243.0        8.6726        0.0146       10.8114       10.8260       2.153427       0.01632
  13     269.0        8.6885        0.0162       10.7749       10.7910       2.102505       0.01652
  12     297.5        8.7061        0.0178       10.7357       10.7535       2.047426       0.01634
  11     328.5        8.7256        0.0196       10.6937       10.7134       1.987780       0.01622
  10     361.9        8.7472        0.0216       10.6489       10.6704       1.923241       0.01633
   9     398.1        8.7713        0.0237       10.6008       10.6244       1.853164       0.01633
   8     437.6        8.7982        0.0259       10.5491       10.5750       1.776745       0.01634
   7     480.5        8.8285        0.0283       10.4934       10.5218       1.693217       0.01640
   6     533.0        8.8681        0.0313       10.4243       10.4556       1.587500       0.01701
   5     589.8        8.9142        0.0345       10.3479       10.3824       1.468187       0.01771
   4     651.6        8.9696        0.0379       10.2613       10.2992       1.329668       0.01894
   3     718.7        9.0375        0.0415       10.1618       10.2033       1.165738       0.02060
   2     792.3        9.1242        0.0454       10.0439       10.0893       0.965083       0.02301
   1     891.5        1.0344        1.8558        0.0000        1.8558       0.821418       0.01223
   0    1013.0        1.0553        1.8174        0.0000        1.8174       0.762025       0.00412



 Wavenumbers:  8050. - 12850. cm-1, ATM      1
 LEVEL PRESSURE   UPWARD FLUX   DIFDOWN FLUX  DIRDOWN FLUX  DOWNWARD FLUX   NET FLUX    HEATING RATE
          mb          W/m2          W/m2          W/m2        W/m2          W/m2       degree/day
  51    .06700      114.1615        0.0000      156.5418      156.5418      42.380242       0.00000
  50    .07753      114.1615        0.0000      156.5417      156.5417      42.380242       0.00000
  49    .09103      114.1615        0.0001      156.5417      156.5417      42.380242      -0.00000
  48    0.1069      114.1615        0.0001      156.5416      156.5417      42.380242       0.00000
  47    0.1255      114.1615        0.0002      156.5415      156.5417      42.380242      -0.00000
  46    0.1487      114.1614        0.0002      156.5414      156.5417      42.380242       0.00000
  45    0.1794      114.1614        0.0003      156.5413      156.5416      42.380242       0.00000
  44    0.2165      114.1614        0.0005      156.5412      156.5416      42.380242      -0.00000
  43    0.2613      114.1613        0.0006      156.5410      156.5416      42.380242      -0.00000
  42    0.3336      114.1613        0.0008      156.5407      156.5415      42.380242       0.00000
  41    0.4307      114.1612        0.0011      156.5403      156.5414      42.380242       0.00000
  40    0.5894      114.1610        0.0016      156.5397      156.5413      42.380242       0.00000
  39     1.339      114.1603        0.0038      156.5367      156.5406      42.380242       0.00000
  38     1.782      114.1599        0.0052      156.5350      156.5401      42.380242      -0.00000
  37     2.292      114.1594        0.0067      156.5330      156.5397      42.380242      -0.00000
  36     2.964      114.1588        0.0087      156.5303      156.5390      42.380242       0.00000
  35     3.853      114.1580        0.0114      156.5268      156.5382      42.380242      -0.00000
  34     5.035      114.1569        0.0149      156.5222      156.5371      42.380242       0.00000
  33     6.613      114.1554        0.0196      156.5160      156.5356      42.380242      -0.00000
  32     8.786      114.1534        0.0260      156.5076      156.5336      42.380242      -0.00000
  31     11.80      114.1506        0.0351      156.4957      156.5308      42.380242       0.00000
  30     15.07      114.1475        0.0450      156.4828      156.5277      42.380242       0.00000
  29     18.79      114.1440        0.0561      156.4682      156.5243      42.380242      -0.00000
  28     23.16      114.1400        0.0690      156.4512      156.5202      42.380242       0.00000
  27     28.12      114.1354        0.0839      156.4317      156.5156      42.380242      -0.00000
  26     33.73      114.1302        0.1006      156.4099      156.5104      42.380242       0.00000
  25     40.54      114.1239        0.1207      156.3834      156.5041      42.380242       0.00000
  24     48.69      114.1163        0.1450      156.3515      156.4966      42.380242      -0.00000
  23     57.69      114.1080        0.1718      156.3164      156.4882      42.380242       0.00000
  22     68.43      114.0980        0.2037      156.2746      156.4783      42.380242       0.00000
  21     81.20      114.0862        0.2418      156.2246      156.4664      42.380242      -0.00000
  20     96.49      114.0720        0.2873      156.1649      156.4522      42.380242       0.00000
  19     114.6      114.0554        0.3414      156.0879      156.4293      42.373945       0.00294
  18     136.5      114.0356        0.4056      155.9962      156.4018      42.366139       0.00300
  17     162.9      114.0122        0.4823      155.8831      156.3654      42.353204       0.00413
  16     196.4      113.9818        0.5820      155.7199      156.3020      42.320133       0.00832
  15     218.7      113.9624        0.6476      155.5733      156.2209      42.258498       0.02340
  14     243.0      113.9427        0.7189      155.3367      156.0556      42.112908       0.05050
  13     269.0      113.9245        0.7960      154.9514      155.7474      41.822914       0.09407
  12     297.5      113.9112        0.8791      154.3896      155.2687      41.357475       0.13804
  11     328.5      113.9049        0.9687      153.7151      154.6838      40.778882       0.15732
  10     361.9      113.9099        1.0649      152.9087      153.9736      40.063677       0.18095
   9     398.1      113.9336        1.1678      151.8986      153.0664      39.132739       0.21689
   8     437.6      113.9887        1.2773      150.6031      151.8804      37.891779       0.26533
   7     480.5      114.0903        1.3932      149.0014      150.3946      36.304222       0.31179
   6     533.0      114.2967        1.5334      146.7375      148.2710      33.974277       0.37481
   5     589.8      114.6709        1.6805      143.8730      145.5535      30.882544       0.45891
   4     651.6      115.4013        1.8314      140.0955      141.9269      26.525609       0.59582
   3     718.7      116.7726        1.9846      135.5278      137.5124      20.739726       0.72713
   2     792.3      119.5198        2.1361      130.0690      132.2051      12.685326       0.92375
   1     891.5       32.2286       39.7725        0.0000       39.7725       7.543991       0.43750
   0    1013.0       33.0016       38.6345        0.0000       38.6345       5.632905       0.13270



 Wavenumbers: 12850. - 16000. cm-1, ATM      1
 LEVEL PRESSURE   UPWARD FLUX   DIFDOWN FLUX  DIRDOWN FLUX  DOWNWARD FLUX   NET FLUX    HEATING RATE
          mb          W/m2          W/m2          W/m2        W/m2          W/m2       degree/day
  51    .06700       82.8743        0.0000       98.0872       98.0872      15.212939       0.00000
  50    .07753       82.8743        0.0001       98.0864       98.0864      15.212146       0.63590
  49    .09103       82.8743        0.0002       98.0853       98.0855      15.211149       0.62302
  48    0.1069       82.8743        0.0003       98.0841       98.0843      15.210003       0.60991
  47    0.1255       82.8743        0.0004       98.0826       98.0830      15.208686       0.59714
  46    0.1487       82.8744        0.0005       98.0809       98.0814      15.207022       0.60631
  45    0.1794       82.8744        0.0007       98.0784       98.0792      15.204758       0.62159
  44    0.2165       82.8745        0.0010       98.0756       98.0766      15.202093       0.60636
  43    0.2613       82.8747        0.0013       98.0723       98.0736      15.198955       0.59139
  42    0.3336       82.8749        0.0018       98.0670       98.0688      15.193829       0.59768
  41    0.4307       82.8754        0.0024       98.0602       98.0626      15.187191       0.57712
  40    0.5894       82.8763        0.0034       98.0496       98.0530      15.176713       0.55725
  39     1.339       82.8838        0.0083       98.0043       98.0127      15.128914       0.53813
  38     1.782       82.8905        0.0112       97.9793       97.9905      15.100012       0.55024
  37     2.292       82.9004        0.0145       97.9498       97.9643      15.063875       0.59852
  36     2.964       82.9169        0.0189       97.9088       97.9277      15.010860       0.66550
  35     3.853       82.9433        0.0247       97.8503       97.8750      14.931750       0.75077
  34     5.035       82.9830        0.0323       97.7680       97.8003      14.817354       0.81720
  33     6.613       83.0384        0.0426       97.6562       97.6987      14.660371       0.83923
  32     8.786       83.1106        0.0563       97.5107       97.5670      14.456451       0.79195
  31     11.80       83.2046        0.0760       97.3179       97.3939      14.189242       0.74810
  30     15.07       83.2950        0.0971       97.1283       97.2255      13.930512       0.66799
  29     18.79       83.3874        0.1210       96.9300       97.0510      13.663638       0.60509
  28     23.16       83.4842        0.1488       96.7166       96.8654      13.381171       0.54620
  27     28.12       83.5820        0.1806       96.4935       96.6741      13.092112       0.49138
  26     33.73       83.6728        0.2162       96.2731       96.4893      12.816426       0.41450
  25     40.54       83.7612        0.2592       96.0408       96.3000      12.538783       0.34445
  24     48.69       83.8468        0.3110       95.7946       96.1056      12.258775       0.28976
  23     57.69       83.9208        0.3680       95.5573       95.9253      12.004507       0.23834
  22     68.43       83.9871        0.4359       95.3106       95.7465      11.759459       0.19264
  21     81.20       84.0361        0.5169       95.0643       95.5812      11.545097       0.14165
  20     96.49       84.0671        0.6136       94.8153       95.4288      11.361745       0.10120
  19     114.6       84.1015        0.7294       94.5411       95.2704      11.168878       0.09006
  18     136.5       84.1308        0.8667       94.2320       95.0987      10.967892       0.07728
  17     162.9       84.1552        1.0301       93.8753       94.9055      10.750304       0.06955
  16     196.4       84.1643        1.2422       93.4347       94.6769      10.512574       0.05984
  15     218.7       84.1625        1.3815       93.1513       94.5328      10.370292       0.05402
  14     243.0       84.1575        1.5329       92.8439       94.3768      10.219340       0.05236
  13     269.0       84.1495        1.6969       92.5111       94.2080      10.058565       0.05215
  12     297.5       84.1394        1.8742       92.1495       94.0237       9.884222       0.05171
  11     328.5       84.1298        2.0657       91.7554       93.8211       9.691305       0.05245
  10     361.9       84.1221        2.2720       91.3262       93.5982       9.476112       0.05445
   9     398.1       84.1183        2.4938       90.8575       93.3514       9.233041       0.05663
   8     437.6       84.1229        2.7320       90.3418       93.0738       8.950933       0.06032
   7     480.5       84.1399        2.9871       89.7728       92.7599       8.619962       0.06500
   6     533.0       84.1840        3.3006       89.0428       92.3435       8.159472       0.07408
   5     589.8       84.2737        3.6375       88.2038       91.8413       7.567653       0.08785
   4     651.6       84.4550        3.9972       87.1979       91.1952       6.740139       0.11316
   3     718.7       84.7652        4.3784       86.0161       90.3945       5.629264       0.13961
   2     792.3       85.3132        4.7770       84.5970       89.3741       4.060924       0.17987
   1     891.5       48.0485       50.7934        0.0000       50.7934       2.744908       0.11199
   0    1013.0       48.5283       50.2364        0.0000       50.2364       1.708037       0.07200



 Wavenumbers: 16000. - 22650. cm-1, ATM      1
 LEVEL PRESSURE   UPWARD FLUX   DIFDOWN FLUX  DIRDOWN FLUX  DOWNWARD FLUX   NET FLUX    HEATING RATE
          mb          W/m2          W/m2          W/m2        W/m2          W/m2       degree/day
  51    .06700      141.0880        0.0000      156.3892      156.3892      15.301281       0.00000
  50    .07753      141.0879        0.0004      156.3887      156.3891      15.301133       0.11844
  49    .09103      141.0879        0.0009      156.3879      156.3888      15.300918       0.13434
  48    0.1069      141.0879        0.0015      156.3871      156.3885      15.300631       0.15319
  47    0.1255      141.0879        0.0021      156.3861      156.3882      15.300246       0.17462
  46    0.1487      141.0880        0.0030      156.3847      156.3877      15.299678       0.20692
  45    0.1794      141.0881        0.0041      156.3828      156.3869      15.298790       0.24363
  44    0.2165      141.0883        0.0054      156.3805      156.3859      15.297587       0.27381
  43    0.2613      141.0887        0.0070      156.3776      156.3846      15.295954       0.30783
  42    0.3336      141.0894        0.0097      156.3726      156.3823      15.292849       0.36200
  41    0.4307      141.0907        0.0131      156.3657      156.3789      15.288169       0.40693
  40    0.5894      141.0933        0.0189      156.3537      156.3725      15.279243       0.47467
  39     1.339      141.1160        0.0458      156.2834      156.3293      15.213297       0.74243
  38     1.782      141.1369        0.0617      156.2324      156.2940      15.157119       1.06954
  37     2.292      141.1683        0.0800      156.1641      156.2441      15.075801       1.34684
  36     2.964      141.2205        0.1041      156.0605      156.1646      14.944065       1.65369
  35     3.853      141.3049        0.1359      155.9041      156.0400      14.735031       1.98377
  34     5.035      141.4322        0.1781      155.6774      155.8554      14.423169       2.22781
  33     6.613      141.6102        0.2343      155.3656      155.5999      13.989770       2.31695
  32     8.786      141.8419        0.3101      154.9577      155.2677      13.425817       2.19019
  31     11.80      142.1435        0.4183      154.4153      154.8335      12.690000       2.06005
  30     15.07      142.4325        0.5343      153.8804      154.4146      11.982164       1.82749
  29     18.79      142.7275        0.6651      153.3191      153.9842      11.256694       1.64486
  28     23.16      143.0358        0.8177      152.7126      153.5302      10.494407       1.47402
  27     28.12      143.3461        0.9919      152.0755      153.0674       9.721315       1.31420
  26     33.73      143.6325        1.1867      151.4409      152.6276       8.995146       1.09182
  25     40.54      143.9081        1.4218      150.7637      152.1855       8.277425       0.89041
  24     48.69      144.1720        1.7050      150.0338      151.7388       7.566866       0.73532
  23     57.69      144.3957        2.0157      149.3151      151.3308       6.935103       0.59218
  22     68.43      144.5909        2.3853      148.5476      150.9329       6.342042       0.46623
  21     81.20      144.7256        2.8254      147.7517      150.5770       5.851438       0.32418
  20     96.49      144.7955        3.3492      146.9127      150.2619       5.466437       0.21249
  19     114.6      144.8317        3.9695      145.9763      149.9457       5.114091       0.16452
  18     136.5      144.8431        4.7018      144.9088      149.6106       4.767473       0.13328
  17     162.9      144.8281        5.5698      143.6785      149.2484       4.420261       0.11098
  16     196.4      144.7469        6.6898      142.1651      148.8549       4.107976       0.07861
  15     218.7      144.6709        7.4217      141.2033      148.6251       3.954122       0.05841
  14     243.0      144.5780        8.2139      140.1753      148.3892       3.811204       0.04957
  13     269.0      144.4666        9.0685      139.0797      148.1482       3.681615       0.04204
  12     297.5      144.3360        9.9876      137.9141      147.9017       3.565701       0.03438
  11     328.5      144.1903       10.9755      136.6676      147.6431       3.452797       0.03070
  10     361.9      144.0293       12.0331      135.3392      147.3723       3.343011       0.02778
   9     398.1      143.8525       13.1645      133.9235      147.0879       3.235398       0.02507
   8     437.6      143.6611       14.3716      132.4163      146.7878       3.126728       0.02323
   7     480.5      143.4547       15.6566      130.8147      146.4713       3.016625       0.02162
   6     533.0      143.2012       17.2261      128.8599      146.0860       2.884862       0.02120
   5     589.8      142.9328       18.9031      126.7679      145.6710       2.738215       0.02177
   4     651.6      142.6569       20.6891      124.5274      145.2165       2.559677       0.02442
   3     718.7      142.3805       22.5859      122.1285      144.7144       2.333858       0.02838
   2     792.3      142.1225       24.5913      119.5548      144.1461       2.023608       0.03558
   1     891.5      109.5739      111.2240        0.0000      111.2240       1.650123       0.03178
   0    1013.0      109.7735      110.9832        0.0000      110.9832       1.209717       0.03058



 Wavenumbers: 22650. - 29000. cm-1, ATM      1
 LEVEL PRESSURE   UPWARD FLUX   DIFDOWN FLUX  DIRDOWN FLUX  DOWNWARD FLUX   NET FLUX    HEATING RATE
          mb          W/m2          W/m2          W/m2        W/m2          W/m2       degree/day
  51    .06700       58.6934        0.0000       59.0156       59.0156       0.322211       0.00000
  50    .07753       58.6933        0.0005       59.0151       59.0155       0.322211      -0.00000
  49    .09103       58.6932        0.0010       59.0144       59.0154       0.322211       0.00000
  48    0.1069       58.6931        0.0017       59.0136       59.0153       0.322211       0.00000
  47    0.1255       58.6929        0.0025       59.0127       59.0151       0.322211      -0.00000
  46    0.1487       58.6927        0.0035       59.0115       59.0149       0.322211       0.00000
  45    0.1794       58.6925        0.0048       59.0099       59.0147       0.322211       0.00000
  44    0.2165       58.6922        0.0063       59.0080       59.0144       0.322211       0.00000
  43    0.2613       58.6918        0.0082       59.0058       59.0140       0.322211      -0.00000
  42    0.3336       58.6912        0.0113       59.0022       59.0134       0.322211       0.00000
  41    0.4307       58.6904        0.0154       58.9973       59.0127       0.322211      -0.00000
  40    0.5894       58.6892        0.0220       58.9894       59.0114       0.322211       0.00000
  39     1.339       58.6831        0.0535       58.9518       59.0053       0.322211       0.00000
  38     1.782       58.6795        0.0720       58.9297       59.0017       0.322211       0.00000
  37     2.292       58.6754        0.0935       58.9042       58.9976       0.322211      -0.00000
  36     2.964       58.6700        0.1216       58.8706       58.9922       0.322211       0.00000
  35     3.853       58.6629        0.1587       58.8264       58.9851       0.322211      -0.00000
  34     5.035       58.6534        0.2080       58.7676       58.9756       0.322211      -0.00000
  33     6.613       58.6407        0.2738       58.6891       58.9629       0.322211       0.00000
  32     8.786       58.6237        0.3625       58.5834       58.9459       0.322211       0.00000
  31     11.80       58.5993        0.4891       58.4324       58.9215       0.322211      -0.00000
  30     15.07       58.5732        0.6247       58.2706       58.8954       0.322211       0.00000
  29     18.79       58.5437        0.7777       58.0882       58.8659       0.322211      -0.00000
  28     23.16       58.5094        0.9560       57.8757       58.8316       0.322211       0.00000
  27     28.12       58.4703        1.1592       57.6333       58.7925       0.322211       0.00000
  26     33.73       58.4267        1.3858       57.3631       58.7489       0.322211       0.00000
  25     40.54       58.3742        1.6585       57.0379       58.6964       0.322211      -0.00000
  24     48.69       58.3112        1.9856       56.6479       58.6334       0.322211      -0.00000
  23     57.69       58.2425        2.3426       56.2221       58.5647       0.322211      -0.00000
  22     68.43       58.1612        2.7648       55.7186       58.4834       0.322211       0.00000
  21     81.20       58.0651        3.2634       55.1239       58.3874       0.322211       0.00000
  20     96.49       57.9519        3.8513       54.4228       58.2741       0.322211       0.00000
  19     114.6       57.8191        4.5403       53.6010       58.1413       0.322211       0.00000
  18     136.5       57.6641        5.3446       52.6418       57.9863       0.322211       0.00000
  17     162.9       57.4829        6.2847       51.5203       57.8051       0.322211      -0.00000
  16     196.4       57.2531        7.4759       50.0994       57.5753       0.322211      -0.00000
  15     218.7       57.1054        8.2413       49.1863       57.4276       0.322211       0.00000
  14     243.0       56.9476        9.0586       48.2113       57.2699       0.322211      -0.00000
  13     269.0       56.7799        9.9272       47.1749       57.1021       0.322211       0.00000
  12     297.5       56.6024       10.8463       46.0783       56.9246       0.322211       0.00000
  11     328.5       56.4147       11.8174       44.9195       56.7369       0.322211      -0.00000
  10     361.9       56.2174       12.8377       43.7018       56.5396       0.322211       0.00000
   9     398.1       56.0103       13.9075       42.4250       56.3326       0.322211       0.00000
   8     437.6       55.7941       15.0246       41.0916       56.1163       0.322211      -0.00000
   7     480.5       55.5689       16.1866       39.7045       55.8911       0.322211       0.00000
   6     533.0       55.3008       17.5688       38.0543       55.6231       0.322211       0.00000
   5     589.8       55.0226       19.0018       36.3431       55.3449       0.322211      -0.00000
   4     651.6       54.7357       20.4783       34.5795       55.0579       0.322211       0.00000
   3     718.7       54.4409       21.9928       32.7702       54.7631       0.322211       0.00000
   2     792.3       54.1399       23.5366       30.9256       54.4621       0.322211      -0.00000
   1     891.5       46.7898       47.1101        0.0000       47.1101       0.320273       0.00016
   0    1013.0       46.7786       47.0989        0.0000       47.0989       0.320273       0.00000



 Wavenumbers: 29000. - 38000. cm-1, ATM      1
 LEVEL PRESSURE   UPWARD FLUX   DIFDOWN FLUX  DIRDOWN FLUX  DOWNWARD FLUX   NET FLUX    HEATING RATE
          mb          W/m2          W/m2          W/m2        W/m2          W/m2       degree/day
  51    .06700        8.7775        0.0000       20.8114       20.8114      12.033898       0.00000
  50    .07753        8.7773        0.0003       20.8070       20.8074      12.030091       3.05158
  49    .09103        8.7770        0.0007       20.8009       20.8016      12.024554       3.46088
  48    0.1069        8.7768        0.0012       20.7928       20.7939      12.017144       3.94433
  47    0.1255        8.7765        0.0017       20.7820       20.7837      12.007239       4.49039
  46    0.1487        8.7762        0.0024       20.7665       20.7688      11.992676       5.30849
  45    0.1794        8.7757        0.0033       20.7424       20.7457      11.970011       6.22211
  44    0.2165        8.7752        0.0044       20.7103       20.7147      11.939488       6.94348
  43    0.2613        8.7746        0.0056       20.6675       20.6731      11.898493       7.72741
  42    0.3336        8.7737        0.0077       20.5880       20.5957      11.821931       8.92635
  41    0.4307        8.7726        0.0104       20.4722       20.4826      11.709977       9.73414
  40    0.5894        8.7711        0.0147       20.2637       20.2784      11.507290      10.77860
  39     1.339        8.7677        0.0331       19.0984       19.1315      10.363793      12.87370
  38     1.782        8.7682        0.0427       18.4394       18.4821       9.713852      12.37384
  37     2.292        8.7709        0.0530       17.7714       17.8244       9.053483      10.93744
  36     2.964        8.7775        0.0657       17.0421       17.1079       8.330319       9.07789
  35     3.853        8.7904        0.0816       16.2678       16.3495       7.559078       7.31922
  34     5.035        8.8117        0.1018       15.4803       15.5821       6.770489       5.63335
  33     6.613        8.8425        0.1276       14.7157       14.8433       6.000773       4.11490
  32     8.786        8.8833        0.1614       13.9936       14.1550       5.271645       2.83167
  31     11.80        8.9366        0.2085       13.2835       13.4921       4.555437       2.00516
  30     15.07        8.9880        0.2574       12.7394       12.9967       4.008711       1.41154
  29     18.79        9.0411        0.3115       12.2666       12.5781       3.536988       1.06954
  28     23.16        9.0975        0.3731       11.8300       12.2031       3.105534       0.83429
  27     28.12        9.1554        0.4420       11.4279       11.8699       2.714492       0.66474
  26     33.73        9.2088        0.5180       11.0695       11.5875       2.378629       0.50498
  25     40.54        9.2596        0.6088       10.7209       11.3297       2.070077       0.38279
  24     48.69        9.3076        0.7165       10.3742       11.0907       1.783103       0.29697
  23     57.69        9.3471        0.8332       10.0549       10.8881       1.540938       0.22699
  22     68.43        9.3792        0.9700        9.7327       10.7027       1.323485       0.17095
  21     81.20        9.3949        1.1315        9.4134       10.5449       1.150048       0.11460
  20     96.49        9.3922        1.3214        9.0887       10.4102       1.017991       0.07289
  19     114.6        9.3793        1.5409        8.7388       10.2797       0.900416       0.05490
  18     136.5        9.3591        1.7918        8.3549       10.1467       0.787571       0.04339
  17     162.9        9.3319        2.0778        7.9311       10.0090       0.677049       0.03533
  16     196.4        9.2858        2.4322        7.4333        9.8655       0.579735       0.02450
  15     218.7        9.2524        2.6551        7.1295        9.7847       0.532259       0.01802
  14     243.0        9.2158        2.8882        6.8161        9.7042       0.488410       0.01521
  13     269.0        9.1758        3.1305        6.4943        9.6248       0.449027       0.01278
  12     297.5        9.1325        3.3810        6.1657        9.5468       0.414301       0.01030
  11     328.5        9.0872        3.6388        5.8295        9.4683       0.381045       0.00904
  10     361.9        9.0405        3.9013        5.4886        9.3900       0.349407       0.00800
   9     398.1        8.9926        4.1680        5.1440        9.3120       0.319416       0.00699
   8     437.6        8.9439        4.4374        4.7969        9.2343       0.290494       0.00618
   7     480.5        8.8947        4.7073        4.4504        9.1577       0.263031       0.00539
   6     533.0        8.8384        5.0152        4.0563        9.0715       0.233080       0.00482
   5     589.8        8.7830        5.3189        3.6682        8.9871       0.204067       0.00431
   4     651.6        8.7295        5.6146        3.2905        8.9051       0.175667       0.00388
   3     718.7        8.6783        5.9010        2.9252        8.8261       0.147834       0.00350
   2     792.3        8.6303        6.1744        2.5764        8.7509       0.120573       0.00313
   1     891.5        7.4367        7.5280        0.0000        7.5280       0.091393       0.00248
   0    1013.0        7.4454        7.5077        0.0000        7.5077       0.062314       0.00202



 Wavenumbers: 38000. - 50000. cm-1, ATM      1
 LEVEL PRESSURE   UPWARD FLUX   DIFDOWN FLUX  DIRDOWN FLUX  DOWNWARD FLUX   NET FLUX    HEATING RATE
          mb          W/m2          W/m2          W/m2        W/m2          W/m2       degree/day
  51    .06700        0.0061        0.0000        1.2836        1.2836       1.277518       0.00000
  50    .07753        0.0061        0.0001        1.2812        1.2812       1.275183       1.87150
  49    .09103        0.0060        0.0002        1.2777        1.2778       1.271851       2.08247
  48    0.1069        0.0059        0.0002        1.2731        1.2734       1.267473       2.33059
  47    0.1255        0.0058        0.0004        1.2672        1.2675       1.261717       2.60908
  46    0.1487        0.0057        0.0005        1.2586        1.2591       1.253391       3.03499
  45    0.1794        0.0055        0.0007        1.2455        1.2462       1.240623       3.50520
  44    0.2165        0.0054        0.0009        1.2282        1.2291       1.223697       3.85037
  43    0.2613        0.0052        0.0011        1.2054        1.2065       1.201348       4.21261
  42    0.3336        0.0049        0.0015        1.1639        1.1654       1.160524       4.75970
  41    0.4307        0.0045        0.0020        1.1051        1.1070       1.102565       5.03943
  40    0.5894        0.0039        0.0026        1.0039        1.0064       1.002524       5.32007
  39     1.339        0.0022        0.0035        0.5438        0.5473       0.545104       5.14971
  38     1.782        0.0016        0.0032        0.3635        0.3666       0.365006       3.42879
  37     2.292        0.0012        0.0027        0.2356        0.2383       0.237058       2.11916
  36     2.964        0.0009        0.0022        0.1455        0.1477       0.146786       1.13318
  35     3.853        0.0006        0.0017        0.0858        0.0875       0.086906       0.56828
  34     5.035        0.0004        0.0013        0.0488        0.0501       0.049701       0.26578
  33     6.613        0.0003        0.0010        0.0273        0.0282       0.027974       0.11615
  32     8.786        0.0002        0.0007        0.0144        0.0151       0.014928       0.05067
  31     11.80        0.0001        0.0004        0.0065        0.0070       0.006903       0.02247
  30     15.07        0.0000        0.0003        0.0031        0.0034       0.003329       0.00923
  29     18.79        0.0000        0.0002        0.0014        0.0016       0.001583       0.00396
  28     23.16        0.0000        0.0001        0.0006        0.0007       0.000720       0.00167
  27     28.12        0.0000        0.0001        0.0003        0.0003       0.000317       0.00069
  26     33.73        0.0000        0.0000        0.0001        0.0001       0.000140       0.00027
  25     40.54        0.0000        0.0000        0.0000        0.0001       0.000057       0.00010
  24     48.69        0.0000        0.0000        0.0000        0.0000       0.000021       0.00004
  23     57.69        0.0000        0.0000        0.0000        0.0000       0.000008       0.00001
  22     68.43        0.0000        0.0000        0.0000        0.0000       0.000003       0.00000
  21     81.20        0.0000        0.0000        0.0000        0.0000       0.000001       0.00000
  20     96.49        0.0000        0.0000        0.0000        0.0000       0.000000       0.00000
  19     114.6        0.0000        0.0000        0.0000        0.0000       0.000000       0.00000
  18     136.5        0.0000        0.0000        0.0000        0.0000       0.000000       0.00000
  17     162.9        0.0000        0.0000        0.0000        0.0000       0.000000       0.00000
  16     196.4        0.0000        0.0000        0.0000        0.0000       0.000000       0.00000
  15     218.7        0.0000        0.0000        0.0000        0.0000       0.000000       0.00000
  14     243.0        0.0000        0.0000        0.0000        0.0000       0.000000       0.00000
  13     269.0        0.0000        0.0000        0.0000        0.0000       0.000000       0.00000
  12     297.5        0.0000        0.0000        0.0000        0.0000       0.000000       0.00000
  11     328.5        0.0000        0.0000        0.0000        0.0000       0.000000       0.00000
  10     361.9        0.0000        0.0000        0.0000        0.0000       0.000000       0.00000
   9     398.1        0.0000        0.0000        0.0000        0.0000       0.000000       0.00000
   8     437.6        0.0000        0.0000        0.0000        0.0000       0.000000       0.00000
   7     480.5        0.0000        0.0000        0.0000        0.0000       0.000000       0.00000
   6     533.0        0.0000        0.0000        0.0000        0.0000       0.000000       0.00000
   5     589.8        0.0000        0.0000        0.0000        0.0000       0.000000       0.00000
   4     651.6        0.0000        0.0000        0.0000        0.0000       0.000000       0.00000
   3     718.7        0.0000        0.0000        0.0000        0.0000       0.000000       0.00000
   2     792.3        0.0000        0.0000        0.0000        0.0000       0.000000       0.00000
   1     891.5        0.0000        0.0000        0.0000        0.0000       0.000000       0.00000
   0    1013.0        0.0000        0.0000        0.0000        0.0000       0.000000       0.00000



 Wavenumbers:   820. -  2600. cm-1, ATM      1
 LEVEL PRESSURE   UPWARD FLUX   DIFDOWN FLUX  DIRDOWN FLUX  DOWNWARD FLUX   NET FLUX    HEATING RATE
          mb          W/m2          W/m2          W/m2        W/m2          W/m2       degree/day
  51    .06700        1.6466        0.0000        6.0047        6.0047       4.358086       0.00000
  50    .07753        1.6466        0.0000        6.0008        6.0008       4.354233       3.08826
  49    .09103        1.6466        0.0000        5.9999        5.9999       4.353347       0.55362
  48    0.1069        1.6466        0.0000        5.9989        5.9989       4.352358       0.52657
  47    0.1255        1.6466        0.0000        5.9978        5.9978       4.351240       0.50654
  46    0.1487        1.6466        0.0000        5.9964        5.9964       4.349883       0.49462
  45    0.1794        1.6466        0.0000        5.9947        5.9947       4.348164       0.47205
  44    0.2165        1.6466        0.0000        5.9929        5.9929       4.346321       0.41915
  43    0.2613        1.6466        0.0000        5.9909        5.9909       4.344362       0.36938
  42    0.3336        1.6466        0.0000        5.9880        5.9880       4.341483       0.33562
  41    0.4307        1.6466        0.0000        5.9846        5.9846       4.338013       0.30171
  40    0.5894        1.6466        0.0000        5.9791        5.9791       4.332507       0.29282
  39     1.339        1.6466        0.0000        5.9536        5.9536       4.307014       0.28700
  38     1.782        1.6466        0.0000        5.9395        5.9395       4.292872       0.26923
  37     2.292        1.6466        0.0000        5.9237        5.9237       4.277117       0.26094
  36     2.964        1.6466        0.0000        5.9039        5.9039       4.257338       0.24829
  35     3.853        1.6466        0.0000        5.8793        5.8793       4.232676       0.23405
  34     5.035        1.6466        0.0000        5.8487        5.8487       4.202104       0.21839
  33     6.613        1.6466        0.0000        5.8108        5.8108       4.164127       0.20302
  32     8.786        1.6467        0.0000        5.7631        5.7631       4.116488       0.18501
  31     11.80        1.6467        0.0000        5.7039        5.7039       4.057208       0.16597
  30     15.07        1.6467        0.0000        5.6539        5.6539       4.007143       0.12926
  29     18.79        1.6468        0.0000        5.6127        5.6127       3.965978       0.09333
  28     23.16        1.6468        0.0000        5.5794        5.5794       3.932566       0.06461
  27     28.12        1.6469        0.0000        5.5518        5.5518       3.904958       0.04693
  26     33.73        1.6469        0.0000        5.5268        5.5268       3.879857       0.03774
  25     40.54        1.6470        0.0000        5.4993        5.4993       3.852354       0.03412
  24     48.69        1.6471        0.0000        5.4678        5.4678       3.820740       0.03272
  23     57.69        1.6472        0.0000        5.4340        5.4340       3.786870       0.03175
  22     68.43        1.6473        0.0000        5.3947        5.3948       3.747495       0.03095
  21     81.20        1.6474        0.0000        5.3497        5.3497       3.702338       0.02984
  20     96.49        1.6476        0.0000        5.2982        5.2982       3.650670       0.02852
  19     114.6        1.6478        0.0000        5.2389        5.2389       3.591157       0.02779
  18     136.5        1.6480        0.0000        5.1716        5.1717       3.523658       0.02595
  17     162.9        1.6484        0.0000        5.0890        5.0891       3.440683       0.02652
  16     196.4        1.6490        0.0000        4.9668        4.9668       3.317844       0.03092
  15     218.7        1.6496        0.0000        4.8585        4.8585       3.208882       0.04137
  14     243.0        1.6506        0.0000        4.7078        4.7079       3.057298       0.05257
  13     269.0        1.6520        0.0000        4.5343        4.5343       2.882284       0.05677
  12     297.5        1.6543        0.0000        4.3419        4.3420       2.687671       0.05772
  11     328.5        1.6574        0.0000        4.1281        4.1281       2.470775       0.05897
  10     361.9        1.6615        0.0000        3.8786        3.8787       2.217228       0.06415
   9     398.1        1.6667        0.0000        3.6159        3.6160       1.949221       0.06244
   8     437.6        1.6736        0.0000        3.3759        3.3759       1.702317       0.05279
   7     480.5        1.6820        0.0000        3.1957        3.1958       1.513824       0.03702
   6     533.0        1.6947        0.0000        3.0467        3.0467       1.351999       0.02603
   5     589.8        1.7135        0.0001        2.9023        2.9023       1.188791       0.02423
   4     651.6        1.7463        0.0001        2.7183        2.7184       0.972084       0.02964
   3     718.7        1.8034        0.0001        2.5058        2.5059       0.702495       0.03388
   2     792.3        1.9154        0.0001        2.2756        2.2757       0.360289       0.03925
   1     891.5        0.0009        0.1595        0.0000        0.1595       0.158633       0.01716
   0    1013.0        0.0010        0.1310        0.0000        0.1310       0.129953       0.00199

  Modules and versions used in this calculation:

       rrtmg_sw.1col.f90:  $Revision$                    rrtmg_sw_init.f90:  $Revision$        
     rrtmgsw_cldprop.f90:  $Revision$                  rrtmgsw_cldprmc.f90:  NOT USED          
     rrtmg_sw_reftra.f90:  $Revision$                  rrtmg_sw_spcvrt.f90:  NOT USED          
     rrtmg_sw_spcvmc.f90:  NOT USED                    rrtmgsw_setcoef.f90:  NOT USED          
     rrtmg_sw_taumol.f90:  $Revision$                  rrtmg_sw_vrtqdr.f90:  NOT USED          
                rrtatm.f:  NOT USED                             util_xxx.f:  NOT USED          
                 extra.f:  NOT USED                       rrtmg_sw_k_g.f90:  $Revision$        

