

 Wavenumbers:   820. - 50000. cm-1, ATM      1
 LEVEL PRESSURE   UPWARD FLUX   DIFDOWN FLUX  DIRDOWN FLUX  DOWNWARD FLUX   NET FLUX    HEATING RATE
          mb          W/m2          W/m2          W/m2        W/m2          W/m2       degree/day
  51    .06700      435.4572        0.0000      617.8126      617.8126     182.355333       0.00000
  50    .07753      435.4569        0.0014      617.7947      617.7961     182.339191      12.93789
  49    .09103      435.4564        0.0031      617.7778      617.7808     182.324379       9.25796
  48    0.1069      435.4560        0.0050      617.7581      617.7631     182.307115       9.18995
  47    0.1255      435.4555        0.0072      617.7340      617.7412     182.285766       9.67838
  46    0.1487      435.4549        0.0101      617.7009      617.7110     182.256075      10.82269
  45    0.1794      435.4542        0.0139      617.6521      617.6660     182.211836      12.14466
  44    0.2165      435.4535        0.0185      617.5895      617.6080     182.154504      13.04201
  43    0.2613      435.4528        0.0239      617.5089      617.5327     182.079977      14.04798
  42    0.3336      435.4519        0.0327      617.3641      617.3968     181.944866      15.75262
  41    0.4307      435.4513        0.0444      617.1591      617.2035     181.752205      16.75151
  40    0.5894      435.4512        0.0632      616.8005      616.8636     181.412442      18.06815
  39     1.339      435.4691        0.1482      614.9443      615.0925     179.623331      20.14214
  38     1.782      435.4924        0.1961      613.9670      614.1631     178.670663      18.13727
  37     2.292      435.5310        0.2505      613.0059      613.2564     177.725470      15.65486
  36     2.964      435.5989        0.3214      611.9577      612.2790     176.680064      13.12300
  35     3.853      435.7130        0.4142      610.8024      611.2166     175.503588      11.16497
  34     5.035      435.8884        0.5367      609.5327      610.0694     174.181027       9.44783
  33     6.613      436.1354        0.6993      608.1464      608.8458     172.710373       7.86212
  32     8.786      436.4572        0.9175      606.6250      607.5425     171.085380       6.31089
  31     11.80      436.8739        1.2281      604.8486      606.0768     169.202881       5.27040
  30     15.07      437.2706        1.5596      603.2440      604.8036     167.532939       4.31147
  29     18.79      437.6735        1.9326      601.6511      603.5837     165.910256       3.67912
  28     23.16      438.0918        2.3660      599.9927      602.3587     164.266896       3.17773
  27     28.12      438.5090        2.8593      598.2881      601.1473     162.638328       2.76846
  26     33.73      438.8865        3.4093      596.5951      600.0043     161.117818       2.28613
  25     40.54      439.2385        4.0714      594.7727      598.8441     159.605644       1.87602
  24     48.69      439.5618        4.8660      592.7865      597.6525     158.090608       1.56782
  23     57.69      439.8192        5.7345      590.7959      596.5304     156.711220       1.29297
  22     68.43      440.0195        6.7636      588.6191      595.3826     155.363093       1.05981
  21     81.20      440.1107        7.9836      586.2690      594.2526     154.141850       0.80698
  20     96.49      440.0826        9.4282      583.6961      593.1243     153.041672       0.60722
  19     114.6      439.9948       11.1278      580.7708      591.8986     151.903797       0.53131
  18     136.5      439.8458       13.1180      577.4359      590.5539     150.708054       0.45979
  17     162.9      439.6303       15.4538      573.5624      589.0162     149.385890       0.42262
  16     196.4      439.2629       18.4327      568.5907      587.0234     147.760556       0.40912
  15     218.7      438.9931       20.3589      565.0572      585.4161     146.423021       0.50781
  14     243.0      438.6920       22.4250      560.7495      583.1746     144.482567       0.67301
  13     269.0      438.3608       24.6325      555.3947      580.0272     141.666431       0.91354
  12     297.5      438.0048       26.9820      548.9964      575.9784     137.973610       1.09525
  11     328.5      437.6341       29.4801      542.0895      571.5696     133.935557       1.09794
  10     361.9      437.2563       32.1230      534.6242      566.7472     129.490890       1.12454
   9     398.1      436.8821       34.9153      526.4204      561.3358     124.453663       1.17356
   8     437.6      436.5325       37.8558      517.3907      555.2465     118.713921       1.22719
   7     480.5      436.2301       40.9425      507.7216      548.6641     112.433936       1.23337
   6     533.0      435.9931       44.6539      495.9006      540.5546     104.561479       1.26643
   5     589.8      435.9840       48.5490      483.0788      531.6278      95.643845       1.32367
   4     651.6      436.4846       52.6150      468.6907      521.3057      84.821108       1.48004
   3     718.7      437.8870       56.8438      453.2257      510.0695      72.182529       1.58832
   2     792.3      441.2254       61.2132      436.4928      497.7061      56.480717       1.80082
   1     891.5      306.5035      343.4255        5.0542      348.4798      41.976265       1.23426
   0    1013.0      310.1790      336.5731        4.7426      341.3158      31.136766       0.75264



 Wavenumbers:  2600. -  3250. cm-1, ATM      1
 LEVEL PRESSURE   UPWARD FLUX   DIFDOWN FLUX  DIRDOWN FLUX  DOWNWARD FLUX   NET FLUX    HEATING RATE
          mb          W/m2          W/m2          W/m2        W/m2          W/m2       degree/day
  51    .06700        1.5318        0.0000        5.4450        5.4450       3.913263       0.00000
  50    .07753        1.5318        0.0000        5.4450        5.4450       3.913255       0.00640
  49    .09103        1.5318        0.0000        5.4450        5.4450       3.913245       0.00627
  48    0.1069        1.5318        0.0000        5.4450        5.4450       3.913234       0.00613
  47    0.1255        1.5318        0.0000        5.4450        5.4450       3.913221       0.00599
  46    0.1487        1.5318        0.0000        5.4450        5.4450       3.913204       0.00608
  45    0.1794        1.5318        0.0000        5.4450        5.4450       3.913181       0.00625
  44    0.2165        1.5318        0.0000        5.4449        5.4449       3.913154       0.00612
  43    0.2613        1.5318        0.0000        5.4449        5.4449       3.913123       0.00600
  42    0.3336        1.5318        0.0000        5.4448        5.4448       3.913070       0.00617
  41    0.4307        1.5318        0.0000        5.4448        5.4448       3.912998       0.00620
  40    0.5894        1.5318        0.0000        5.4446        5.4446       3.912879       0.00637
  39     1.339        1.5318        0.0000        5.4439        5.4439       3.912171       0.00797
  38     1.782        1.5318        0.0000        5.4434        5.4434       3.911628       0.01034
  37     2.292        1.5318        0.0000        5.4427        5.4427       3.910912       0.01186
  36     2.964        1.5318        0.0000        5.4416        5.4416       3.909873       0.01304
  35     3.853        1.5318        0.0000        5.4402        5.4402       3.908396       0.01402
  34     5.035        1.5318        0.0000        5.4381        5.4381       3.906340       0.01469
  33     6.613        1.5318        0.0000        5.4353        5.4353       3.903559       0.01487
  32     8.786        1.5318        0.0000        5.4317        5.4317       3.899926       0.01411
  31     11.80        1.5318        0.0000        5.4269        5.4269       3.895144       0.01339
  30     15.07        1.5318        0.0000        5.4224        5.4224       3.890616       0.01169
  29     18.79        1.5318        0.0000        5.4180        5.4180       3.886201       0.01001
  28     23.16        1.5318        0.0000        5.4135        5.4135       3.881710       0.00868
  27     28.12        1.5318        0.0000        5.4088        5.4088       3.877056       0.00791
  26     33.73        1.5318        0.0000        5.4036        5.4036       3.871806       0.00789
  25     40.54        1.5318        0.0000        5.3966        5.3967       3.864850       0.00863
  24     48.69        1.5318        0.0000        5.3872        5.3872       3.855351       0.00983
  23     57.69        1.5319        0.0000        5.3754        5.3754       3.843537       0.01107
  22     68.43        1.5319        0.0000        5.3599        5.3599       3.828005       0.01221
  21     81.20        1.5320        0.0000        5.3401        5.3401       3.808109       0.01315
  20     96.49        1.5321        0.0000        5.3155        5.3155       3.783453       0.01361
  19     114.6        1.5322        0.0000        5.2853        5.2854       3.753133       0.01416
  18     136.5        1.5324        0.0001        5.2504        5.2505       3.718052       0.01349
  17     162.9        1.5327        0.0001        5.2111        5.2112       3.678458       0.01266
  16     196.4        1.5332        0.0001        5.1640        5.1641       3.630949       0.01196
  15     218.7        1.5336        0.0001        5.1331        5.1332       3.599564       0.01192
  14     243.0        1.5344        0.0001        5.0962        5.0963       3.561902       0.01306
  13     269.0        1.5356        0.0001        5.0511        5.0512       3.515585       0.01503
  12     297.5        1.5374        0.0001        4.9956        4.9957       3.458282       0.01700
  11     328.5        1.5400        0.0001        4.9304        4.9305       3.390503       0.01843
  10     361.9        1.5435        0.0001        4.8511        4.8512       3.307718       0.02095
   9     398.1        1.5484        0.0002        4.7507        4.7508       3.202437       0.02453
   8     437.6        1.5552        0.0002        4.6220        4.6222       3.067004       0.02896
   7     480.5        1.5647        0.0002        4.4625        4.4627       2.898000       0.03319
   6     533.0        1.5801        0.0002        4.2460        4.2462       2.666100       0.03731
   5     589.8        1.6039        0.0002        3.9954        3.9956       2.391744       0.04072
   4     651.6        1.6433        0.0002        3.7089        3.7091       2.065753       0.04458
   3     718.7        1.7091        0.0002        3.4018        3.4020       1.692884       0.04686
   2     792.3        1.8305        0.0002        3.0564        3.0566       1.226192       0.05352
   1     891.5        0.0063        0.8197        0.0315        0.8512       0.844881       0.03245
   0    1013.0        0.0073        0.6776        0.0255        0.7030       0.695693       0.01036



 Wavenumbers:  3250. -  4000. cm-1, ATM      1
 LEVEL PRESSURE   UPWARD FLUX   DIFDOWN FLUX  DIRDOWN FLUX  DOWNWARD FLUX   NET FLUX    HEATING RATE
          mb          W/m2          W/m2          W/m2        W/m2          W/m2       degree/day
  51    .06700        0.0475        0.0000        9.1795        9.1795       9.131995       0.00000
  50    .07753        0.0475        0.0000        9.1747        9.1747       9.127152       3.88148
  49    .09103        0.0475        0.0000        9.1713        9.1713       9.123764       2.11747
  48    0.1069        0.0475        0.0000        9.1688        9.1688       9.121239       1.34402
  47    0.1255        0.0475        0.0000        9.1665        9.1665       9.118980       1.02422
  46    0.1487        0.0475        0.0000        9.1641        9.1641       9.116539       0.88991
  45    0.1794        0.0475        0.0000        9.1612        9.1612       9.113661       0.79008
  44    0.2165        0.0475        0.0000        9.1583        9.1583       9.110740       0.66430
  43    0.2613        0.0475        0.0000        9.1553        9.1553       9.107767       0.56041
  42    0.3336        0.0475        0.0000        9.1511        9.1511       9.103588       0.48723
  41    0.4307        0.0475        0.0000        9.1464        9.1464       9.098820       0.41459
  40    0.5894        0.0475        0.0000        9.1393        9.1394       9.091814       0.37255
  39     1.339        0.0475        0.0000        9.1127        9.1127       9.065201       0.29962
  38     1.782        0.0475        0.0000        9.1011        9.1011       9.053613       0.22062
  37     2.292        0.0475        0.0000        9.0901        9.0901       9.042546       0.18329
  36     2.964        0.0475        0.0000        9.0776        9.0776       9.030116       0.15603
  35     3.853        0.0475        0.0000        9.0629        9.0629       9.015326       0.14036
  34     5.035        0.0475        0.0000        9.0441        9.0441       8.996587       0.13386
  33     6.613        0.0475        0.0000        9.0191        9.0191       8.971585       0.13366
  32     8.786        0.0475        0.0000        8.9843        8.9843       8.936802       0.13509
  31     11.80        0.0475        0.0000        8.9327        8.9327       8.885185       0.14451
  30     15.07        0.0475        0.0000        8.8758        8.8759       8.828341       0.14676
  29     18.79        0.0475        0.0000        8.8110        8.8110       8.763513       0.14698
  28     23.16        0.0475        0.0000        8.7365        8.7366       8.689068       0.14395
  27     28.12        0.0475        0.0000        8.6554        8.6555       8.607955       0.13789
  26     33.73        0.0475        0.0000        8.5719        8.5719       8.524456       0.12554
  25     40.54        0.0475        0.0001        8.4812        8.4812       8.433732       0.11255
  24     48.69        0.0475        0.0001        8.3838        8.3839       8.336431       0.10069
  23     57.69        0.0475        0.0001        8.2861        8.2862       8.238695       0.09161
  22     68.43        0.0474        0.0001        8.1751        8.1751       8.127699       0.08726
  21     81.20        0.0474        0.0001        8.0457        8.0458       7.998340       0.08548
  20     96.49        0.0474        0.0001        7.8949        7.8951       7.847637       0.08318
  19     114.6        0.0474        0.0001        7.7162        7.7163       7.668927       0.08344
  18     136.5        0.0474        0.0002        7.5193        7.5195       7.472082       0.07569
  17     162.9        0.0473        0.0002        7.2913        7.2915       7.244190       0.07284
  16     196.4        0.0473        0.0002        6.9660        6.9662       6.918914       0.08188
  15     218.7        0.0473        0.0002        6.6648        6.6650       6.617717       0.11435
  14     243.0        0.0473        0.0002        6.2619        6.2622       6.214903       0.13971
  13     269.0        0.0473        0.0003        5.7576        5.7579       5.710555       0.16361
  12     297.5        0.0474        0.0003        5.1719        5.1722       5.124761       0.17374
  11     328.5        0.0476        0.0002        4.5757        4.5760       4.528422       0.16214
  10     361.9        0.0478        0.0002        3.9995        3.9998       3.951949       0.14585
   9     398.1        0.0483        0.0002        3.4655        3.4657       3.417405       0.12454
   8     437.6        0.0491        0.0002        2.9740        2.9743       2.925146       0.10525
   7     480.5        0.0504        0.0002        2.5307        2.5309       2.480460       0.08733
   6     533.0        0.0529        0.0002        2.0614        2.0616       2.008630       0.07590
   5     589.8        0.0576        0.0002        1.6150        1.6151       1.557572       0.06695
   4     651.6        0.0672        0.0001        1.1565        1.1566       1.089356       0.06403
   3     718.7        0.0886        0.0001        0.7390        0.7391       0.650540       0.05515
   2     792.3        0.1455        0.0001        0.3985        0.3985       0.253069       0.04559
   1     891.5        0.0000        0.0314        0.0014        0.0328       0.032784       0.01875
   0    1013.0        0.0002        0.0033        0.0001        0.0034       0.003144       0.00206



 Wavenumbers:  4000. -  4650. cm-1, ATM      1
 LEVEL PRESSURE   UPWARD FLUX   DIFDOWN FLUX  DIRDOWN FLUX  DOWNWARD FLUX   NET FLUX    HEATING RATE
          mb          W/m2          W/m2          W/m2        W/m2          W/m2       degree/day
  51    .06700        5.0656        0.0000       10.7795       10.7795       5.713944       0.00000
  50    .07753        5.0656        0.0000       10.7795       10.7795       5.713943       0.00080
  49    .09103        5.0656        0.0000       10.7795       10.7795       5.713942       0.00078
  48    0.1069        5.0656        0.0000       10.7795       10.7795       5.713940       0.00077
  47    0.1255        5.0656        0.0000       10.7795       10.7795       5.713939       0.00075
  46    0.1487        5.0656        0.0000       10.7795       10.7795       5.713936       0.00076
  45    0.1794        5.0656        0.0000       10.7795       10.7795       5.713934       0.00078
  44    0.2165        5.0656        0.0000       10.7795       10.7795       5.713930       0.00076
  43    0.2613        5.0656        0.0000       10.7795       10.7795       5.713926       0.00075
  42    0.3336        5.0656        0.0000       10.7795       10.7795       5.713920       0.00077
  41    0.4307        5.0656        0.0000       10.7795       10.7795       5.713911       0.00077
  40    0.5894        5.0656        0.0000       10.7795       10.7795       5.713896       0.00080
  39     1.339        5.0656        0.0000       10.7794       10.7794       5.713806       0.00101
  38     1.782        5.0656        0.0000       10.7793       10.7793       5.713736       0.00133
  37     2.292        5.0656        0.0000       10.7792       10.7792       5.713642       0.00156
  36     2.964        5.0656        0.0000       10.7791       10.7791       5.713502       0.00176
  35     3.853        5.0656        0.0000       10.7789       10.7789       5.713293       0.00198
  34     5.035        5.0656        0.0000       10.7786       10.7786       5.712986       0.00220
  33     6.613        5.0656        0.0000       10.7781       10.7781       5.712533       0.00242
  32     8.786        5.0656        0.0000       10.7774       10.7774       5.711865       0.00260
  31     11.80        5.0656        0.0001       10.7763       10.7764       5.710815       0.00294
  30     15.07        5.0656        0.0001       10.7751       10.7752       5.709582       0.00318
  29     18.79        5.0656        0.0001       10.7736       10.7737       5.708091       0.00338
  28     23.16        5.0656        0.0001       10.7717       10.7718       5.706238       0.00358
  27     28.12        5.0656        0.0001       10.7695       10.7696       5.703994       0.00381
  26     33.73        5.0656        0.0002       10.7667       10.7668       5.701226       0.00416
  25     40.54        5.0656        0.0002       10.7629       10.7631       5.697468       0.00466
  24     48.69        5.0657        0.0002       10.7579       10.7581       5.692457       0.00519
  23     57.69        5.0658        0.0003       10.7520       10.7523       5.686510       0.00557
  22     68.43        5.0659        0.0003       10.7446       10.7449       5.679050       0.00586
  21     81.20        5.0660        0.0004       10.7355       10.7359       5.669852       0.00608
  20     96.49        5.0663        0.0004       10.7245       10.7249       5.658644       0.00619
  19     114.6        5.0666        0.0005       10.7107       10.7112       5.644607       0.00655
  18     136.5        5.0672        0.0006       10.6942       10.6948       5.627665       0.00651
  17     162.9        5.0679        0.0007       10.6740       10.6748       5.606850       0.00665
  16     196.4        5.0692        0.0009       10.6464       10.6473       5.578055       0.00725
  15     218.7        5.0704        0.0010       10.6255       10.6265       5.556098       0.00834
  14     243.0        5.0720        0.0011       10.5980       10.5992       5.527116       0.01005
  13     269.0        5.0745        0.0012       10.5611       10.5623       5.487775       0.01276
  12     297.5        5.0782        0.0014       10.5119       10.5133       5.435096       0.01562
  11     328.5        5.0832        0.0015       10.4499       10.4514       5.368138       0.01821
  10     361.9        5.0898        0.0016       10.3702       10.3718       5.281985       0.02180
   9     398.1        5.0981        0.0018       10.2678       10.2696       5.171425       0.02576
   8     437.6        5.1088        0.0019       10.1390       10.1409       5.032146       0.02978
   7     480.5        5.1225        0.0021        9.9877        9.9898       4.867322       0.03237
   6     533.0        5.1437        0.0023        9.7937        9.7960       4.652311       0.03459
   5     589.8        5.1745        0.0025        9.5752        9.5777       4.403162       0.03698
   4     651.6        5.2246        0.0027        9.2958        9.2985       4.073901       0.04503
   3     718.7        5.3097        0.0029        8.9267        8.9296       3.619958       0.05705
   2     792.3        5.4718        0.0031        8.4542        8.4573       2.985496       0.07277
   1     891.5        0.3661        2.7155        0.0952        2.8107       2.444599       0.04603
   0    1013.0        0.3895        2.4998        0.0864        2.5862       2.196745       0.01721



 Wavenumbers:  4650. -  5150. cm-1, ATM      1
 LEVEL PRESSURE   UPWARD FLUX   DIFDOWN FLUX  DIRDOWN FLUX  DOWNWARD FLUX   NET FLUX    HEATING RATE
          mb          W/m2          W/m2          W/m2        W/m2          W/m2       degree/day
  51    .06700        3.5981        0.0000       10.2033       10.2033       6.605292       0.00000
  50    .07753        3.5981        0.0000       10.2031       10.2031       6.605057       0.18901
  49    .09103        3.5981        0.0000       10.2028       10.2028       6.604762       0.18428
  48    0.1069        3.5981        0.0000       10.2025       10.2025       6.604425       0.17931
  47    0.1255        3.5980        0.0000       10.2021       10.2021       6.604040       0.17426
  46    0.1487        3.5980        0.0000       10.2016       10.2016       6.603559       0.17536
  45    0.1794        3.5980        0.0000       10.2010       10.2010       6.602909       0.17850
  44    0.2165        3.5980        0.0000       10.2002       10.2002       6.602150       0.17277
  43    0.2613        3.5980        0.0000       10.1993       10.1993       6.601264       0.16690
  42    0.3336        3.5980        0.0000       10.1979       10.1979       6.599832       0.16702
  41    0.4307        3.5980        0.0000       10.1960       10.1960       6.597991       0.16002
  40    0.5894        3.5980        0.0000       10.1932       10.1932       6.595117       0.15283
  39     1.339        3.5980        0.0000       10.1816       10.1816       6.583525       0.13050
  38     1.782        3.5980        0.0000       10.1760       10.1760       6.577996       0.10527
  37     2.292        3.5980        0.0000       10.1706       10.1706       6.572539       0.09038
  36     2.964        3.5980        0.0000       10.1646       10.1647       6.566615       0.07436
  35     3.853        3.5980        0.0000       10.1584       10.1584       6.560400       0.05899
  34     5.035        3.5980        0.0000       10.1521       10.1521       6.554062       0.04528
  33     6.613        3.5980        0.0000       10.1456       10.1456       6.547600       0.03454
  32     8.786        3.5980        0.0001       10.1386       10.1386       6.540582       0.02726
  31     11.80        3.5981        0.0001       10.1295       10.1296       6.531528       0.02535
  30     15.07        3.5981        0.0001       10.1196       10.1197       6.521629       0.02556
  29     18.79        3.5981        0.0001       10.1076       10.1077       6.509595       0.02729
  28     23.16        3.5982        0.0002       10.0923       10.0924       6.494251       0.02967
  27     28.12        3.5982        0.0002       10.0731       10.0733       6.475103       0.03255
  26     33.73        3.5983        0.0002       10.0500       10.0503       6.451937       0.03483
  25     40.54        3.5985        0.0003       10.0201       10.0204       6.421931       0.03723
  24     48.69        3.5987        0.0003        9.9820        9.9823       6.383612       0.03965
  23     57.69        3.5989        0.0004        9.9384        9.9388       6.339884       0.04099
  22     68.43        3.5993        0.0005        9.8858        9.8862       6.286889       0.04166
  21     81.20        3.5998        0.0005        9.8234        9.8240       6.224134       0.04147
  20     96.49        3.6006        0.0006        9.7518        9.7524       6.151812       0.03992
  19     114.6        3.6016        0.0008        9.6719        9.6727       6.071064       0.03770
  18     136.5        3.6030        0.0009        9.5858        9.5867       5.983664       0.03361
  17     162.9        3.6050        0.0010        9.4940        9.4951       5.890095       0.02991
  16     196.4        3.6080        0.0013        9.3883        9.3895       5.781495       0.02734
  15     218.7        3.6104        0.0014        9.3229        9.3243       5.713875       0.02567
  14     243.0        3.6135        0.0015        9.2520        9.2535       5.639976       0.02563
  13     269.0        3.6177        0.0017        9.1717        9.1733       5.555651       0.02735
  12     297.5        3.6235        0.0018        9.0763        9.0781       5.454623       0.02996
  11     328.5        3.6311        0.0020        8.9650        8.9670       5.335911       0.03228
  10     361.9        3.6409        0.0022        8.8349        8.8371       5.196262       0.03533
   9     398.1        3.6536        0.0024        8.6820        8.6844       5.030835       0.03854
   8     437.6        3.6701        0.0026        8.5028        8.5054       4.835255       0.04182
   7     480.5        3.6917        0.0028        8.2948        8.2976       4.605886       0.04505
   6     533.0        3.7247        0.0030        8.0209        8.0239       4.299192       0.04934
   5     589.8        3.7707        0.0032        7.7063        7.7096       3.938845       0.05349
   4     651.6        3.8391        0.0034        7.3412        7.3447       3.505591       0.05925
   3     718.7        3.9431        0.0036        6.9387        6.9423       2.999211       0.06364
   2     792.3        4.1107        0.0038        6.5066        6.5104       2.399684       0.06876
   1     891.5        0.0914        1.9509        0.0725        2.0234       1.931955       0.03980
   0    1013.0        0.0989        1.7666        0.0647        1.8313       1.732419       0.01385



 Wavenumbers:  5150. -  6150. cm-1, ATM      1
 LEVEL PRESSURE   UPWARD FLUX   DIFDOWN FLUX  DIRDOWN FLUX  DOWNWARD FLUX   NET FLUX    HEATING RATE
          mb          W/m2          W/m2          W/m2        W/m2          W/m2       degree/day
  51    .06700        8.7212        0.0000       25.5798       25.5798      16.858578       0.00000
  50    .07753        8.7212        0.0000       25.5798       25.5798      16.858539       0.03161
  49    .09103        8.7212        0.0000       25.5797       25.5797      16.858488       0.03209
  48    0.1069        8.7212        0.0000       25.5797       25.5797      16.858426       0.03260
  47    0.1255        8.7212        0.0000       25.5796       25.5796      16.858353       0.03310
  46    0.1487        8.7212        0.0000       25.5795       25.5795      16.858258       0.03487
  45    0.1794        8.7212        0.0000       25.5794       25.5794      16.858122       0.03712
  44    0.2165        8.7212        0.0000       25.5792       25.5792      16.857957       0.03768
  43    0.2613        8.7212        0.0000       25.5790       25.5790      16.857754       0.03826
  42    0.3336        8.7212        0.0000       25.5786       25.5786      16.857407       0.04042
  41    0.4307        8.7212        0.0000       25.5782       25.5782      16.856936       0.04096
  40    0.5894        8.7212        0.0000       25.5774       25.5774      16.856147       0.04197
  39     1.339        8.7212        0.0000       25.5735       25.5736      16.852344       0.04281
  38     1.782        8.7212        0.0001       25.5713       25.5714      16.850130       0.04216
  37     2.292        8.7212        0.0001       25.5688       25.5688      16.847623       0.04151
  36     2.964        8.7212        0.0001       25.5656       25.5657      16.844439       0.03998
  35     3.853        8.7212        0.0001       25.5615       25.5616      16.840390       0.03842
  34     5.035        8.7212        0.0002       25.5562       25.5564      16.835176       0.03725
  33     6.613        8.7212        0.0002       25.5494       25.5496      16.828412       0.03617
  32     8.786        8.7212        0.0003       25.5406       25.5409      16.819643       0.03405
  31     11.80        8.7212        0.0004       25.5287       25.5290      16.807781       0.03321
  30     15.07        8.7213        0.0005       25.5167       25.5172      16.795882       0.03072
  29     18.79        8.7213        0.0006       25.5042       25.5047      16.783437       0.02822
  28     23.16        8.7214        0.0007       25.4907       25.4914      16.770025       0.02593
  27     28.12        8.7214        0.0009       25.4764       25.4773      16.755876       0.02405
  26     33.73        8.7215        0.0010       25.4620       25.4630      16.741525       0.02158
  25     40.54        8.7217        0.0012       25.4463       25.4475      16.725813       0.01949
  24     48.69        8.7219        0.0015       25.4294       25.4308      16.708960       0.01744
  23     57.69        8.7222        0.0018       25.4126       25.4144      16.692201       0.01571
  22     68.43        8.7225        0.0021       25.3944       25.3965      16.673975       0.01433
  21     81.20        8.7230        0.0025       25.3744       25.3769      16.653888       0.01327
  20     96.49        8.7236        0.0029       25.3519       25.3549      16.631285       0.01248
  19     114.6        8.7243        0.0035       25.3262       25.3296      16.605338       0.01212
  18     136.5        8.7252        0.0041       25.2962       25.3003      16.575110       0.01162
  17     162.9        8.7263        0.0049       25.2521       25.2570      16.530661       0.01421
  16     196.4        8.7279        0.0059       25.1593       25.1652      16.437286       0.02350
  15     218.7        8.7291        0.0065       25.0159       25.0225      16.293418       0.05462
  14     243.0        8.7305        0.0072       24.7089       24.7161      15.985635       0.10675
  13     269.0        8.7323        0.0078       24.1619       24.1697      15.437365       0.17786
  12     297.5        8.7349        0.0085       23.4544       23.4629      14.727975       0.21040
  11     328.5        8.7383        0.0091       22.7355       22.7446      14.006333       0.19621
  10     361.9        8.7428        0.0098       21.9224       21.9322      13.189447       0.20668
   9     398.1        8.7489        0.0104       20.9939       21.0043      12.255470       0.21760
   8     437.6        8.7574        0.0110       19.9833       19.9944      11.236965       0.21776
   7     480.5        8.7693        0.0116       18.9483       18.9599      10.190653       0.20549
   6     533.0        8.7895        0.0123       17.7796       17.7919       9.002382       0.19116
   5     589.8        8.8224        0.0130       16.6726       16.6855       7.863098       0.16911
   4     651.6        8.8830        0.0136       15.6343       15.6479       6.764979       0.15017
   3     718.7        8.9944        0.0144       14.7738       14.7882       5.793783       0.12205
   2     792.3        9.2182        0.0152       14.0291       14.0443       4.826109       0.11098
   1     891.5        0.7762        4.6696        0.1597        4.8293       4.053075       0.06578
   0    1013.0        0.8087        4.3618        0.1470        4.5088       3.700073       0.02451



 Wavenumbers:  6150. -  7700. cm-1, ATM      1
 LEVEL PRESSURE   UPWARD FLUX   DIFDOWN FLUX  DIRDOWN FLUX  DOWNWARD FLUX   NET FLUX    HEATING RATE
          mb          W/m2          W/m2          W/m2        W/m2          W/m2       degree/day
  51    .06700       14.1296        0.0000       47.3109       47.3109      33.181267       0.00000
  50    .07753       14.1296        0.0000       47.3108       47.3108      33.181210       0.04553
  49    .09103       14.1296        0.0000       47.3107       47.3107      33.181137       0.04583
  48    0.1069       14.1296        0.0000       47.3106       47.3106      33.181050       0.04614
  47    0.1255       14.1296        0.0000       47.3105       47.3105      33.180948       0.04645
  46    0.1487       14.1296        0.0000       47.3104       47.3104      33.180815       0.04852
  45    0.1794       14.1296        0.0000       47.3102       47.3102      33.180628       0.05127
  44    0.2165       14.1296        0.0000       47.3100       47.3100      33.180401       0.05167
  43    0.2613       14.1296        0.0000       47.3097       47.3097      33.180124       0.05210
  42    0.3336       14.1296        0.0000       47.3092       47.3092      33.179655       0.05471
  41    0.4307       14.1296        0.0000       47.3085       47.3086      33.179020       0.05521
  40    0.5894       14.1295        0.0001       47.3074       47.3075      33.177961       0.05633
  39     1.339       14.1295        0.0002       47.3022       47.3024      33.172869       0.05733
  38     1.782       14.1294        0.0002       47.2991       47.2993      33.169899       0.05655
  37     2.292       14.1294        0.0003       47.2956       47.2959      33.166523       0.05591
  36     2.964       14.1294        0.0004       47.2912       47.2916      33.162204       0.05421
  35     3.853       14.1293        0.0005       47.2855       47.2859      33.156670       0.05252
  34     5.035       14.1292        0.0006       47.2780       47.2787      33.149489       0.05129
  33     6.613       14.1290        0.0008       47.2683       47.2692      33.140101       0.05019
  32     8.786       14.1289        0.0011       47.2556       47.2567      33.127802       0.04777
  31     11.80       14.1286        0.0015       47.2380       47.2395      33.110898       0.04733
  30     15.07       14.1284        0.0019       47.2201       47.2220      33.093610       0.04463
  29     18.79       14.1280        0.0024       47.2008       47.2032      33.075130       0.04190
  28     23.16       14.1277        0.0029       47.1795       47.1824      33.054739       0.03943
  27     28.12       14.1273        0.0035       47.1565       47.1600      33.032745       0.03739
  26     33.73       14.1268        0.0042       47.1324       47.1366      33.009822       0.03446
  25     40.54       14.1263        0.0051       47.1054       47.1105      32.984184       0.03181
  24     48.69       14.1256        0.0061       47.0754       47.0815      32.955929       0.02924
  23     57.69       14.1249        0.0072       47.0449       47.0522      32.927305       0.02683
  22     68.43       14.1240        0.0086       47.0110       47.0196      32.895565       0.02495
  21     81.20       14.1230        0.0102       46.9729       46.9830      32.860066       0.02346
  20     96.49       14.1217        0.0121       46.9294       46.9415      32.819720       0.02227
  19     114.6       14.1203        0.0144       46.8790       46.8934      32.773078       0.02178
  18     136.5       14.1186        0.0170       46.8200       46.8370      32.718443       0.02101
  17     162.9       14.1166        0.0202       46.7361       46.7564      32.639801       0.02514
  16     196.4       14.1141        0.0244       46.5703       46.5946      32.480551       0.04009
  15     218.7       14.1126        0.0270       46.3473       46.3743      32.261725       0.08308
  14     243.0       14.1113        0.0298       45.9299       45.9597      31.848356       0.14337
  13     269.0       14.1106        0.0326       45.1708       45.2034      31.092768       0.24511
  12     297.5       14.1112        0.0354       44.0115       44.0468      29.935664       0.34318
  11     328.5       14.1133        0.0381       42.7242       42.7624      28.649022       0.34983
  10     361.9       14.1180        0.0409       41.3539       41.3949      27.276870       0.34717
   9     398.1       14.1266        0.0437       39.7953       39.8390      25.712340       0.36450
   8     437.6       14.1416        0.0463       37.9948       38.0411      23.899427       0.38761
   7     480.5       14.1660        0.0488       36.0647       36.1135      21.947461       0.38336
   6     533.0       14.2123        0.0514       33.7773       33.8287      19.616346       0.37500
   5     589.8       14.2937        0.0538       31.4082       31.4619      17.168284       0.36337
   4     651.6       14.4514        0.0557       28.8834       28.9391      14.487671       0.36658
   3     718.7       14.7537        0.0573       26.4104       26.4677      11.714001       0.34857
   2     792.3       15.3965        0.0587       24.0056       24.0643       8.667768       0.34937
   1     891.5        1.5771        7.7301        0.2592        7.9893       6.412125       0.19194
   0    1013.0        1.6902        6.9437        0.2272        7.1709       5.480643       0.06468



 Wavenumbers:  7700. -  8050. cm-1, ATM      1
 LEVEL PRESSURE   UPWARD FLUX   DIFDOWN FLUX  DIRDOWN FLUX  DOWNWARD FLUX   NET FLUX    HEATING RATE
          mb          W/m2          W/m2          W/m2        W/m2          W/m2       degree/day
  51    .06700        7.2181        0.0000       11.1810       11.1810       3.962874       0.00000
  50    .07753        7.2181        0.0000       11.1809       11.1809       3.962851       0.01828
  49    .09103        7.2181        0.0000       11.1809       11.1809       3.962823       0.01791
  48    0.1069        7.2181        0.0000       11.1809       11.1809       3.962790       0.01754
  47    0.1255        7.2181        0.0000       11.1809       11.1809       3.962752       0.01716
  46    0.1487        7.2181        0.0000       11.1808       11.1808       3.962704       0.01742
  45    0.1794        7.2181        0.0000       11.1808       11.1808       3.962639       0.01792
  44    0.2165        7.2182        0.0000       11.1807       11.1807       3.962562       0.01758
  43    0.2613        7.2182        0.0000       11.1806       11.1806       3.962470       0.01725
  42    0.3336        7.2182        0.0000       11.1805       11.1805       3.962319       0.01765
  41    0.4307        7.2182        0.0000       11.1803       11.1804       3.962118       0.01746
  40    0.5894        7.2183        0.0000       11.1801       11.1801       3.961790       0.01744
  39     1.339        7.2186        0.0001       11.1788       11.1789       3.960238       0.01747
  38     1.782        7.2188        0.0001       11.1781       11.1782       3.959327       0.01735
  37     2.292        7.2191        0.0001       11.1772       11.1773       3.958272       0.01747
  36     2.964        7.2194        0.0002       11.1761       11.1762       3.956887       0.01739
  35     3.853        7.2197        0.0002       11.1746       11.1748       3.955057       0.01737
  34     5.035        7.2203        0.0003       11.1726       11.1729       3.952626       0.01737
  33     6.613        7.2210        0.0004       11.1700       11.1703       3.949379       0.01736
  32     8.786        7.2219        0.0005       11.1664       11.1669       3.945004       0.01699
  31     11.80        7.2232        0.0007       11.1613       11.1620       3.938749       0.01751
  30     15.07        7.2247        0.0009       11.1558       11.1567       3.932037       0.01733
  29     18.79        7.2263        0.0011       11.1497       11.1508       3.924462       0.01718
  28     23.16        7.2282        0.0013       11.1425       11.1439       3.915623       0.01709
  27     28.12        7.2304        0.0016       11.1343       11.1360       3.905528       0.01716
  26     33.73        7.2329        0.0020       11.1252       11.1272       3.894250       0.01696
  25     40.54        7.2359        0.0024       11.1142       11.1166       3.880651       0.01687
  24     48.69        7.2395        0.0028       11.1010       11.1038       3.864297       0.01692
  23     57.69        7.2436        0.0033       11.0866       11.0899       3.846385       0.01679
  22     68.43        7.2484        0.0040       11.0695       11.0735       3.825126       0.01671
  21     81.20        7.2542        0.0047       11.0494       11.0541       3.799903       0.01667
  20     96.49        7.2611        0.0056       11.0255       11.0311       3.769998       0.01651
  19     114.6        7.2695        0.0066       10.9975       11.0042       3.734697       0.01648
  18     136.5        7.2795        0.0078       10.9648       10.9726       3.693138       0.01598
  17     162.9        7.2916        0.0093       10.9263       10.9356       3.644025       0.01570
  16     196.4        7.3076        0.0112       10.8773       10.8885       3.580900       0.01589
  15     218.7        7.3183        0.0125       10.8455       10.8580       3.539736       0.01563
  14     243.0        7.3301        0.0138       10.8114       10.8253       3.495186       0.01545
  13     269.0        7.3431        0.0153       10.7749       10.7902       3.447048       0.01562
  12     297.5        7.3575        0.0169       10.7357       10.7526       3.395048       0.01542
  11     328.5        7.3735        0.0186       10.6937       10.7123       3.338817       0.01529
  10     361.9        7.3912        0.0204       10.6489       10.6693       3.278067       0.01537
   9     398.1        7.4109        0.0224       10.6008       10.6231       3.212212       0.01534
   8     437.6        7.4330        0.0245       10.5491       10.5736       3.140524       0.01533
   7     480.5        7.4579        0.0268       10.4934       10.5202       3.062311       0.01536
   6     533.0        7.4903        0.0296       10.4243       10.4538       2.963533       0.01589
   5     589.8        7.5281        0.0326       10.3479       10.3805       2.852320       0.01651
   4     651.6        7.5736        0.0358       10.2613       10.2971       2.723543       0.01761
   3     718.7        7.6294        0.0392       10.1618       10.2010       2.571604       0.01909
   2     792.3        7.7004        0.0428       10.0439       10.0867       2.386321       0.02125
   1     891.5        2.7735        4.8547        0.1205        4.9752       2.201673       0.01571
   0    1013.0        2.8322        4.7493        0.1174        4.8667       2.034496       0.01161



 Wavenumbers:  8050. - 12850. cm-1, ATM      1
 LEVEL PRESSURE   UPWARD FLUX   DIFDOWN FLUX  DIRDOWN FLUX  DOWNWARD FLUX   NET FLUX    HEATING RATE
          mb          W/m2          W/m2          W/m2        W/m2          W/m2       degree/day
  51    .06700      104.5066        0.0000      156.5418      156.5418      52.035152       0.00000
  50    .07753      104.5066        0.0000      156.5417      156.5417      52.035152      -0.00000
  49    .09103      104.5066        0.0001      156.5417      156.5417      52.035152       0.00000
  48    0.1069      104.5066        0.0001      156.5416      156.5417      52.035152       0.00000
  47    0.1255      104.5065        0.0002      156.5415      156.5417      52.035152      -0.00000
  46    0.1487      104.5065        0.0002      156.5414      156.5417      52.035152       0.00000
  45    0.1794      104.5065        0.0003      156.5413      156.5416      52.035152       0.00000
  44    0.2165      104.5064        0.0004      156.5412      156.5416      52.035152      -0.00000
  43    0.2613      104.5064        0.0006      156.5410      156.5416      52.035152       0.00000
  42    0.3336      104.5063        0.0008      156.5407      156.5415      52.035152       0.00000
  41    0.4307      104.5062        0.0011      156.5403      156.5414      52.035152      -0.00000
  40    0.5894      104.5061        0.0015      156.5397      156.5412      52.035152       0.00000
  39     1.339      104.5053        0.0037      156.5367      156.5405      52.035152       0.00000
  38     1.782      104.5049        0.0050      156.5350      156.5400      52.035152      -0.00000
  37     2.292      104.5043        0.0065      156.5330      156.5395      52.035152       0.00000
  36     2.964      104.5037        0.0085      156.5303      156.5388      52.035152       0.00000
  35     3.853      104.5027        0.0111      156.5268      156.5379      52.035152      -0.00000
  34     5.035      104.5016        0.0145      156.5222      156.5367      52.035152       0.00000
  33     6.613      104.4999        0.0191      156.5160      156.5351      52.035152       0.00000
  32     8.786      104.4978        0.0253      156.5076      156.5329      52.035152      -0.00000
  31     11.80      104.4947        0.0342      156.4957      156.5298      52.035152      -0.00000
  30     15.07      104.4914        0.0437      156.4828      156.5265      52.035152       0.00000
  29     18.79      104.4876        0.0545      156.4682      156.5228      52.035152       0.00000
  28     23.16      104.4832        0.0672      156.4512      156.5184      52.035152      -0.00000
  27     28.12      104.4782        0.0816      156.4317      156.5133      52.035152      -0.00000
  26     33.73      104.4725        0.0978      156.4099      156.5077      52.035152       0.00000
  25     40.54      104.4657        0.1174      156.3834      156.5009      52.035152       0.00000
  24     48.69      104.4575        0.1411      156.3515      156.4926      52.035152       0.00000
  23     57.69      104.4484        0.1671      156.3164      156.4835      52.035152      -0.00000
  22     68.43      104.4376        0.1982      156.2746      156.4727      52.035152       0.00000
  21     81.20      104.4247        0.2352      156.2246      156.4598      52.035152      -0.00000
  20     96.49      104.4092        0.2795      156.1649      156.4444      52.035152       0.00000
  19     114.6      104.3911        0.3321      156.0879      156.4200      52.028891       0.00292
  18     136.5      104.3696        0.3946      155.9962      156.3907      52.021127       0.00299
  17     162.9      104.3440        0.4692      155.8831      156.3522      52.008253       0.00412
  16     196.4      104.3108        0.5661      155.7199      156.2861      51.975300       0.00829
  15     218.7      104.2894        0.6299      155.5733      156.2032      51.913877       0.02332
  14     243.0      104.2671        0.6993      155.3367      156.0359      51.768855       0.05030
  13     269.0      104.2454        0.7743      154.9514      155.7257      51.480273       0.09361
  12     297.5      104.2268        0.8550      154.3896      155.2446      51.017873       0.13714
  11     328.5      104.2127        0.9421      153.7151      154.6572      50.444490       0.15590
  10     361.9      104.2066        1.0356      152.9087      153.9443      49.737746       0.17881
   9     398.1      104.2139        1.1356      151.8986      153.0342      48.820332       0.21374
   8     437.6      104.2441        1.2420      150.6031      151.8452      47.601066       0.26069
   7     480.5      104.3087        1.3545      149.0014      150.3559      46.047205       0.30517
   6     533.0      104.4496        1.4907      146.7375      148.2283      43.778707       0.36493
   5     589.8      104.7154        1.6334      143.8730      145.5064      40.791011       0.44347
   4     651.6      105.2462        1.7799      140.0955      141.8754      36.629158       0.56914
   3     718.7      106.2483        1.9285      135.5278      137.4563      31.207961       0.68129
   2     792.3      108.2397        2.0757      130.0690      132.1447      23.904961       0.83757
   1     891.5       61.2060       76.4304        1.4906       77.9210      16.715018       0.61183
   0    1013.0       63.4407       72.8700        1.3786       74.2486      10.807935       0.41016



 Wavenumbers: 12850. - 16000. cm-1, ATM      1
 LEVEL PRESSURE   UPWARD FLUX   DIFDOWN FLUX  DIRDOWN FLUX  DOWNWARD FLUX   NET FLUX    HEATING RATE
          mb          W/m2          W/m2          W/m2        W/m2          W/m2       degree/day
  51    .06700       81.2098        0.0000       98.0872       98.0872      16.877409       0.00000
  50    .07753       81.2098        0.0001       98.0864       98.0864      16.876617       0.63526
  49    .09103       81.2098        0.0002       98.0853       98.0855      16.875621       0.62229
  48    0.1069       81.2098        0.0003       98.0841       98.0843      16.874477       0.60909
  47    0.1255       81.2099        0.0004       98.0826       98.0830      16.873162       0.59619
  46    0.1487       81.2099        0.0005       98.0809       98.0814      16.871502       0.60519
  45    0.1794       81.2099        0.0007       98.0784       98.0792      16.869242       0.62027
  44    0.2165       81.2100        0.0010       98.0756       98.0766      16.866583       0.60487
  43    0.2613       81.2101        0.0013       98.0723       98.0736      16.863455       0.58972
  42    0.3336       81.2104        0.0017       98.0670       98.0688      16.858345       0.59572
  41    0.4307       81.2108        0.0024       98.0602       98.0626      16.851733       0.57492
  40    0.5894       81.2117        0.0034       98.0496       98.0530      16.841302       0.55468
  39     1.339       81.2187        0.0082       98.0043       98.0126      16.793861       0.53410
  38     1.782       81.2251        0.0111       97.9793       97.9904      16.765264       0.54444
  37     2.292       81.2346        0.0144       97.9498       97.9642      16.729568       0.59122
  36     2.964       81.2503        0.0187       97.9088       97.9275      16.677267       0.65653
  35     3.853       81.2755        0.0244       97.8503       97.8748      16.599292       0.74000
  34     5.035       81.3134        0.0320       97.7680       97.8000      16.486591       0.80509
  33     6.613       81.3664        0.0422       97.6562       97.6984      16.331970       0.82660
  32     8.786       81.4354        0.0558       97.5107       97.5665      16.131132       0.77998
  31     11.80       81.5252        0.0753       97.3179       97.3932      15.867962       0.73679
  30     15.07       81.6115        0.0963       97.1283       97.2246      15.613135       0.65791
  29     18.79       81.6996        0.1199       96.9300       97.0499      15.350280       0.59597
  28     23.16       81.7920        0.1474       96.7166       96.8640      15.072060       0.53799
  27     28.12       81.8851        0.1790       96.4935       96.6724      14.787331       0.48402
  26     33.73       81.9716        0.2142       96.2731       96.4873      14.515738       0.40835
  25     40.54       82.0554        0.2568       96.0408       96.2976      14.242172       0.33939
  24     48.69       82.1365        0.3082       95.7946       96.1028      13.966246       0.28554
  23     57.69       82.2062        0.3646       95.5573       95.9219      13.715675       0.23487
  22     68.43       82.2683        0.4319       95.3106       95.7425      13.474192       0.18984
  21     81.20       82.3136        0.5121       95.0643       95.5765      13.262921       0.13960
  20     96.49       82.3409        0.6079       94.8153       95.4231      13.082203       0.09974
  19     114.6       82.3729        0.7227       94.5411       95.2637      12.890878       0.08934
  18     136.5       82.3991        0.8588       94.2320       95.0908      12.691679       0.07660
  17     162.9       82.4199        1.0208       93.8753       94.8961      12.476252       0.06886
  16     196.4       82.4244        1.2310       93.4347       94.6657      12.241293       0.05914
  15     218.7       82.4194        1.3691       93.1513       94.5203      12.100924       0.05329
  14     243.0       82.4108        1.5191       92.8439       94.3630      11.952234       0.05157
  13     269.0       82.3986        1.6817       92.5111       94.1928      11.794187       0.05127
  12     297.5       82.3837        1.8574       92.1495       94.0069      11.623237       0.05070
  11     328.5       82.3681        2.0473       91.7554       93.8027      11.434562       0.05130
  10     361.9       82.3532        2.2517       91.3262       93.5779      11.224726       0.05309
   9     398.1       82.3407        2.4717       90.8575       93.3292      10.988506       0.05503
   8     437.6       82.3343        2.7078       90.3418       93.0496      10.715365       0.05840
   7     480.5       82.3374        2.9607       89.7728       92.7335      10.396184       0.06269
   6     533.0       82.3605        3.2717       89.0428       92.3146       9.954070       0.07112
   5     589.8       82.4211        3.6060       88.2038       91.8098       9.388733       0.08391
   4     651.6       82.5584        3.9631       87.1979       91.1610       8.602606       0.10750
   3     718.7       82.8029        4.3416       86.0161       90.3577       7.554817       0.13168
   2     792.3       83.2451        4.7375       84.5970       89.3346       6.089479       0.16806
   1     891.5       63.0331       66.3539        1.0068       67.3607       4.327632       0.14992
   0    1013.0       63.9717       65.2457        0.9724       66.2181       2.246358       0.14451



 Wavenumbers: 16000. - 22650. cm-1, ATM      1
 LEVEL PRESSURE   UPWARD FLUX   DIFDOWN FLUX  DIRDOWN FLUX  DOWNWARD FLUX   NET FLUX    HEATING RATE
          mb          W/m2          W/m2          W/m2        W/m2          W/m2       degree/day
  51    .06700      140.7780        0.0000      156.3892      156.3892      15.611215       0.00000
  50    .07753      140.7780        0.0004      156.3887      156.3891      15.611068       0.11823
  49    .09103      140.7780        0.0009      156.3879      156.3888      15.610853       0.13410
  48    0.1069      140.7780        0.0015      156.3871      156.3885      15.610566       0.15291
  47    0.1255      140.7780        0.0021      156.3861      156.3882      15.610181       0.17430
  46    0.1487      140.7781        0.0030      156.3847      156.3877      15.609615       0.20654
  45    0.1794      140.7782        0.0041      156.3828      156.3869      15.608729       0.24319
  44    0.2165      140.7784        0.0054      156.3805      156.3859      15.607527       0.27332
  43    0.2613      140.7787        0.0070      156.3776      156.3846      15.605897       0.30728
  42    0.3336      140.7795        0.0096      156.3726      156.3823      15.602798       0.36135
  41    0.4307      140.7807        0.0131      156.3657      156.3789      15.598126       0.40620
  40    0.5894      140.7833        0.0188      156.3537      156.3725      15.589216       0.47381
  39     1.339      140.8058        0.0458      156.2834      156.3292      15.523390       0.74109
  38     1.782      140.8267        0.0617      156.2324      156.2940      15.467313       1.06760
  37     2.292      140.8579        0.0800      156.1641      156.2441      15.386142       1.34440
  36     2.964      140.9099        0.1040      156.0605      156.1645      15.254644       1.65070
  35     3.853      140.9939        0.1358      155.9041      156.0399      15.045990       1.98017
  34     5.035      141.1206        0.1779      155.6774      155.8553      14.734693       2.22377
  33     6.613      141.2977        0.2342      155.3656      155.5998      14.302083       2.31273
  32     8.786      141.5284        0.3099      154.9577      155.2675      13.739162       2.18618
  31     11.80      141.8286        0.4180      154.4153      154.8333      13.004697       2.05627
  30     15.07      142.1161        0.5339      153.8804      154.4143      12.298170       1.82412
  29     18.79      142.4097        0.6647      153.3191      153.9838      11.574049       1.64181
  28     23.16      142.7165        0.8172      152.7126      153.5297      10.813189       1.47126
  27     28.12      143.0252        0.9913      152.0755      153.0668      10.041554       1.31173
  26     33.73      143.3101        1.1859      151.4409      152.6269       9.316761       1.08974
  25     40.54      143.5842        1.4209      150.7637      152.1846       8.600410       0.88871
  24     48.69      143.8465        1.7039      150.0338      151.7377       7.891216       0.73390
  23     57.69      144.0688        2.0144      149.3151      151.3295       7.260675       0.59104
  22     68.43      144.2626        2.3837      148.5476      150.9313       6.668767       0.46532
  21     81.20      144.3961        2.8235      147.7517      150.5752       6.179124       0.32355
  20     96.49      144.4648        3.3470      146.9127      150.2597       5.794880       0.21207
  19     114.6      144.5000        3.9668      145.9763      149.9431       5.443125       0.16424
  18     136.5      144.5104        4.6987      144.9088      149.6074       5.097091       0.13306
  17     162.9      144.4942        5.5661      143.6785      149.2447       4.750468       0.11079
  16     196.4      144.4116        6.6853      142.1651      148.8504       4.438717       0.07847
  15     218.7      144.3349        7.4167      141.2033      148.6200       4.285132       0.05831
  14     243.0      144.2411        8.2083      140.1753      148.3836       4.142477       0.04948
  13     269.0      144.1288        9.0623      139.0797      148.1420       4.013156       0.04195
  12     297.5      143.9972        9.9807      137.9141      147.8948       3.897536       0.03429
  11     328.5      143.8505       10.9679      136.6676      147.6355       3.784976       0.03060
  10     361.9      143.6883       12.0247      135.3392      147.3639       3.675604       0.02767
   9     398.1      143.5101       13.1552      133.9235      147.0787       3.568507       0.02495
   8     437.6      143.3171       14.3614      132.4163      146.7776       3.460507       0.02309
   7     480.5      143.1088       15.6454      130.8147      146.4601       3.351276       0.02145
   6     533.0      142.8528       17.2137      128.8599      146.0737       3.220862       0.02098
   5     589.8      142.5812       18.8894      126.7679      145.6573       3.076157       0.02148
   4     651.6      142.3008       20.6740      124.5274      145.2015       2.900693       0.02400
   3     718.7      142.0182       22.5693      122.1285      144.6978       2.679620       0.02778
   2     792.3      141.7511       24.5732      119.5548      144.1280       2.376892       0.03472
   1     891.5      119.8917      120.4095        1.4176      121.8271       1.935336       0.03757
   0    1013.0      120.1639      120.1196        1.3661      121.4857       1.321735       0.04261



 Wavenumbers: 22650. - 29000. cm-1, ATM      1
 LEVEL PRESSURE   UPWARD FLUX   DIFDOWN FLUX  DIRDOWN FLUX  DOWNWARD FLUX   NET FLUX    HEATING RATE
          mb          W/m2          W/m2          W/m2        W/m2          W/m2       degree/day
  51    .06700       58.6820        0.0000       59.0156       59.0156       0.333604       0.00000
  50    .07753       58.6819        0.0005       59.0151       59.0155       0.333604       0.00000
  49    .09103       58.6818        0.0010       59.0144       59.0154       0.333604      -0.00000
  48    0.1069       58.6817        0.0017       59.0136       59.0153       0.333604       0.00000
  47    0.1255       58.6815        0.0025       59.0127       59.0151       0.333604      -0.00000
  46    0.1487       58.6813        0.0035       59.0115       59.0149       0.333604       0.00000
  45    0.1794       58.6811        0.0048       59.0099       59.0147       0.333604       0.00000
  44    0.2165       58.6808        0.0063       59.0080       59.0144       0.333604      -0.00000
  43    0.2613       58.6804        0.0082       59.0058       59.0140       0.333604      -0.00000
  42    0.3336       58.6798        0.0113       59.0022       59.0134       0.333604      -0.00000
  41    0.4307       58.6790        0.0154       58.9973       59.0127       0.333604       0.00000
  40    0.5894       58.6778        0.0220       58.9894       59.0114       0.333604       0.00000
  39     1.339       58.6717        0.0535       58.9518       59.0053       0.333604       0.00000
  38     1.782       58.6681        0.0720       58.9297       59.0017       0.333604      -0.00000
  37     2.292       58.6640        0.0934       58.9042       58.9976       0.333604       0.00000
  36     2.964       58.6586        0.1216       58.8706       58.9922       0.333604       0.00000
  35     3.853       58.6515        0.1587       58.8264       58.9851       0.333604       0.00000
  34     5.035       58.6420        0.2080       58.7676       58.9756       0.333604       0.00000
  33     6.613       58.6293        0.2738       58.6891       58.9629       0.333604       0.00000
  32     8.786       58.6122        0.3624       58.5834       58.9458       0.333604      -0.00000
  31     11.80       58.5879        0.4890       58.4324       58.9215       0.333604      -0.00000
  30     15.07       58.5617        0.6247       58.2706       58.8953       0.333604       0.00000
  29     18.79       58.5323        0.7777       58.0882       58.8659       0.333604       0.00000
  28     23.16       58.4980        0.9559       57.8757       58.8316       0.333604       0.00000
  27     28.12       58.4588        1.1591       57.6333       58.7924       0.333604       0.00000
  26     33.73       58.4152        1.3857       57.3631       58.7488       0.333604       0.00000
  25     40.54       58.3627        1.6584       57.0379       58.6963       0.333604      -0.00000
  24     48.69       58.2997        1.9854       56.6479       58.6333       0.333604       0.00000
  23     57.69       58.2309        2.3424       56.2221       58.5645       0.333604       0.00000
  22     68.43       58.1496        2.7646       55.7186       58.4832       0.333604      -0.00000
  21     81.20       58.0535        3.2632       55.1239       58.3871       0.333604      -0.00000
  20     96.49       57.9402        3.8510       54.4228       58.2738       0.333604       0.00000
  19     114.6       57.8074        4.5400       53.6010       58.1410       0.333604       0.00000
  18     136.5       57.6523        5.3441       52.6418       57.9859       0.333604       0.00000
  17     162.9       57.4709        6.2842       51.5203       57.8045       0.333604      -0.00000
  16     196.4       57.2411        7.4752       50.0994       57.5747       0.333604       0.00000
  15     218.7       57.0933        8.2406       49.1863       57.4269       0.333604       0.00000
  14     243.0       56.9355        9.0578       48.2113       57.2691       0.333604       0.00000
  13     269.0       56.7676        9.9263       47.1749       57.1013       0.333604       0.00000
  12     297.5       56.5900       10.8453       46.0783       56.9236       0.333604      -0.00000
  11     328.5       56.4022       11.8163       44.9195       56.7358       0.333604       0.00000
  10     361.9       56.2048       12.8365       43.7018       56.5384       0.333604      -0.00000
   9     398.1       55.9977       13.9062       42.4250       56.3313       0.333604       0.00000
   8     437.6       55.7812       15.0232       41.0916       56.1148       0.333604       0.00000
   7     480.5       55.5559       16.1851       39.7045       55.8895       0.333604       0.00000
   6     533.0       55.2877       17.5671       38.0543       55.6213       0.333604       0.00000
   5     589.8       55.0093       18.9999       36.3431       55.3429       0.333604       0.00000
   4     651.6       54.7221       20.4762       34.5795       55.0557       0.333604       0.00000
   3     718.7       54.4271       21.9905       32.7702       54.7607       0.333604      -0.00000
   2     792.3       54.1260       23.5340       30.9256       54.4596       0.333604       0.00000
   1     891.5       48.7394       48.7237        0.3489       49.0726       0.333199       0.00003
   0    1013.0       48.7227       48.7388        0.3170       49.0559       0.333199      -0.00000



 Wavenumbers: 29000. - 38000. cm-1, ATM      1
 LEVEL PRESSURE   UPWARD FLUX   DIFDOWN FLUX  DIRDOWN FLUX  DOWNWARD FLUX   NET FLUX    HEATING RATE
          mb          W/m2          W/m2          W/m2        W/m2          W/m2       degree/day
  51    .06700        8.7709        0.0000       20.8114       20.8114      12.040480       0.00000
  50    .07753        8.7707        0.0003       20.8070       20.8074      12.036673       3.05156
  49    .09103        8.7705        0.0007       20.8009       20.8016      12.031136       3.46086
  48    0.1069        8.7702        0.0012       20.7928       20.7939      12.023726       3.94430
  47    0.1255        8.7699        0.0017       20.7820       20.7837      12.013821       4.49035
  46    0.1487        8.7696        0.0024       20.7665       20.7688      11.999258       5.30846
  45    0.1794        8.7691        0.0033       20.7424       20.7457      11.976593       6.22206
  44    0.2165        8.7686        0.0044       20.7103       20.7147      11.946070       6.94343
  43    0.2613        8.7680        0.0056       20.6675       20.6731      11.905075       7.72735
  42    0.3336        8.7671        0.0077       20.5880       20.5957      11.828514       8.92629
  41    0.4307        8.7661        0.0104       20.4722       20.4826      11.716561       9.73406
  40    0.5894        8.7645        0.0147       20.2637       20.2784      11.513876      10.77851
  39     1.339        8.7611        0.0331       19.0984       19.1315      10.370393      12.87355
  38     1.782        8.7616        0.0427       18.4394       18.4821       9.720462      12.37362
  37     2.292        8.7643        0.0530       17.7714       17.8244       9.060109      10.93717
  36     2.964        8.7709        0.0657       17.0421       17.1078       8.336972       9.07756
  35     3.853        8.7837        0.0816       16.2678       16.3495       7.565771       7.31883
  34     5.035        8.8049        0.1018       15.4803       15.5821       6.777245       5.63291
  33     6.613        8.8357        0.1276       14.7157       14.8433       6.007617       4.11443
  32     8.786        8.8763        0.1614       13.9936       14.1550       5.278608       2.83121
  31     11.80        8.9294        0.2085       13.2835       13.4920       4.562564       2.00470
  30     15.07        8.9806        0.2573       12.7394       12.9966       4.016006       1.41111
  29     18.79        9.0335        0.3114       12.2666       12.5780       3.544467       1.06912
  28     23.16        9.0897        0.3730       11.8300       12.2030       3.113222       0.83389
  27     28.12        9.1473        0.4419       11.4279       11.8698       2.722412       0.66435
  26     33.73        9.2005        0.5179       11.0695       11.5873       2.386785       0.50462
  25     40.54        9.2510        0.6086       10.7209       11.3295       2.078486       0.38248
  24     48.69        9.2987        0.7163       10.3742       11.0905       1.791787       0.29669
  23     57.69        9.3379        0.8329       10.0549       10.8878       1.549888       0.22674
  22     68.43        9.3697        0.9696        9.7327       10.7024       1.332707       0.17073
  21     81.20        9.3850        1.1311        9.4134       10.5445       1.159512       0.11444
  20     96.49        9.3820        1.3210        9.0887       10.4097       1.027660       0.07277
  19     114.6        9.3688        1.5403        8.7388       10.2791       0.910284       0.05481
  18     136.5        9.3483        1.7911        8.3549       10.1460       0.797649       0.04331
  17     162.9        9.3207        2.0770        7.9311       10.0081       0.687353       0.03525
  16     196.4        9.2741        2.4311        7.4333        9.8644       0.590260       0.02444
  15     218.7        9.2405        2.6538        7.1295        9.7834       0.542900       0.01798
  14     243.0        9.2036        2.8867        6.8161        9.7028       0.499164       0.01517
  13     269.0        9.1633        3.1289        6.4943        9.6232       0.459890       0.01274
  12     297.5        9.1197        3.3792        6.1657        9.5450       0.425264       0.01027
  11     328.5        9.0741        3.6368        5.8295        9.4662       0.392110       0.00901
  10     361.9        9.0271        3.8991        5.4886        9.3877       0.360575       0.00798
   9     398.1        8.9788        4.1655        5.1440        9.3095       0.330687       0.00696
   8     437.6        8.9297        4.4346        4.7969        9.2315       0.301871       0.00616
   7     480.5        8.8801        4.7042        4.4504        9.1546       0.274514       0.00537
   6     533.0        8.8233        5.0117        4.0563        9.0680       0.244687       0.00480
   5     589.8        8.7673        5.3149        3.6682        8.9831       0.215802       0.00429
   4     651.6        8.7132        5.6102        3.2905        8.9007       0.187537       0.00387
   3     718.7        8.6614        5.8960        2.9252        8.8212       0.159846       0.00348
   2     792.3        8.6127        6.1690        2.5764        8.7454       0.132735       0.00311
   1     891.5        8.0391        8.1139        0.0265        8.1403       0.101223       0.00268
   0    1013.0        8.0488        8.0948        0.0214        8.1162       0.067334       0.00235



 Wavenumbers: 38000. - 50000. cm-1, ATM      1
 LEVEL PRESSURE   UPWARD FLUX   DIFDOWN FLUX  DIRDOWN FLUX  DOWNWARD FLUX   NET FLUX    HEATING RATE
          mb          W/m2          W/m2          W/m2        W/m2          W/m2       degree/day
  51    .06700        0.0061        0.0000        1.2836        1.2836       1.277518       0.00000
  50    .07753        0.0061        0.0001        1.2812        1.2812       1.275183       1.87150
  49    .09103        0.0060        0.0002        1.2777        1.2778       1.271851       2.08247
  48    0.1069        0.0059        0.0002        1.2731        1.2734       1.267473       2.33059
  47    0.1255        0.0058        0.0004        1.2672        1.2675       1.261717       2.60908
  46    0.1487        0.0057        0.0005        1.2586        1.2591       1.253391       3.03499
  45    0.1794        0.0055        0.0007        1.2455        1.2462       1.240623       3.50520
  44    0.2165        0.0054        0.0009        1.2282        1.2291       1.223697       3.85037
  43    0.2613        0.0052        0.0011        1.2054        1.2065       1.201348       4.21261
  42    0.3336        0.0049        0.0015        1.1639        1.1654       1.160524       4.75970
  41    0.4307        0.0045        0.0020        1.1051        1.1070       1.102565       5.03943
  40    0.5894        0.0039        0.0026        1.0039        1.0064       1.002524       5.32007
  39     1.339        0.0022        0.0035        0.5438        0.5473       0.545104       5.14971
  38     1.782        0.0016        0.0032        0.3635        0.3666       0.365006       3.42879
  37     2.292        0.0012        0.0027        0.2356        0.2383       0.237058       2.11916
  36     2.964        0.0009        0.0022        0.1455        0.1477       0.146786       1.13318
  35     3.853        0.0006        0.0017        0.0858        0.0875       0.086906       0.56828
  34     5.035        0.0004        0.0013        0.0488        0.0501       0.049701       0.26578
  33     6.613        0.0003        0.0010        0.0273        0.0282       0.027974       0.11615
  32     8.786        0.0002        0.0007        0.0144        0.0151       0.014928       0.05067
  31     11.80        0.0001        0.0004        0.0065        0.0070       0.006903       0.02247
  30     15.07        0.0000        0.0003        0.0031        0.0034       0.003329       0.00923
  29     18.79        0.0000        0.0002        0.0014        0.0016       0.001583       0.00396
  28     23.16        0.0000        0.0001        0.0006        0.0007       0.000720       0.00167
  27     28.12        0.0000        0.0001        0.0003        0.0003       0.000317       0.00069
  26     33.73        0.0000        0.0000        0.0001        0.0001       0.000140       0.00027
  25     40.54        0.0000        0.0000        0.0000        0.0001       0.000057       0.00010
  24     48.69        0.0000        0.0000        0.0000        0.0000       0.000021       0.00004
  23     57.69        0.0000        0.0000        0.0000        0.0000       0.000008       0.00001
  22     68.43        0.0000        0.0000        0.0000        0.0000       0.000003       0.00000
  21     81.20        0.0000        0.0000        0.0000        0.0000       0.000001       0.00000
  20     96.49        0.0000        0.0000        0.0000        0.0000       0.000000       0.00000
  19     114.6        0.0000        0.0000        0.0000        0.0000       0.000000       0.00000
  18     136.5        0.0000        0.0000        0.0000        0.0000       0.000000       0.00000
  17     162.9        0.0000        0.0000        0.0000        0.0000       0.000000       0.00000
  16     196.4        0.0000        0.0000        0.0000        0.0000       0.000000       0.00000
  15     218.7        0.0000        0.0000        0.0000        0.0000       0.000000       0.00000
  14     243.0        0.0000        0.0000        0.0000        0.0000       0.000000       0.00000
  13     269.0        0.0000        0.0000        0.0000        0.0000       0.000000       0.00000
  12     297.5        0.0000        0.0000        0.0000        0.0000       0.000000       0.00000
  11     328.5        0.0000        0.0000        0.0000        0.0000       0.000000       0.00000
  10     361.9        0.0000        0.0000        0.0000        0.0000       0.000000       0.00000
   9     398.1        0.0000        0.0000        0.0000        0.0000       0.000000       0.00000
   8     437.6        0.0000        0.0000        0.0000        0.0000       0.000000       0.00000
   7     480.5        0.0000        0.0000        0.0000        0.0000       0.000000       0.00000
   6     533.0        0.0000        0.0000        0.0000        0.0000       0.000000       0.00000
   5     589.8        0.0000        0.0000        0.0000        0.0000       0.000000       0.00000
   4     651.6        0.0000        0.0000        0.0000        0.0000       0.000000       0.00000
   3     718.7        0.0000        0.0000        0.0000        0.0000       0.000000       0.00000
   2     792.3        0.0000        0.0000        0.0000        0.0000       0.000000       0.00000
   1     891.5        0.0000        0.0000        0.0000        0.0000       0.000000       0.00000
   0    1013.0        0.0000        0.0000        0.0000        0.0000       0.000000       0.00000



 Wavenumbers:   820. -  2600. cm-1, ATM      1
 LEVEL PRESSURE   UPWARD FLUX   DIFDOWN FLUX  DIRDOWN FLUX  DOWNWARD FLUX   NET FLUX    HEATING RATE
          mb          W/m2          W/m2          W/m2        W/m2          W/m2       degree/day
  51    .06700        1.1919        0.0000        6.0047        6.0047       4.812741       0.00000
  50    .07753        1.1919        0.0000        6.0008        6.0008       4.808888       3.08824
  49    .09103        1.1919        0.0000        5.9999        5.9999       4.808002       0.55360
  48    0.1069        1.1919        0.0000        5.9989        5.9989       4.807013       0.52655
  47    0.1255        1.1919        0.0000        5.9978        5.9978       4.805895       0.50652
  46    0.1487        1.1919        0.0000        5.9964        5.9964       4.804539       0.49460
  45    0.1794        1.1919        0.0000        5.9947        5.9947       4.802819       0.47203
  44    0.2165        1.1919        0.0000        5.9929        5.9929       4.800977       0.41913
  43    0.2613        1.1919        0.0000        5.9909        5.9909       4.799017       0.36936
  42    0.3336        1.1919        0.0000        5.9880        5.9880       4.796139       0.33559
  41    0.4307        1.1919        0.0000        5.9846        5.9846       4.792669       0.30168
  40    0.5894        1.1919        0.0000        5.9791        5.9791       4.787163       0.29279
  39     1.339        1.1919        0.0000        5.9536        5.9536       4.761673       0.28698
  38     1.782        1.1919        0.0000        5.9395        5.9395       4.747533       0.26921
  37     2.292        1.1919        0.0000        5.9237        5.9237       4.731779       0.26092
  36     2.964        1.1919        0.0000        5.9039        5.9039       4.712002       0.24826
  35     3.853        1.1919        0.0000        5.8793        5.8793       4.687343       0.23403
  34     5.035        1.1919        0.0000        5.8487        5.8487       4.656775       0.21837
  33     6.613        1.1920        0.0000        5.8108        5.8108       4.618803       0.20300
  32     8.786        1.1920        0.0000        5.7631        5.7631       4.571170       0.18499
  31     11.80        1.1920        0.0000        5.7039        5.7039       4.511899       0.16594
  30     15.07        1.1920        0.0000        5.6539        5.6539       4.461845       0.12923
  29     18.79        1.1920        0.0000        5.6127        5.6127       4.420692       0.09331
  28     23.16        1.1921        0.0000        5.5794        5.5794       4.387293       0.06458
  27     28.12        1.1921        0.0000        5.5518        5.5518       4.359700       0.04691
  26     33.73        1.1922        0.0000        5.5268        5.5268       4.334616       0.03771
  25     40.54        1.1922        0.0000        5.4993        5.4993       4.307134       0.03409
  24     48.69        1.1923        0.0000        5.4678        5.4678       4.275544       0.03269
  23     57.69        1.1923        0.0000        5.4340        5.4340       4.241701       0.03172
  22     68.43        1.1924        0.0000        5.3947        5.3948       4.202359       0.03093
  21     81.20        1.1925        0.0000        5.3497        5.3497       4.157242       0.02981
  20     96.49        1.1926        0.0000        5.2982        5.2982       4.105623       0.02849
  19     114.6        1.1927        0.0000        5.2389        5.2389       4.046171       0.02776
  18     136.5        1.1929        0.0000        5.1716        5.1717       3.978749       0.02593
  17     162.9        1.1932        0.0000        5.0890        5.0891       3.895881       0.02649
  16     196.4        1.1936        0.0000        4.9668        4.9668       3.773231       0.03087
  15     218.7        1.1940        0.0000        4.8585        4.8585       3.664451       0.04130
  14     243.0        1.1947        0.0000        4.7078        4.7079       3.513158       0.05247
  13     269.0        1.1957        0.0000        4.5343        4.5343       3.338574       0.05663
  12     297.5        1.1973        0.0000        4.3419        4.3420       3.144647       0.05752
  11     328.5        1.1995        0.0000        4.1281        4.1281       2.928668       0.05872
  10     361.9        1.2023        0.0000        3.8786        3.8787       2.676338       0.06384
   9     398.1        1.2060        0.0000        3.6159        3.6160       2.409905       0.06207
   8     437.6        1.2108        0.0000        3.3759        3.3759       2.165044       0.05235
   7     480.5        1.2167        0.0000        3.1957        3.1958       1.979059       0.03653
   6     533.0        1.2257        0.0000        3.0467        3.0467       1.821055       0.02542
   5     589.8        1.2388        0.0000        2.9023        2.9023       1.663513       0.02338
   4     651.6        1.2617        0.0001        2.7183        2.7184       1.456716       0.02828
   3     718.7        1.3012        0.0001        2.5058        2.5059       1.204700       0.03167
   2     792.3        1.3773        0.0001        2.2756        2.2757       0.898408       0.03513
   1     891.5        0.0035        0.6223        0.0240        0.6462       0.642766       0.02175
   0    1013.0        0.0042        0.5023        0.0189        0.5212       0.516990       0.00873

  Modules and versions used in this calculation:

       rrtmg_sw.1col.f90:  $Revision$                    rrtmg_sw_init.f90:  $Revision$        
     rrtmgsw_cldprop.f90:  $Revision$                  rrtmgsw_cldprmc.f90:  NOT USED          
     rrtmg_sw_reftra.f90:  $Revision$                  rrtmg_sw_spcvrt.f90:  NOT USED          
     rrtmg_sw_spcvmc.f90:  NOT USED                    rrtmgsw_setcoef.f90:  NOT USED          
     rrtmg_sw_taumol.f90:  $Revision$                  rrtmg_sw_vrtqdr.f90:  NOT USED          
                rrtatm.f:  NOT USED                             util_xxx.f:  NOT USED          
                 extra.f:  NOT USED                       rrtmg_sw_k_g.f90:  $Revision$        

