

 Wavenumbers:   820. - 50000. cm-1, ATM      1
 LEVEL PRESSURE   UPWARD FLUX   DIFDOWN FLUX  DIRDOWN FLUX  DOWNWARD FLUX   NET FLUX    HEATING RATE
          mb          W/m2          W/m2          W/m2        W/m2          W/m2       degree/day
  51    .06700      412.5865        0.0000      617.8126      617.8126     205.226054       0.00000
  50    .07753      412.5862        0.0013      617.7947      617.7961     205.209914      12.93598
  49    .09103      412.5857        0.0030      617.7778      617.7808     205.195106       9.25582
  48    0.1069      412.5852        0.0050      617.7581      617.7631     205.177846       9.18755
  47    0.1255      412.5847        0.0072      617.7340      617.7412     205.156503       9.67569
  46    0.1487      412.5841        0.0100      617.7009      617.7109     205.126821      10.81953
  45    0.1794      412.5834        0.0139      617.6521      617.6660     205.082595      12.14097
  44    0.2165      412.5826        0.0184      617.5895      617.6079     205.025282      13.03790
  43    0.2613      412.5819        0.0238      617.5089      617.5327     204.950779      14.04339
  42    0.3336      412.5810        0.0326      617.3641      617.3967     204.815714      15.74725
  41    0.4307      412.5802        0.0442      617.1591      617.2033     204.623121      16.74550
  40    0.5894      412.5799        0.0629      616.8005      616.8634     204.283490      18.06118
  39     1.339      412.5965        0.1476      614.9443      615.0919     202.495337      20.13135
  38     1.782      412.6188        0.1953      613.9670      614.1623     201.543479      18.12184
  37     2.292      412.6559        0.2495      613.0059      613.2554     200.599455      15.63550
  36     2.964      412.7217        0.3200      611.9577      612.2777     199.555939      13.09928
  35     3.853      412.8324        0.4124      610.8024      611.2148     198.382458      11.13655
  34     5.035      413.0027        0.5344      609.5327      610.0671     197.064367       9.41590
  33     6.613      413.2428        0.6963      608.1464      608.8427     195.599937       7.82885
  32     8.786      413.5554        0.9135      606.6250      607.5385     193.983072       6.27932
  31     11.80      413.9601        1.2227      604.8486      606.0713     192.111237       5.24055
  30     15.07      414.3450        1.5526      603.2440      604.7966     190.451621       4.28480
  29     18.79      414.7354        1.9239      601.6511      603.5750     188.839597       3.65496
  28     23.16      415.1404        2.3553      599.9927      602.3480     187.207525       3.15590
  27     28.12      415.5438        2.8463      598.2881      601.1343     185.590508       2.74882
  26     33.73      415.9077        3.3936      596.5951      599.9887     184.080970       2.26963
  25     40.54      416.2455        4.0526      594.7727      598.8253     182.579792       1.86238
  24     48.69      416.5540        4.8434      592.7865      597.6299     181.075830       1.55636
  23     57.69      416.7971        5.7077      590.7959      596.5036     179.706513       1.28353
  22     68.43      416.9827        6.7317      588.6191      595.3508     178.368125       1.05215
  21     81.20      417.0594        7.9458      586.2690      594.2148     177.155379       0.80136
  20     96.49      417.0168        9.3832      583.6961      593.0793     176.062478       0.60320
  19     114.6      416.9131       11.0743      580.7708      591.8451     174.931962       0.52787
  18     136.5      416.7460       13.0543      577.4359      590.4902     173.744141       0.45675
  17     162.9      416.5095       15.3779      573.5624      588.9403     172.430836       0.41979
  16     196.4      416.1161       18.3410      568.5907      586.9317     170.815632       0.40657
  15     218.7      415.8292       20.2567      565.0572      585.3140     169.484708       0.50530
  14     243.0      415.5087       22.3115      560.7495      583.0610     167.552250       0.67024
  13     269.0      415.1547       24.5065      555.3947      579.9012     164.746545       0.91016
  12     297.5      414.7705       26.8426      548.9964      575.8390     161.068432       1.09089
  11     328.5      414.3650       29.3261      542.0895      571.4157     157.050687       1.09241
  10     361.9      413.9432       31.9533      534.6242      566.5775     152.634289       1.11739
   9     398.1      413.5119       34.7286      526.4204      561.1490     147.637103       1.16423
   8     437.6      413.0857       37.6507      517.3907      555.0414     141.955692       1.21472
   7     480.5      412.6790       40.7177      507.7216      548.4392     135.760209       1.21677
   6     533.0      412.2716       44.4048      495.9006      540.3054     128.033763       1.24294
   5     589.8      411.9998       48.2736      483.0788      531.3524     119.352655       1.28856
   4     651.6      412.0453       52.3116      468.6907      521.0022     108.956915       1.42165
   3     718.7      412.6411       56.5105      453.2257      509.7362      97.095116       1.49070
   2     792.3      414.3737       60.8487      436.4928      497.3415      82.967833       1.62024
   1     891.5      356.2618      249.8065      171.5133      421.3198      65.058016       1.52404
   0    1013.0      362.3527      246.5859      160.9387      407.5246      45.171970       1.38079



 Wavenumbers:  2600. -  3250. cm-1, ATM      1
 LEVEL PRESSURE   UPWARD FLUX   DIFDOWN FLUX  DIRDOWN FLUX  DOWNWARD FLUX   NET FLUX    HEATING RATE
          mb          W/m2          W/m2          W/m2        W/m2          W/m2       degree/day
  51    .06700        1.4072        0.0000        5.4450        5.4450       4.037842       0.00000
  50    .07753        1.4072        0.0000        5.4450        5.4450       4.037834       0.00640
  49    .09103        1.4072        0.0000        5.4450        5.4450       4.037824       0.00627
  48    0.1069        1.4072        0.0000        5.4450        5.4450       4.037812       0.00613
  47    0.1255        1.4072        0.0000        5.4450        5.4450       4.037799       0.00599
  46    0.1487        1.4072        0.0000        5.4450        5.4450       4.037782       0.00608
  45    0.1794        1.4072        0.0000        5.4450        5.4450       4.037760       0.00625
  44    0.2165        1.4072        0.0000        5.4449        5.4449       4.037733       0.00612
  43    0.2613        1.4072        0.0000        5.4449        5.4449       4.037701       0.00600
  42    0.3336        1.4072        0.0000        5.4448        5.4448       4.037648       0.00617
  41    0.4307        1.4072        0.0000        5.4448        5.4448       4.037577       0.00620
  40    0.5894        1.4072        0.0000        5.4446        5.4446       4.037457       0.00637
  39     1.339        1.4072        0.0000        5.4439        5.4439       4.036749       0.00797
  38     1.782        1.4072        0.0000        5.4434        5.4434       4.036206       0.01034
  37     2.292        1.4072        0.0000        5.4427        5.4427       4.035490       0.01186
  36     2.964        1.4072        0.0000        5.4416        5.4416       4.034452       0.01304
  35     3.853        1.4072        0.0000        5.4402        5.4402       4.032974       0.01402
  34     5.035        1.4072        0.0000        5.4381        5.4381       4.030919       0.01468
  33     6.613        1.4072        0.0000        5.4353        5.4353       4.028137       0.01487
  32     8.786        1.4072        0.0000        5.4317        5.4317       4.024505       0.01411
  31     11.80        1.4072        0.0000        5.4269        5.4269       4.019724       0.01339
  30     15.07        1.4072        0.0000        5.4224        5.4224       4.015196       0.01169
  29     18.79        1.4072        0.0000        5.4180        5.4180       4.010782       0.01001
  28     23.16        1.4072        0.0000        5.4135        5.4135       4.006294       0.00868
  27     28.12        1.4072        0.0000        5.4088        5.4088       4.001642       0.00791
  26     33.73        1.4072        0.0000        5.4036        5.4036       3.996395       0.00789
  25     40.54        1.4072        0.0000        5.3966        5.3967       3.989445       0.00862
  24     48.69        1.4072        0.0000        5.3872        5.3872       3.979954       0.00982
  23     57.69        1.4073        0.0000        5.3754        5.3754       3.968151       0.01106
  22     68.43        1.4073        0.0000        5.3599        5.3599       3.952635       0.01220
  21     81.20        1.4073        0.0000        5.3401        5.3401       3.932762       0.01313
  20     96.49        1.4074        0.0000        5.3155        5.3155       3.908138       0.01359
  19     114.6        1.4075        0.0000        5.2853        5.2854       3.877862       0.01414
  18     136.5        1.4076        0.0001        5.2504        5.2505       3.842842       0.01347
  17     162.9        1.4078        0.0001        5.2111        5.2112       3.803335       0.01263
  16     196.4        1.4082        0.0001        5.1640        5.1641       3.755965       0.01192
  15     218.7        1.4085        0.0001        5.1331        5.1332       3.724708       0.01187
  14     243.0        1.4091        0.0001        5.0962        5.0963       3.687250       0.01299
  13     269.0        1.4100        0.0001        5.0511        5.0512       3.641248       0.01492
  12     297.5        1.4113        0.0001        4.9956        4.9957       3.584429       0.01685
  11     328.5        1.4132        0.0001        4.9304        4.9305       3.517338       0.01824
  10     361.9        1.4157        0.0001        4.8511        4.8512       3.435521       0.02070
   9     398.1        1.4192        0.0002        4.7507        4.7508       3.331611       0.02421
   8     437.6        1.4241        0.0002        4.6220        4.6222       3.198151       0.02853
   7     480.5        1.4307        0.0002        4.4625        4.4627       3.031984       0.03263
   6     533.0        1.4414        0.0002        4.2460        4.2462       2.804870       0.03654
   5     589.8        1.4575        0.0002        3.9954        3.9956       2.538109       0.03960
   4     651.6        1.4837        0.0002        3.7089        3.7091       2.225328       0.04277
   3     718.7        1.5262        0.0002        3.4018        3.4020       1.875841       0.04392
   2     792.3        1.6008        0.0002        3.0564        3.0566       1.455800       0.04817
   1     891.5        1.1019        0.9698        1.0700        2.0399       0.937952       0.04407
   0    1013.0        1.2664        0.8139        0.8636        1.6775       0.411107       0.03658



 Wavenumbers:  3250. -  4000. cm-1, ATM      1
 LEVEL PRESSURE   UPWARD FLUX   DIFDOWN FLUX  DIRDOWN FLUX  DOWNWARD FLUX   NET FLUX    HEATING RATE
          mb          W/m2          W/m2          W/m2        W/m2          W/m2       degree/day
  51    .06700        0.0175        0.0000        9.1795        9.1795       9.162076       0.00000
  50    .07753        0.0175        0.0000        9.1747        9.1747       9.157233       3.88148
  49    .09103        0.0175        0.0000        9.1713        9.1713       9.153845       2.11747
  48    0.1069        0.0175        0.0000        9.1688        9.1688       9.151320       1.34402
  47    0.1255        0.0175        0.0000        9.1665        9.1665       9.149061       1.02422
  46    0.1487        0.0175        0.0000        9.1641        9.1641       9.146620       0.88991
  45    0.1794        0.0175        0.0000        9.1612        9.1612       9.143742       0.79008
  44    0.2165        0.0175        0.0000        9.1583        9.1583       9.140822       0.66430
  43    0.2613        0.0175        0.0000        9.1553        9.1553       9.137849       0.56041
  42    0.3336        0.0175        0.0000        9.1511        9.1511       9.133670       0.48723
  41    0.4307        0.0175        0.0000        9.1464        9.1464       9.128901       0.41459
  40    0.5894        0.0175        0.0000        9.1393        9.1394       9.121896       0.37255
  39     1.339        0.0175        0.0000        9.1127        9.1127       9.095282       0.29962
  38     1.782        0.0175        0.0000        9.1011        9.1011       9.083694       0.22062
  37     2.292        0.0175        0.0000        9.0901        9.0901       9.072627       0.18329
  36     2.964        0.0175        0.0000        9.0776        9.0776       9.060197       0.15603
  35     3.853        0.0174        0.0000        9.0629        9.0629       9.045407       0.14036
  34     5.035        0.0174        0.0000        9.0441        9.0441       9.026669       0.13386
  33     6.613        0.0174        0.0000        9.0191        9.0191       9.001667       0.13366
  32     8.786        0.0174        0.0000        8.9843        8.9843       8.966883       0.13509
  31     11.80        0.0174        0.0000        8.9327        8.9327       8.915267       0.14451
  30     15.07        0.0174        0.0000        8.8758        8.8759       8.858422       0.14676
  29     18.79        0.0174        0.0000        8.8110        8.8110       8.793595       0.14698
  28     23.16        0.0174        0.0000        8.7365        8.7366       8.719150       0.14395
  27     28.12        0.0174        0.0000        8.6554        8.6555       8.638037       0.13789
  26     33.73        0.0174        0.0000        8.5719        8.5719       8.554537       0.12554
  25     40.54        0.0174        0.0001        8.4812        8.4812       8.463813       0.11255
  24     48.69        0.0174        0.0001        8.3838        8.3839       8.366512       0.10069
  23     57.69        0.0174        0.0001        8.2861        8.2862       8.268777       0.09161
  22     68.43        0.0174        0.0001        8.1751        8.1751       8.157780       0.08726
  21     81.20        0.0173        0.0001        8.0457        8.0458       8.028422       0.08548
  20     96.49        0.0173        0.0001        7.8949        7.8950       7.877719       0.08318
  19     114.6        0.0173        0.0001        7.7162        7.7163       7.699009       0.08344
  18     136.5        0.0173        0.0002        7.5193        7.5195       7.502165       0.07569
  17     162.9        0.0173        0.0002        7.2913        7.2915       7.274273       0.07284
  16     196.4        0.0172        0.0002        6.9660        6.9662       6.948999       0.08188
  15     218.7        0.0172        0.0002        6.6648        6.6650       6.647808       0.11435
  14     243.0        0.0172        0.0002        6.2619        6.2622       6.245006       0.13970
  13     269.0        0.0172        0.0003        5.7576        5.7579       5.740690       0.16360
  12     297.5        0.0172        0.0003        5.1719        5.1722       5.154962       0.17372
  11     328.5        0.0172        0.0002        4.5757        4.5760       4.558738       0.16211
  10     361.9        0.0173        0.0002        3.9995        3.9998       3.982455       0.14581
   9     398.1        0.0175        0.0002        3.4655        3.4657       3.448223       0.12446
   8     437.6        0.0178        0.0002        2.9740        2.9743       2.956484       0.10514
   7     480.5        0.0182        0.0002        2.5307        2.5309       2.512638       0.08717
   6     533.0        0.0191        0.0002        2.0614        2.0616       2.042431       0.07564
   5     589.8        0.0208        0.0002        1.6150        1.6151       1.594335       0.06651
   4     651.6        0.0243        0.0001        1.1565        1.1566       1.132309       0.06318
   3     718.7        0.0320        0.0001        0.7390        0.7391       0.707142       0.05343
   2     792.3        0.0524        0.0001        0.3985        0.3985       0.346119       0.04141
   1     891.5        0.0006        0.0325        0.0472        0.0797       0.079168       0.02272
   0    1013.0        0.0055        0.0034        0.0039        0.0073       0.001790       0.00537



 Wavenumbers:  4000. -  4650. cm-1, ATM      1
 LEVEL PRESSURE   UPWARD FLUX   DIFDOWN FLUX  DIRDOWN FLUX  DOWNWARD FLUX   NET FLUX    HEATING RATE
          mb          W/m2          W/m2          W/m2        W/m2          W/m2       degree/day
  51    .06700        5.2246        0.0000       10.7795       10.7795       5.554933       0.00000
  50    .07753        5.2246        0.0000       10.7795       10.7795       5.554932       0.00080
  49    .09103        5.2246        0.0000       10.7795       10.7795       5.554931       0.00078
  48    0.1069        5.2246        0.0000       10.7795       10.7795       5.554930       0.00076
  47    0.1255        5.2246        0.0000       10.7795       10.7795       5.554928       0.00075
  46    0.1487        5.2246        0.0000       10.7795       10.7795       5.554926       0.00076
  45    0.1794        5.2246        0.0000       10.7795       10.7795       5.554923       0.00078
  44    0.2165        5.2246        0.0000       10.7795       10.7795       5.554920       0.00076
  43    0.2613        5.2246        0.0000       10.7795       10.7795       5.554916       0.00075
  42    0.3336        5.2246        0.0000       10.7795       10.7795       5.554909       0.00077
  41    0.4307        5.2246        0.0000       10.7795       10.7795       5.554900       0.00077
  40    0.5894        5.2246        0.0000       10.7795       10.7795       5.554885       0.00080
  39     1.339        5.2246        0.0000       10.7794       10.7794       5.554796       0.00101
  38     1.782        5.2246        0.0000       10.7793       10.7793       5.554726       0.00133
  37     2.292        5.2246        0.0000       10.7792       10.7792       5.554632       0.00156
  36     2.964        5.2246        0.0000       10.7791       10.7791       5.554491       0.00176
  35     3.853        5.2246        0.0000       10.7789       10.7789       5.554283       0.00198
  34     5.035        5.2246        0.0000       10.7786       10.7786       5.553976       0.00219
  33     6.613        5.2246        0.0000       10.7781       10.7781       5.553524       0.00242
  32     8.786        5.2246        0.0000       10.7774       10.7774       5.552857       0.00259
  31     11.80        5.2246        0.0001       10.7763       10.7764       5.551808       0.00294
  30     15.07        5.2246        0.0001       10.7751       10.7752       5.550578       0.00318
  29     18.79        5.2246        0.0001       10.7736       10.7737       5.549090       0.00337
  28     23.16        5.2246        0.0001       10.7717       10.7718       5.547242       0.00357
  27     28.12        5.2246        0.0001       10.7695       10.7696       5.545005       0.00380
  26     33.73        5.2246        0.0002       10.7667       10.7668       5.542245       0.00415
  25     40.54        5.2246        0.0002       10.7629       10.7631       5.538501       0.00464
  24     48.69        5.2246        0.0002       10.7579       10.7581       5.533511       0.00516
  23     57.69        5.2247        0.0003       10.7520       10.7523       5.527593       0.00555
  22     68.43        5.2247        0.0003       10.7446       10.7449       5.520174       0.00583
  21     81.20        5.2249        0.0004       10.7355       10.7359       5.511033       0.00604
  20     96.49        5.2250        0.0005       10.7245       10.7249       5.499905       0.00614
  19     114.6        5.2253        0.0005       10.7107       10.7113       5.485980       0.00650
  18     136.5        5.2256        0.0006       10.6942       10.6948       5.469192       0.00646
  17     162.9        5.2262        0.0008       10.6740       10.6748       5.448588       0.00659
  16     196.4        5.2271        0.0009       10.6464       10.6473       5.420124       0.00716
  15     218.7        5.2280        0.0010       10.6255       10.6265       5.398436       0.00823
  14     243.0        5.2294        0.0011       10.5980       10.5992       5.369815       0.00993
  13     269.0        5.2313        0.0012       10.5611       10.5623       5.330976       0.01260
  12     297.5        5.2343        0.0014       10.5119       10.5133       5.278998       0.01542
  11     328.5        5.2384        0.0015       10.4499       10.4514       5.212985       0.01795
  10     361.9        5.2437        0.0016       10.3702       10.3718       5.128075       0.02148
   9     398.1        5.2504        0.0018       10.2678       10.2696       5.019133       0.02538
   8     437.6        5.2589        0.0020       10.1390       10.1409       4.882041       0.02931
   7     480.5        5.2696        0.0021        9.9877        9.9898       4.720236       0.03178
   6     533.0        5.2858        0.0023        9.7937        9.7960       4.510237       0.03378
   5     589.8        5.3087        0.0025        9.5752        9.5777       4.268954       0.03581
   4     651.6        5.3448        0.0027        9.2958        9.2985       3.953747       0.04311
   3     718.7        5.4034        0.0029        8.9267        8.9297       3.526289       0.05372
   2     792.3        5.5079        0.0031        8.4542        8.4573       2.949451       0.06616
   1     891.5        4.1587        3.1433        3.2298        6.3731       2.214324       0.06256
   0    1013.0        4.4181        2.9124        2.9322        5.8446       1.426546       0.05470



 Wavenumbers:  4650. -  5150. cm-1, ATM      1
 LEVEL PRESSURE   UPWARD FLUX   DIFDOWN FLUX  DIRDOWN FLUX  DOWNWARD FLUX   NET FLUX    HEATING RATE
          mb          W/m2          W/m2          W/m2        W/m2          W/m2       degree/day
  51    .06700        3.7096        0.0000       10.2033       10.2033       6.493777       0.00000
  50    .07753        3.7096        0.0000       10.2031       10.2031       6.493542       0.18901
  49    .09103        3.7096        0.0000       10.2028       10.2028       6.493247       0.18428
  48    0.1069        3.7096        0.0000       10.2025       10.2025       6.492910       0.17931
  47    0.1255        3.7096        0.0000       10.2021       10.2021       6.492526       0.17426
  46    0.1487        3.7096        0.0000       10.2016       10.2016       6.492044       0.17536
  45    0.1794        3.7096        0.0000       10.2010       10.2010       6.491394       0.17850
  44    0.2165        3.7096        0.0000       10.2002       10.2002       6.490635       0.17277
  43    0.2613        3.7096        0.0000       10.1993       10.1993       6.489749       0.16690
  42    0.3336        3.7096        0.0000       10.1979       10.1979       6.488317       0.16702
  41    0.4307        3.7096        0.0000       10.1960       10.1960       6.486476       0.16002
  40    0.5894        3.7096        0.0000       10.1932       10.1932       6.483602       0.15283
  39     1.339        3.7096        0.0000       10.1816       10.1816       6.472011       0.13050
  38     1.782        3.7096        0.0000       10.1760       10.1760       6.466482       0.10526
  37     2.292        3.7096        0.0000       10.1706       10.1706       6.461025       0.09038
  36     2.964        3.7096        0.0000       10.1646       10.1647       6.455102       0.07436
  35     3.853        3.7096        0.0000       10.1584       10.1584       6.448887       0.05898
  34     5.035        3.7096        0.0000       10.1521       10.1521       6.442550       0.04527
  33     6.613        3.7096        0.0000       10.1456       10.1456       6.436091       0.03453
  32     8.786        3.7096        0.0001       10.1386       10.1386       6.429077       0.02724
  31     11.80        3.7096        0.0001       10.1295       10.1296       6.420029       0.02533
  30     15.07        3.7096        0.0001       10.1196       10.1197       6.410141       0.02553
  29     18.79        3.7096        0.0001       10.1076       10.1077       6.398120       0.02726
  28     23.16        3.7096        0.0002       10.0923       10.0924       6.382795       0.02963
  27     28.12        3.7097        0.0002       10.0731       10.0733       6.363673       0.03251
  26     33.73        3.7097        0.0002       10.0500       10.0503       6.340541       0.03478
  25     40.54        3.7098        0.0003       10.0201       10.0204       6.310583       0.03717
  24     48.69        3.7100        0.0003        9.9820        9.9823       6.272332       0.03958
  23     57.69        3.7101        0.0004        9.9384        9.9388       6.228691       0.04091
  22     68.43        3.7104        0.0005        9.8858        9.8862       6.175814       0.04157
  21     81.20        3.7108        0.0005        9.8234        9.8240       6.113222       0.04136
  20     96.49        3.7113        0.0006        9.7518        9.7524       6.041123       0.03979
  19     114.6        3.7120        0.0008        9.6719        9.6727       5.960680       0.03756
  18     136.5        3.7130        0.0009        9.5858        9.5867       5.873698       0.03345
  17     162.9        3.7144        0.0011        9.4940        9.4951       5.780706       0.02972
  16     196.4        3.7166        0.0013        9.3883        9.3895       5.672984       0.02711
  15     218.7        3.7183        0.0014        9.3229        9.3243       5.606041       0.02542
  14     243.0        3.7205        0.0015        9.2520        9.2535       5.532994       0.02533
  13     269.0        3.7236        0.0017        9.1717        9.1734       5.449778       0.02700
  12     297.5        3.7279        0.0019        9.0763        9.0781       5.350244       0.02952
  11     328.5        3.7335        0.0020        8.9650        8.9670       5.233459       0.03175
  10     361.9        3.7408        0.0022        8.8349        8.8371       5.096289       0.03471
   9     398.1        3.7503        0.0024        8.6820        8.6844       4.934088       0.03779
   8     437.6        3.7627        0.0026        8.5028        8.5054       4.742734       0.04091
   7     480.5        3.7787        0.0028        8.2948        8.2976       4.518932       0.04395
   6     533.0        3.8031        0.0030        8.0209        8.0239       4.220864       0.04795
   5     589.8        3.8368        0.0033        7.7063        7.7096       3.872765       0.05167
   4     651.6        3.8865        0.0035        7.3412        7.3447       3.458195       0.05669
   3     718.7        3.9608        0.0037        6.9387        6.9423       2.981489       0.05991
   2     792.3        4.0771        0.0038        6.5066        6.5104       2.433296       0.06287
   1     891.5        3.0461        2.3590        2.4596        4.8186       1.772484       0.05623
   0    1013.0        3.2890        2.1552        2.1971        4.3523       1.063335       0.04924



 Wavenumbers:  5150. -  6150. cm-1, ATM      1
 LEVEL PRESSURE   UPWARD FLUX   DIFDOWN FLUX  DIRDOWN FLUX  DOWNWARD FLUX   NET FLUX    HEATING RATE
          mb          W/m2          W/m2          W/m2        W/m2          W/m2       degree/day
  51    .06700        9.2445        0.0000       25.5798       25.5798      16.335280       0.00000
  50    .07753        9.2445        0.0000       25.5798       25.5798      16.335241       0.03160
  49    .09103        9.2445        0.0000       25.5797       25.5797      16.335189       0.03209
  48    0.1069        9.2445        0.0000       25.5797       25.5797      16.335128       0.03259
  47    0.1255        9.2445        0.0000       25.5796       25.5796      16.335055       0.03310
  46    0.1487        9.2445        0.0000       25.5795       25.5795      16.334960       0.03487
  45    0.1794        9.2445        0.0000       25.5794       25.5794      16.334824       0.03711
  44    0.2165        9.2445        0.0000       25.5792       25.5792      16.334659       0.03767
  43    0.2613        9.2445        0.0000       25.5790       25.5790      16.334456       0.03825
  42    0.3336        9.2445        0.0000       25.5786       25.5786      16.334109       0.04041
  41    0.4307        9.2445        0.0000       25.5782       25.5782      16.333638       0.04096
  40    0.5894        9.2445        0.0000       25.5774       25.5774      16.332849       0.04197
  39     1.339        9.2445        0.0000       25.5735       25.5736      16.329047       0.04280
  38     1.782        9.2445        0.0001       25.5713       25.5714      16.326833       0.04214
  37     2.292        9.2445        0.0001       25.5688       25.5688      16.324328       0.04150
  36     2.964        9.2445        0.0001       25.5656       25.5657      16.321145       0.03996
  35     3.853        9.2445        0.0001       25.5615       25.5616      16.317098       0.03840
  34     5.035        9.2445        0.0002       25.5562       25.5564      16.311887       0.03723
  33     6.613        9.2445        0.0002       25.5494       25.5496      16.305126       0.03614
  32     8.786        9.2445        0.0003       25.5406       25.5409      16.296364       0.03403
  31     11.80        9.2445        0.0004       25.5287       25.5290      16.284512       0.03318
  30     15.07        9.2445        0.0005       25.5167       25.5172      16.272624       0.03069
  29     18.79        9.2446        0.0006       25.5042       25.5047      16.260193       0.02818
  28     23.16        9.2446        0.0007       25.4907       25.4914      16.246799       0.02590
  27     28.12        9.2446        0.0009       25.4764       25.4773      16.232671       0.02402
  26     33.73        9.2447        0.0010       25.4620       25.4631      16.218347       0.02154
  25     40.54        9.2448        0.0012       25.4463       25.4475      16.202671       0.01945
  24     48.69        9.2450        0.0015       25.4294       25.4309      16.185867       0.01739
  23     57.69        9.2452        0.0018       25.4126       25.4144      16.169166       0.01565
  22     68.43        9.2455        0.0021       25.3944       25.3965      16.151015       0.01427
  21     81.20        9.2459        0.0025       25.3744       25.3769      16.131021       0.01321
  20     96.49        9.2464        0.0030       25.3519       25.3549      16.108533       0.01241
  19     114.6        9.2470        0.0035       25.3262       25.3297      16.082727       0.01205
  18     136.5        9.2477        0.0042       25.2962       25.3004      16.052674       0.01156
  17     162.9        9.2486        0.0050       25.2521       25.2571      16.008440       0.01414
  16     196.4        9.2499        0.0060       25.1593       25.1653      15.915368       0.02343
  15     218.7        9.2508        0.0066       25.0159       25.0225      15.771725       0.05454
  14     243.0        9.2520        0.0073       24.7089       24.7162      15.464240       0.10665
  13     269.0        9.2534        0.0079       24.1619       24.1698      14.916380       0.17772
  12     297.5        9.2554        0.0086       23.4544       23.4630      14.207603       0.21022
  11     328.5        9.2579        0.0093       22.7355       22.7447      13.486827       0.19598
  10     361.9        9.2612        0.0099       21.9224       21.9324      12.671175       0.20637
   9     398.1        9.2655        0.0106       20.9939       21.0045      11.738993       0.21718
   8     437.6        9.2713        0.0112       19.9833       19.9945      10.723171       0.21719
   7     480.5        9.2793        0.0118       18.9483       18.9601       9.680822       0.20471
   6     533.0        9.2924        0.0125       17.7796       17.7921       8.499706       0.19000
   5     589.8        9.3130        0.0132       16.6726       16.6857       7.372707       0.16728
   4     651.6        9.3498        0.0139       15.6343       15.6482       6.298323       0.14692
   3     718.7        9.4157        0.0147       14.7738       14.7885       5.372792       0.11631
   2     792.3        9.5427        0.0155       14.0291       14.0447       4.501999       0.09987
   1     891.5        7.2969        5.3739        5.4204       10.7943       3.497314       0.08549
   0    1013.0        7.5980        5.0580        4.9880       10.0461       2.448077       0.07285



 Wavenumbers:  6150. -  7700. cm-1, ATM      1
 LEVEL PRESSURE   UPWARD FLUX   DIFDOWN FLUX  DIRDOWN FLUX  DOWNWARD FLUX   NET FLUX    HEATING RATE
          mb          W/m2          W/m2          W/m2        W/m2          W/m2       degree/day
  51    .06700       14.0302        0.0000       47.3109       47.3109      33.280668       0.00000
  50    .07753       14.0302        0.0000       47.3108       47.3108      33.280612       0.04553
  49    .09103       14.0302        0.0000       47.3107       47.3107      33.280538       0.04583
  48    0.1069       14.0302        0.0000       47.3106       47.3106      33.280452       0.04614
  47    0.1255       14.0302        0.0000       47.3105       47.3105      33.280349       0.04645
  46    0.1487       14.0302        0.0000       47.3104       47.3104      33.280216       0.04852
  45    0.1794       14.0302        0.0000       47.3102       47.3102      33.280029       0.05127
  44    0.2165       14.0302        0.0000       47.3100       47.3100      33.279802       0.05167
  43    0.2613       14.0302        0.0000       47.3097       47.3097      33.279526       0.05210
  42    0.3336       14.0302        0.0000       47.3092       47.3092      33.279056       0.05471
  41    0.4307       14.0302        0.0000       47.3085       47.3086      33.278421       0.05521
  40    0.5894       14.0301        0.0001       47.3074       47.3075      33.277362       0.05633
  39     1.339       14.0301        0.0002       47.3022       47.3024      33.272270       0.05733
  38     1.782       14.0300        0.0002       47.2991       47.2993      33.269300       0.05655
  37     2.292       14.0300        0.0003       47.2956       47.2959      33.265924       0.05591
  36     2.964       14.0299        0.0004       47.2912       47.2916      33.261606       0.05421
  35     3.853       14.0299        0.0005       47.2855       47.2859      33.256071       0.05252
  34     5.035       14.0298        0.0006       47.2780       47.2787      33.248891       0.05129
  33     6.613       14.0296        0.0008       47.2683       47.2692      33.239503       0.05019
  32     8.786       14.0295        0.0011       47.2556       47.2567      33.227204       0.04777
  31     11.80       14.0292        0.0015       47.2380       47.2395      33.210300       0.04732
  30     15.07       14.0289        0.0019       47.2201       47.2220      33.193013       0.04463
  29     18.79       14.0286        0.0024       47.2008       47.2032      33.174533       0.04190
  28     23.16       14.0283        0.0029       47.1795       47.1824      33.154143       0.03943
  27     28.12       14.0279        0.0035       47.1565       47.1600      33.132150       0.03739
  26     33.73       14.0274        0.0042       47.1324       47.1366      33.109228       0.03446
  25     40.54       14.0269        0.0051       47.1054       47.1105      33.083592       0.03180
  24     48.69       14.0262        0.0061       47.0754       47.0815      33.055340       0.02924
  23     57.69       14.0255        0.0072       47.0449       47.0522      33.026719       0.02683
  22     68.43       14.0246        0.0086       47.0110       47.0196      32.994982       0.02495
  21     81.20       14.0235        0.0102       46.9729       46.9830      32.959490       0.02345
  20     96.49       14.0223        0.0121       46.9294       46.9415      32.919151       0.02226
  19     114.6       14.0208        0.0143       46.8790       46.8934      32.872522       0.02177
  18     136.5       14.0191        0.0170       46.8200       46.8370      32.817904       0.02100
  17     162.9       14.0170        0.0202       46.7361       46.7563      32.739293       0.02513
  16     196.4       14.0145        0.0243       46.5703       46.5946      32.580122       0.04007
  15     218.7       14.0129        0.0270       46.3473       46.3743      32.361398       0.08304
  14     243.0       14.0114        0.0298       45.9299       45.9596      31.948244       0.14330
  13     269.0       14.0102        0.0326       45.1708       45.2034      31.193119       0.24496
  12     297.5       14.0098        0.0353       44.0115       44.0468      30.036963       0.34290
  11     328.5       14.0104        0.0381       42.7242       42.7623      28.751925       0.34940
  10     361.9       14.0125        0.0409       41.3539       41.3948      27.382372       0.34651
   9     398.1       14.0169        0.0437       39.7953       39.8389      25.822002       0.36353
   8     437.6       14.0252        0.0463       37.9948       38.0410      24.015804       0.38618
   7     480.5       14.0391        0.0487       36.0647       36.1134      22.074356       0.38129
   6     533.0       14.0658        0.0513       33.7773       33.8286      19.762780       0.37186
   5     589.8       14.1133        0.0537       31.4082       31.4619      17.348649       0.35834
   4     651.6       14.2049        0.0556       28.8834       28.9390      14.734164       0.35754
   3     718.7       14.3769        0.0574       26.4104       26.4677      12.090777       0.33220
   2     792.3       14.7253        0.0588       24.0056       24.0644       9.339100       0.31559
   1     891.5       10.8661        8.4960        8.7986       17.2946       6.428491       0.24768
   0    1013.0       11.6477        7.6938        7.7132       15.4069       3.759262       0.18534



 Wavenumbers:  7700. -  8050. cm-1, ATM      1
 LEVEL PRESSURE   UPWARD FLUX   DIFDOWN FLUX  DIRDOWN FLUX  DOWNWARD FLUX   NET FLUX    HEATING RATE
          mb          W/m2          W/m2          W/m2        W/m2          W/m2       degree/day
  51    .06700        7.0969        0.0000       11.1810       11.1810       4.084024       0.00000
  50    .07753        7.0969        0.0000       11.1809       11.1809       4.084002       0.01806
  49    .09103        7.0969        0.0000       11.1809       11.1809       4.083973       0.01770
  48    0.1069        7.0970        0.0000       11.1809       11.1809       4.083941       0.01733
  47    0.1255        7.0970        0.0000       11.1809       11.1809       4.083903       0.01695
  46    0.1487        7.0970        0.0000       11.1808       11.1808       4.083856       0.01720
  45    0.1794        7.0970        0.0000       11.1808       11.1808       4.083792       0.01770
  44    0.2165        7.0970        0.0000       11.1807       11.1807       4.083715       0.01737
  43    0.2613        7.0970        0.0000       11.1806       11.1806       4.083625       0.01704
  42    0.3336        7.0970        0.0000       11.1805       11.1805       4.083475       0.01744
  41    0.4307        7.0971        0.0000       11.1803       11.1804       4.083277       0.01725
  40    0.5894        7.0972        0.0000       11.1801       11.1801       4.082953       0.01723
  39     1.339        7.0975        0.0001       11.1788       11.1789       4.081420       0.01726
  38     1.782        7.0976        0.0001       11.1781       11.1782       4.080520       0.01714
  37     2.292        7.0979        0.0001       11.1772       11.1773       4.079478       0.01726
  36     2.964        7.0981        0.0002       11.1761       11.1762       4.078110       0.01718
  35     3.853        7.0985        0.0002       11.1746       11.1748       4.076302       0.01715
  34     5.035        7.0990        0.0003       11.1726       11.1729       4.073901       0.01715
  33     6.613        7.0996        0.0004       11.1700       11.1703       4.070694       0.01715
  32     8.786        7.1005        0.0005       11.1664       11.1669       4.066373       0.01678
  31     11.80        7.1018        0.0007       11.1613       11.1620       4.060195       0.01730
  30     15.07        7.1031        0.0009       11.1558       11.1567       4.053566       0.01711
  29     18.79        7.1047        0.0011       11.1497       11.1508       4.046085       0.01696
  28     23.16        7.1065        0.0013       11.1425       11.1438       4.037357       0.01688
  27     28.12        7.1086        0.0016       11.1343       11.1360       4.027390       0.01694
  26     33.73        7.1109        0.0020       11.1252       11.1271       4.016255       0.01674
  25     40.54        7.1137        0.0023       11.1142       11.1165       4.002831       0.01665
  24     48.69        7.1171        0.0028       11.1010       11.1038       3.986689       0.01670
  23     57.69        7.1209        0.0033       11.0866       11.0899       3.969013       0.01657
  22     68.43        7.1254        0.0039       11.0695       11.0735       3.948038       0.01649
  21     81.20        7.1309        0.0047       11.0494       11.0540       3.923158       0.01644
  20     96.49        7.1374        0.0055       11.0255       11.0311       3.893667       0.01628
  19     114.6        7.1453        0.0066       10.9975       11.0041       3.858867       0.01625
  18     136.5        7.1547        0.0078       10.9648       10.9726       3.817914       0.01575
  17     162.9        7.1660        0.0093       10.9263       10.9356       3.769541       0.01546
  16     196.4        7.1810        0.0112       10.8773       10.8884       3.707407       0.01564
  15     218.7        7.1910        0.0124       10.8455       10.8579       3.666913       0.01537
  14     243.0        7.2021        0.0137       10.8114       10.8252       3.623110       0.01519
  13     269.0        7.2143        0.0152       10.7749       10.7901       3.575803       0.01535
  12     297.5        7.2277        0.0168       10.7357       10.7525       3.524731       0.01515
  11     328.5        7.2427        0.0185       10.6937       10.7122       3.469538       0.01501
  10     361.9        7.2592        0.0203       10.6489       10.6692       3.409948       0.01508
   9     398.1        7.2776        0.0223       10.6008       10.6230       3.345397       0.01504
   8     437.6        7.2983        0.0244       10.5491       10.5734       3.275177       0.01501
   7     480.5        7.3214        0.0266       10.4934       10.5201       3.198628       0.01503
   6     533.0        7.3516        0.0294       10.4243       10.4537       3.102048       0.01554
   5     589.8        7.3869        0.0324       10.3479       10.3803       2.993434       0.01612
   4     651.6        7.4291        0.0356       10.2613       10.2969       2.867852       0.01717
   3     718.7        7.4808        0.0390       10.1618       10.2007       2.719959       0.01859
   2     792.3        7.5464        0.0426       10.0439       10.0865       2.540113       0.02063
   1     891.5        5.9875        4.1901        4.0875        8.2776       2.290142       0.02127
   0    1013.0        6.1164        4.1011        3.9829        8.0840       1.967609       0.02240



 Wavenumbers:  8050. - 12850. cm-1, ATM      1
 LEVEL PRESSURE   UPWARD FLUX   DIFDOWN FLUX  DIRDOWN FLUX  DOWNWARD FLUX   NET FLUX    HEATING RATE
          mb          W/m2          W/m2          W/m2        W/m2          W/m2       degree/day
  51    .06700       88.5339        0.0000      156.5418      156.5418      68.007889       0.00000
  50    .07753       88.5338        0.0000      156.5417      156.5417      68.007889      -0.00000
  49    .09103       88.5338        0.0001      156.5417      156.5417      68.007889       0.00000
  48    0.1069       88.5338        0.0001      156.5416      156.5417      68.007889      -0.00000
  47    0.1255       88.5338        0.0002      156.5415      156.5417      68.007889       0.00000
  46    0.1487       88.5338        0.0002      156.5414      156.5417      68.007889       0.00000
  45    0.1794       88.5337        0.0003      156.5413      156.5416      68.007889       0.00000
  44    0.2165       88.5337        0.0004      156.5412      156.5416      68.007889      -0.00000
  43    0.2613       88.5336        0.0005      156.5410      156.5415      68.007889      -0.00000
  42    0.3336       88.5336        0.0007      156.5407      156.5414      68.007889       0.00000
  41    0.4307       88.5334        0.0010      156.5403      156.5413      68.007889      -0.00000
  40    0.5894       88.5333        0.0015      156.5397      156.5411      68.007889       0.00000
  39     1.339       88.5324        0.0035      156.5367      156.5403      68.007889       0.00000
  38     1.782       88.5319        0.0048      156.5350      156.5398      68.007889      -0.00000
  37     2.292       88.5313        0.0062      156.5330      156.5392      68.007889       0.00000
  36     2.964       88.5305        0.0081      156.5303      156.5384      68.007889       0.00000
  35     3.853       88.5295        0.0105      156.5268      156.5374      68.007889       0.00000
  34     5.035       88.5281        0.0138      156.5222      156.5360      68.007889      -0.00000
  33     6.613       88.5263        0.0182      156.5160      156.5342      68.007889       0.00000
  32     8.786       88.5238        0.0241      156.5076      156.5317      68.007889      -0.00000
  31     11.80       88.5203        0.0326      156.4957      156.5282      68.007889       0.00000
  30     15.07       88.5165        0.0416      156.4828      156.5244      68.007889      -0.00000
  29     18.79       88.5123        0.0519      156.4682      156.5202      68.007889      -0.00000
  28     23.16       88.5073        0.0640      156.4512      156.5151      68.007889       0.00000
  27     28.12       88.5015        0.0777      156.4317      156.5094      68.007889      -0.00000
  26     33.73       88.4951        0.0931      156.4099      156.5030      68.007889       0.00000
  25     40.54       88.4873        0.1118      156.3834      156.4952      68.007889      -0.00000
  24     48.69       88.4780        0.1343      156.3515      156.4859      68.007889      -0.00000
  23     57.69       88.4677        0.1591      156.3164      156.4755      68.007889       0.00000
  22     68.43       88.4553        0.1887      156.2746      156.4632      68.007889       0.00000
  21     81.20       88.4407        0.2240      156.2246      156.4485      68.007889      -0.00000
  20     96.49       88.4231        0.2661      156.1649      156.4310      68.007889       0.00000
  19     114.6       88.4024        0.3162      156.0879      156.4041      68.001676       0.00290
  18     136.5       88.3779        0.3757      155.9962      156.3718      67.993968       0.00296
  17     162.9       88.3485        0.4467      155.8831      156.3297      67.981174       0.00409
  16     196.4       88.3106        0.5390      155.7199      156.2589      67.948373       0.00826
  15     218.7       88.2858        0.5997      155.5733      156.1730      67.887203       0.02322
  14     243.0       88.2595        0.6657      155.3367      156.0024      67.742841       0.05007
  13     269.0       88.2326        0.7370      154.9514      155.6885      67.455879       0.09309
  12     297.5       88.2065        0.8139      154.3896      155.2035      66.996963       0.13611
  11     328.5       88.1822        0.8967      153.7151      154.6118      66.429551       0.15428
  10     361.9       88.1618        0.9855      152.9087      153.8943      65.732500       0.17636
   9     398.1       88.1486        1.0806      151.8986      152.9792      64.830577       0.21013
   8     437.6       88.1486        1.1816      150.6031      151.7847      63.636154       0.25538
   7     480.5       88.1689        1.2884      149.0014      150.2898      62.120848       0.29760
   6     533.0       88.2324        1.4175      146.7375      148.1550      59.922593       0.35363
   5     589.8       88.3720        1.5527      143.8730      145.4256      57.053590       0.42585
   4     651.6       88.6733        1.6912      140.0955      141.7867      53.113404       0.53883
   3     718.7       89.2563        1.8316      135.5278      137.3594      48.103045       0.62966
   2     792.3       90.4095        1.9705      130.0690      132.0395      41.629999       0.74239
   1     891.5       69.5480       51.9619       50.6026      102.5646      33.016554       0.73296
   0    1013.0       72.6512       49.1735       46.8006       95.9741      23.322818       0.67309



 Wavenumbers: 12850. - 16000. cm-1, ATM      1
 LEVEL PRESSURE   UPWARD FLUX   DIFDOWN FLUX  DIRDOWN FLUX  DOWNWARD FLUX   NET FLUX    HEATING RATE
          mb          W/m2          W/m2          W/m2        W/m2          W/m2       degree/day
  51    .06700       74.8044        0.0000       98.0872       98.0872      23.282792       0.00000
  50    .07753       74.8044        0.0001       98.0864       98.0864      23.282002       0.63386
  49    .09103       74.8044        0.0002       98.0853       98.0854      23.281009       0.62070
  48    0.1069       74.8044        0.0003       98.0841       98.0843      23.279868       0.60727
  47    0.1255       74.8044        0.0004       98.0826       98.0830      23.278557       0.59413
  46    0.1487       74.8045        0.0005       98.0809       98.0814      23.276904       0.60275
  45    0.1794       74.8045        0.0007       98.0784       98.0792      23.274655       0.61739
  44    0.2165       74.8046        0.0009       98.0756       98.0766      23.272010       0.60163
  43    0.2613       74.8047        0.0012       98.0723       98.0736      23.268901       0.58608
  42    0.3336       74.8049        0.0017       98.0670       98.0687      23.263828       0.59143
  41    0.4307       74.8052        0.0023       98.0602       98.0625      23.257271       0.57010
  40    0.5894       74.8059        0.0033       98.0496       98.0529      23.246947       0.54905
  39     1.339       74.8121        0.0080       98.0043       98.0124      23.200287       0.52530
  38     1.782       74.8177        0.0108       97.9793       97.9901      23.172357       0.53175
  37     2.292       74.8261        0.0140       97.9498       97.9638      23.137626       0.57524
  36     2.964       74.8401        0.0182       97.9088       97.9270      23.086889       0.63690
  35     3.853       74.8627        0.0237       97.8503       97.8741      23.011397       0.71644
  34     5.035       74.8967        0.0311       97.7680       97.7991      22.902406       0.77858
  33     6.613       74.9442        0.0410       97.6562       97.6971      22.752952       0.79898
  32     8.786       75.0060        0.0542       97.5107       97.5649      22.558857       0.75380
  31     11.80       75.0865        0.0731       97.3179       97.3910      22.304517       0.71207
  30     15.07       75.1636        0.0935       97.1283       97.2218      22.058224       0.63588
  29     18.79       75.2422        0.1164       96.9300       97.0464      21.804156       0.57605
  28     23.16       75.3245        0.1431       96.7166       96.8597      21.535213       0.52005
  27     28.12       75.4073        0.1737       96.4935       96.6672      21.259944       0.46794
  26     33.73       75.4837        0.2079       96.2731       96.4810      20.997290       0.39491
  25     40.54       75.5574        0.2493       96.0408       96.2900      20.732616       0.32836
  24     48.69       75.6281        0.2991       95.7946       96.0937      20.465569       0.27635
  23     57.69       75.6882        0.3539       95.5573       95.9111      20.222984       0.22739
  22     68.43       75.7406        0.4191       95.3106       95.7297      19.989116       0.18385
  21     81.20       75.7770        0.4969       95.0643       95.5613      19.784313       0.13533
  20     96.49       75.7961        0.5898       94.8153       95.4051      19.608915       0.09681
  19     114.6       75.8193        0.7011       94.5411       95.2422      19.422842       0.08688
  18     136.5       75.8360        0.8331       94.2320       95.0652      19.229122       0.07449
  17     162.9       75.8460        0.9903       93.8753       94.8656      19.019605       0.06697
  16     196.4       75.8378        1.1941       93.4347       94.6287      18.790903       0.05757
  15     218.7       75.8249        1.3279       93.1513       94.4792      18.654237       0.05189
  14     243.0       75.8078        1.4733       92.8439       94.3173      18.509537       0.05019
  13     269.0       75.7862        1.6309       92.5111       94.1421      18.355879       0.04985
  12     297.5       75.7608        1.8013       92.1495       93.9507      18.189947       0.04921
  11     328.5       75.7334        1.9853       91.7554       93.7407      18.007237       0.04968
  10     361.9       75.7049        2.1833       91.3262       93.5096      17.804627       0.05126
   9     398.1       75.6767        2.3965       90.8575       93.2540      17.577349       0.05295
   8     437.6       75.6514        2.6252       90.3418       92.9670      17.315634       0.05596
   7     480.5       75.6318        2.8702       89.7728       92.6430      17.011209       0.05979
   6     533.0       75.6224        3.1714       89.0428       92.2142      16.591795       0.06747
   5     589.8       75.6400        3.4951       88.2038       91.6989      16.058912       0.07910
   4     651.6       75.7155        3.8409       87.1979       91.0388      15.323304       0.10060
   3     718.7       75.8712        4.2072       86.0161       90.2234      14.352195       0.12204
   2     792.3       76.1757        4.5903       84.5970       89.1874      13.011626       0.15375
   1     891.5       65.4018       42.1996       34.1613       76.3609      10.959181       0.17465
   0    1013.0       66.4798       41.6448       32.9931       74.6379       8.158065       0.19450



 Wavenumbers: 16000. - 22650. cm-1, ATM      1
 LEVEL PRESSURE   UPWARD FLUX   DIFDOWN FLUX  DIRDOWN FLUX  DOWNWARD FLUX   NET FLUX    HEATING RATE
          mb          W/m2          W/m2          W/m2        W/m2          W/m2       degree/day
  51    .06700      140.3608        0.0000      156.3892      156.3892      16.028477       0.00000
  50    .07753      140.3607        0.0004      156.3887      156.3891      16.028330       0.11800
  49    .09103      140.3607        0.0009      156.3879      156.3888      16.028115       0.13384
  48    0.1069      140.3607        0.0015      156.3871      156.3885      16.027829       0.15262
  47    0.1255      140.3607        0.0021      156.3861      156.3882      16.027445       0.17396
  46    0.1487      140.3608        0.0029      156.3847      156.3877      16.026879       0.20615
  45    0.1794      140.3609        0.0041      156.3828      156.3869      16.025995       0.24272
  44    0.2165      140.3611        0.0054      156.3805      156.3859      16.024796       0.27279
  43    0.2613      140.3615        0.0070      156.3776      156.3846      16.023169       0.30668
  42    0.3336      140.3622        0.0096      156.3726      156.3823      16.020076       0.36065
  41    0.4307      140.3634        0.0131      156.3657      156.3788      16.015413       0.40541
  40    0.5894      140.3660        0.0188      156.3537      156.3725      16.006520       0.47290
  39     1.339      140.3884        0.0458      156.2834      156.3292      15.940821       0.73966
  38     1.782      140.4091        0.0616      156.2324      156.2939      15.884853       1.06554
  37     2.292      140.4402        0.0799      156.1641      156.2440      15.803839       1.34181
  36     2.964      140.4918        0.1039      156.0605      156.1644      15.672595       1.64750
  35     3.853      140.5754        0.1357      155.9041      156.0397      15.464344       1.97634
  34     5.035      140.7015        0.1778      155.6774      155.8551      15.153652       2.21946
  33     6.613      140.8777        0.2340      155.3656      155.5996      14.721884       2.30823
  32     8.786      141.1072        0.3096      154.9577      155.2672      14.160062       2.18191
  31     11.80      141.4058        0.4176      154.4153      154.8329      13.427039       2.05223
  30     15.07      141.6919        0.5334      153.8804      154.4138      12.721907       1.82051
  29     18.79      141.9839        0.6640      153.3191      153.9831      11.999224       1.63855
  28     23.16      142.2890        0.8164      152.7126      153.5289      11.239883       1.46832
  27     28.12      142.5960        0.9903      152.0755      153.0658      10.469798       1.30909
  26     33.73      142.8792        1.1848      151.4409      152.6257       9.746471       1.08754
  25     40.54      143.1516        1.4195      150.7637      152.1832       9.031577       0.88691
  24     48.69      143.4122        1.7022      150.0338      151.7360       8.323835       0.73240
  23     57.69      143.6329        2.0124      149.3151      151.3275       7.694592       0.58982
  22     68.43      143.8250        2.3813      148.5476      150.9290       7.103911       0.46435
  21     81.20      143.9571        2.8207      147.7517      150.5723       6.615288       0.32287
  20     96.49      144.0244        3.3436      146.9127      150.2563       6.231850       0.21163
  19     114.6      144.0583        3.9628      145.9763      149.9391       5.880757       0.16394
  18     136.5      144.0672        4.6939      144.9088      149.6026       5.535379       0.13281
  17     162.9      144.0495        5.5603      143.6785      149.2389       5.189416       0.11058
  16     196.4      143.9651        6.6783      142.1651      148.8434       4.878265       0.07832
  15     218.7      143.8873        7.4089      141.2033      148.6123       4.724980       0.05820
  14     243.0      143.7924        8.1996      140.1753      148.3750       4.582613       0.04938
  13     269.0      143.6788        9.0527      139.0797      148.1324       4.453578       0.04186
  12     297.5      143.5459        9.9701      137.9141      147.8842       4.338253       0.03420
  11     328.5      143.3977       10.9561      136.6676      147.6237       4.226027       0.03051
  10     361.9      143.2339       12.0117      135.3392      147.3509       4.117039       0.02758
   9     398.1      143.0540       13.1410      133.9235      147.0644       4.010400       0.02484
   8     437.6      142.8590       14.3457      132.4163      146.7620       3.902976       0.02297
   7     480.5      142.6485       15.6283      130.8147      146.4430       3.794476       0.02131
   6     533.0      142.3895       17.1947      128.8599      146.0546       3.665167       0.02080
   5     589.8      142.1142       18.8683      126.7679      145.6363       3.522025       0.02125
   4     651.6      141.8292       20.6508      124.5274      145.1782       3.349000       0.02366
   3     718.7      141.5405       22.5437      122.1285      144.6722       3.131663       0.02731
   2     792.3      141.2651       24.5451      119.5548      144.0999       2.834825       0.03404
   1     891.5      129.3265       83.5706       48.0855      131.6561       2.329608       0.04299
   0    1013.0      129.4077       84.6493       46.3386      130.9879       1.580137       0.05204



 Wavenumbers: 22650. - 29000. cm-1, ATM      1
 LEVEL PRESSURE   UPWARD FLUX   DIFDOWN FLUX  DIRDOWN FLUX  DOWNWARD FLUX   NET FLUX    HEATING RATE
          mb          W/m2          W/m2          W/m2        W/m2          W/m2       degree/day
  51    .06700       58.3878        0.0000       59.0156       59.0156       0.627761       0.00000
  50    .07753       58.3878        0.0005       59.0151       59.0155       0.627761      -0.00000
  49    .09103       58.3876        0.0010       59.0144       59.0154       0.627761       0.00000
  48    0.1069       58.3875        0.0017       59.0136       59.0153       0.627761      -0.00000
  47    0.1255       58.3874        0.0025       59.0127       59.0151       0.627761      -0.00000
  46    0.1487       58.3872        0.0034       59.0115       59.0149       0.627761       0.00000
  45    0.1794       58.3869        0.0048       59.0099       59.0147       0.627761       0.00000
  44    0.2165       58.3866        0.0063       59.0080       59.0144       0.627761      -0.00000
  43    0.2613       58.3863        0.0082       59.0058       59.0140       0.627761      -0.00000
  42    0.3336       58.3857        0.0113       59.0022       59.0134       0.627761       0.00000
  41    0.4307       58.3849        0.0153       58.9973       59.0126       0.627761      -0.00000
  40    0.5894       58.3836        0.0220       58.9894       59.0113       0.627761       0.00000
  39     1.339       58.3774        0.0534       58.9518       59.0052       0.627761       0.00000
  38     1.782       58.3738        0.0719       58.9297       59.0016       0.627761       0.00000
  37     2.292       58.3697        0.0933       58.9042       58.9974       0.627761      -0.00000
  36     2.964       58.3642        0.1213       58.8706       58.9920       0.627761      -0.00000
  35     3.853       58.3570        0.1584       58.8264       58.9847       0.627761       0.00000
  34     5.035       58.3474        0.2076       58.7676       58.9751       0.627761       0.00000
  33     6.613       58.3346        0.2733       58.6891       58.9623       0.627761      -0.00000
  32     8.786       58.3173        0.3617       58.5834       58.9451       0.627761       0.00000
  31     11.80       58.2927        0.4880       58.4324       58.9205       0.627761      -0.00000
  30     15.07       58.2663        0.6234       58.2706       58.8941       0.627761       0.00000
  29     18.79       58.2365        0.7761       58.0882       58.8643       0.627761      -0.00000
  28     23.16       58.2019        0.9539       57.8757       58.8296       0.627761       0.00000
  27     28.12       58.1623        1.1567       57.6333       58.7901       0.627761       0.00000
  26     33.73       58.1182        1.3829       57.3631       58.7459       0.627761      -0.00000
  25     40.54       58.0651        1.6550       57.0379       58.6929       0.627761       0.00000
  24     48.69       58.0014        1.9813       56.6479       58.6292       0.627761       0.00000
  23     57.69       57.9319        2.3376       56.2221       58.5596       0.627761       0.00000
  22     68.43       57.8496        2.7588       55.7186       58.4774       0.627761      -0.00000
  21     81.20       57.7525        3.2563       55.1239       58.3802       0.627761       0.00000
  20     96.49       57.6379        3.8429       54.4228       58.2657       0.627761       0.00000
  19     114.6       57.5035        4.5303       53.6010       58.1313       0.627761       0.00000
  18     136.5       57.3466        5.3326       52.6418       57.9744       0.627761      -0.00000
  17     162.9       57.1631        6.2705       51.5203       57.7909       0.627761       0.00000
  16     196.4       56.9304        7.4587       50.0994       57.5582       0.627761       0.00000
  15     218.7       56.7808        8.2223       49.1863       57.4085       0.627761      -0.00000
  14     243.0       56.6209        9.0374       48.2113       57.2487       0.627761       0.00000
  13     269.0       56.4509        9.9037       47.1749       57.0786       0.627761      -0.00000
  12     297.5       56.2708       10.8203       46.0783       56.8986       0.627761       0.00000
  11     328.5       56.0804       11.7886       44.9195       56.7082       0.627761       0.00000
  10     361.9       55.8802       12.8061       43.7018       56.5079       0.627761      -0.00000
   9     398.1       55.6700       13.8727       42.4250       56.2978       0.627761       0.00000
   8     437.6       55.4503       14.9864       41.0916       56.0780       0.627761       0.00000
   7     480.5       55.2214       16.1447       39.7045       55.8492       0.627761      -0.00000
   6     533.0       54.9488       17.5223       38.0543       55.5766       0.627761      -0.00000
   5     589.8       54.6656       18.9503       36.3431       55.2934       0.627761      -0.00000
   4     651.6       54.3732       20.4214       34.5795       55.0010       0.627761       0.00000
   3     718.7       54.0726       21.9301       32.7702       54.7003       0.627761      -0.00000
   2     792.3       53.7653       23.4675       30.9256       54.3930       0.627761       0.00000
   1     891.5       50.5149       39.3021       11.8405       51.1426       0.627676       0.00001
   0    1013.0       50.3205       40.1896       10.7585       50.9481       0.627676       0.00000



 Wavenumbers: 29000. - 38000. cm-1, ATM      1
 LEVEL PRESSURE   UPWARD FLUX   DIFDOWN FLUX  DIRDOWN FLUX  DOWNWARD FLUX   NET FLUX    HEATING RATE
          mb          W/m2          W/m2          W/m2        W/m2          W/m2       degree/day
  51    .06700        8.7382        0.0000       20.8114       20.8114      12.073187       0.00000
  50    .07753        8.7380        0.0003       20.8070       20.8074      12.069380       3.05152
  49    .09103        8.7378        0.0007       20.8009       20.8016      12.063843       3.46082
  48    0.1069        8.7375        0.0012       20.7928       20.7939      12.056433       3.94425
  47    0.1255        8.7372        0.0017       20.7820       20.7837      12.046529       4.49029
  46    0.1487        8.7369        0.0024       20.7665       20.7688      12.031966       5.30839
  45    0.1794        8.7364        0.0033       20.7424       20.7457      12.009301       6.22197
  44    0.2165        8.7359        0.0044       20.7103       20.7147      11.978779       6.94333
  43    0.2613        8.7353        0.0056       20.6675       20.6731      11.937784       7.72724
  42    0.3336        8.7344        0.0077       20.5880       20.5956      11.861224       8.92615
  41    0.4307        8.7333        0.0104       20.4722       20.4826      11.749273       9.73391
  40    0.5894        8.7318        0.0147       20.2637       20.2784      11.546592      10.77833
  39     1.339        8.7283        0.0331       19.0984       19.1315      10.403134      12.87326
  38     1.782        8.7288        0.0427       18.4394       18.4820       9.753227      12.37320
  37     2.292        8.7315        0.0530       17.7714       17.8244       9.092905      10.93664
  36     2.964        8.7380        0.0656       17.0421       17.1078       8.369819       9.07692
  35     3.853        8.7507        0.0816       16.2678       16.3494       7.598698       7.31808
  34     5.035        8.7717        0.1017       15.4803       15.5820       6.810289       5.63206
  33     6.613        8.8023        0.1275       14.7157       14.8432       6.040826       4.11356
  32     8.786        8.8428        0.1612       13.9936       14.1548       5.312032       2.83037
  31     11.80        8.8955        0.2082       13.2835       13.4918       4.596273       2.00390
  30     15.07        8.9464        0.2570       12.7394       12.9964       4.049997       1.41038
  29     18.79        8.9989        0.3110       12.2666       12.5777       3.578756       1.06845
  28     23.16        9.0547        0.3725       11.8300       12.2025       3.147836       0.83326
  27     28.12        9.1118        0.4413       11.4279       11.8692       2.757368       0.66377
  26     33.73        9.1646        0.5172       11.0695       11.5867       2.422077       0.50412
  25     40.54        9.2146        0.6078       10.7209       11.3287       2.114127       0.38205
  24     48.69        9.2618        0.7154       10.3742       11.0895       1.827790       0.29631
  23     57.69        9.3004        0.8317       10.0549       10.8866       1.586229       0.22643
  22     68.43        9.3316        0.9683        9.7327       10.7010       1.369382       0.17047
  21     81.20        9.3464        1.1295        9.4134       10.5429       1.196477       0.11425
  20     96.49        9.3429        1.3190        9.0887       10.4077       1.064863       0.07264
  19     114.6        9.3290        1.5379        8.7388       10.2767       0.947714       0.05470
  18     136.5        9.3078        1.7883        8.3549       10.1431       0.835314       0.04322
  17     162.9        9.2794        2.0736        7.9311       10.0047       0.725267       0.03518
  16     196.4        9.2318        2.4269        7.4333        9.8602       0.628411       0.02438
  15     218.7        9.1976        2.6492        7.1295        9.7788       0.581175       0.01793
  14     243.0        9.1600        2.8815        6.8161        9.6976       0.537560       0.01513
  13     269.0        9.1190        3.1231        6.4943        9.6174       0.498399       0.01270
  12     297.5        9.0746        3.3728        6.1657        9.5385       0.463879       0.01024
  11     328.5        9.0283        3.6296        5.8295        9.4591       0.430831       0.00899
  10     361.9        8.9804        3.8912        5.4886        9.3798       0.399404       0.00795
   9     398.1        8.9311        4.1568        5.1440        9.3007       0.369622       0.00694
   8     437.6        8.8810        4.4250        4.7969        9.2219       0.340915       0.00614
   7     480.5        8.8303        4.6936        4.4504        9.1440       0.313667       0.00535
   6     533.0        8.7722        4.9999        4.0563        9.0561       0.283967       0.00478
   5     589.8        8.7148        5.3018        3.6682        8.9700       0.255214       0.00427
   4     651.6        8.6591        5.5957        3.2905        8.8862       0.227086       0.00385
   3     718.7        8.6055        5.8799        2.9252        8.8051       0.199540       0.00346
   2     792.3        8.5550        6.1511        2.5764        8.7275       0.172580       0.00309
   1     891.5        8.2469        7.4895        0.8975        8.3869       0.140008       0.00277
   0    1013.0        8.2283        7.6066        0.7262        8.3328       0.104520       0.00246



 Wavenumbers: 38000. - 50000. cm-1, ATM      1
 LEVEL PRESSURE   UPWARD FLUX   DIFDOWN FLUX  DIRDOWN FLUX  DOWNWARD FLUX   NET FLUX    HEATING RATE
          mb          W/m2          W/m2          W/m2        W/m2          W/m2       degree/day
  51    .06700        0.0061        0.0000        1.2836        1.2836       1.277518       0.00000
  50    .07753        0.0061        0.0001        1.2812        1.2812       1.275183       1.87150
  49    .09103        0.0060        0.0002        1.2777        1.2778       1.271851       2.08247
  48    0.1069        0.0059        0.0002        1.2731        1.2734       1.267473       2.33059
  47    0.1255        0.0058        0.0004        1.2672        1.2675       1.261717       2.60908
  46    0.1487        0.0057        0.0005        1.2586        1.2591       1.253391       3.03499
  45    0.1794        0.0055        0.0007        1.2455        1.2462       1.240623       3.50520
  44    0.2165        0.0054        0.0009        1.2282        1.2291       1.223697       3.85037
  43    0.2613        0.0052        0.0011        1.2054        1.2065       1.201348       4.21261
  42    0.3336        0.0049        0.0015        1.1639        1.1654       1.160524       4.75970
  41    0.4307        0.0045        0.0020        1.1051        1.1070       1.102565       5.03943
  40    0.5894        0.0039        0.0026        1.0039        1.0064       1.002524       5.32007
  39     1.339        0.0022        0.0035        0.5438        0.5473       0.545104       5.14971
  38     1.782        0.0016        0.0032        0.3635        0.3666       0.365006       3.42879
  37     2.292        0.0012        0.0027        0.2356        0.2383       0.237058       2.11916
  36     2.964        0.0009        0.0022        0.1455        0.1477       0.146786       1.13318
  35     3.853        0.0006        0.0017        0.0858        0.0875       0.086906       0.56828
  34     5.035        0.0004        0.0013        0.0488        0.0501       0.049701       0.26578
  33     6.613        0.0003        0.0010        0.0273        0.0282       0.027974       0.11615
  32     8.786        0.0002        0.0007        0.0144        0.0151       0.014928       0.05067
  31     11.80        0.0001        0.0004        0.0065        0.0070       0.006903       0.02247
  30     15.07        0.0000        0.0003        0.0031        0.0034       0.003329       0.00923
  29     18.79        0.0000        0.0002        0.0014        0.0016       0.001583       0.00396
  28     23.16        0.0000        0.0001        0.0006        0.0007       0.000720       0.00167
  27     28.12        0.0000        0.0001        0.0003        0.0003       0.000317       0.00069
  26     33.73        0.0000        0.0000        0.0001        0.0001       0.000140       0.00027
  25     40.54        0.0000        0.0000        0.0000        0.0001       0.000057       0.00010
  24     48.69        0.0000        0.0000        0.0000        0.0000       0.000021       0.00004
  23     57.69        0.0000        0.0000        0.0000        0.0000       0.000008       0.00001
  22     68.43        0.0000        0.0000        0.0000        0.0000       0.000003       0.00000
  21     81.20        0.0000        0.0000        0.0000        0.0000       0.000001       0.00000
  20     96.49        0.0000        0.0000        0.0000        0.0000       0.000000       0.00000
  19     114.6        0.0000        0.0000        0.0000        0.0000       0.000000       0.00000
  18     136.5        0.0000        0.0000        0.0000        0.0000       0.000000       0.00000
  17     162.9        0.0000        0.0000        0.0000        0.0000       0.000000       0.00000
  16     196.4        0.0000        0.0000        0.0000        0.0000       0.000000       0.00000
  15     218.7        0.0000        0.0000        0.0000        0.0000       0.000000       0.00000
  14     243.0        0.0000        0.0000        0.0000        0.0000       0.000000       0.00000
  13     269.0        0.0000        0.0000        0.0000        0.0000       0.000000       0.00000
  12     297.5        0.0000        0.0000        0.0000        0.0000       0.000000       0.00000
  11     328.5        0.0000        0.0000        0.0000        0.0000       0.000000       0.00000
  10     361.9        0.0000        0.0000        0.0000        0.0000       0.000000       0.00000
   9     398.1        0.0000        0.0000        0.0000        0.0000       0.000000       0.00000
   8     437.6        0.0000        0.0000        0.0000        0.0000       0.000000       0.00000
   7     480.5        0.0000        0.0000        0.0000        0.0000       0.000000       0.00000
   6     533.0        0.0000        0.0000        0.0000        0.0000       0.000000       0.00000
   5     589.8        0.0000        0.0000        0.0000        0.0000       0.000000       0.00000
   4     651.6        0.0000        0.0000        0.0000        0.0000       0.000000       0.00000
   3     718.7        0.0000        0.0000        0.0000        0.0000       0.000000       0.00000
   2     792.3        0.0000        0.0000        0.0000        0.0000       0.000000       0.00000
   1     891.5        0.0000        0.0000        0.0000        0.0000       0.000000       0.00000
   0    1013.0        0.0000        0.0000        0.0000        0.0000       0.000000       0.00000



 Wavenumbers:   820. -  2600. cm-1, ATM      1
 LEVEL PRESSURE   UPWARD FLUX   DIFDOWN FLUX  DIRDOWN FLUX  DOWNWARD FLUX   NET FLUX    HEATING RATE
          mb          W/m2          W/m2          W/m2        W/m2          W/m2       degree/day
  51    .06700        1.0248        0.0000        6.0047        6.0047       4.979828       0.00000
  50    .07753        1.0248        0.0000        6.0008        6.0008       4.975975       3.08822
  49    .09103        1.0248        0.0000        5.9999        5.9999       4.975089       0.55359
  48    0.1069        1.0248        0.0000        5.9989        5.9989       4.974100       0.52653
  47    0.1255        1.0248        0.0000        5.9978        5.9978       4.972983       0.50650
  46    0.1487        1.0248        0.0000        5.9964        5.9964       4.971626       0.49458
  45    0.1794        1.0248        0.0000        5.9947        5.9947       4.969907       0.47201
  44    0.2165        1.0248        0.0000        5.9929        5.9929       4.968064       0.41911
  43    0.2613        1.0248        0.0000        5.9909        5.9909       4.966105       0.36934
  42    0.3336        1.0248        0.0000        5.9880        5.9880       4.963227       0.33557
  41    0.4307        1.0248        0.0000        5.9846        5.9846       4.959757       0.30166
  40    0.5894        1.0248        0.0000        5.9791        5.9791       4.954252       0.29277
  39     1.339        1.0248        0.0000        5.9536        5.9536       4.928764       0.28695
  38     1.782        1.0248        0.0000        5.9395        5.9395       4.914625       0.26918
  37     2.292        1.0248        0.0000        5.9237        5.9237       4.898873       0.26089
  36     2.964        1.0248        0.0000        5.9039        5.9039       4.879098       0.24824
  35     3.853        1.0248        0.0000        5.8793        5.8793       4.854440       0.23400
  34     5.035        1.0248        0.0000        5.8487        5.8487       4.823875       0.21834
  33     6.613        1.0249        0.0000        5.8108        5.8108       4.785908       0.20297
  32     8.786        1.0249        0.0000        5.7631        5.7631       4.738281       0.18497
  31     11.80        1.0249        0.0000        5.7039        5.7039       4.679018       0.16592
  30     15.07        1.0249        0.0000        5.6539        5.6539       4.628973       0.12921
  29     18.79        1.0249        0.0000        5.6127        5.6127       4.587829       0.09329
  28     23.16        1.0249        0.0000        5.5794        5.5794       4.554442       0.06456
  27     28.12        1.0250        0.0000        5.5518        5.5518       4.526862       0.04688
  26     33.73        1.0250        0.0000        5.5268        5.5268       4.501793       0.03769
  25     40.54        1.0250        0.0000        5.4993        5.4993       4.474328       0.03407
  24     48.69        1.0250        0.0000        5.4678        5.4678       4.442759       0.03267
  23     57.69        1.0251        0.0000        5.4340        5.4340       4.408939       0.03170
  22     68.43        1.0251        0.0000        5.3947        5.3948       4.369625       0.03091
  21     81.20        1.0252        0.0000        5.3497        5.3497       4.324541       0.02979
  20     96.49        1.0253        0.0000        5.2982        5.2982       4.272965       0.02847
  19     114.6        1.0253        0.0000        5.2389        5.2389       4.213564       0.02774
  18     136.5        1.0255        0.0000        5.1716        5.1717       4.146209       0.02590
  17     162.9        1.0256        0.0000        5.0890        5.0891       4.063435       0.02646
  16     196.4        1.0259        0.0000        4.9668        4.9668       3.940949       0.03083
  15     218.7        1.0262        0.0000        4.8585        4.8585       3.832323       0.04124
  14     243.0        1.0266        0.0000        4.7078        4.7079       3.681279       0.05239
  13     269.0        1.0272        0.0000        4.5343        4.5343       3.507055       0.05652
  12     297.5        1.0283        0.0000        4.3419        4.3420       3.313697       0.05735
  11     328.5        1.0297        0.0000        4.1281        4.1281       3.098470       0.05852
  10     361.9        1.0316        0.0000        3.8786        3.8787       2.847124       0.06359
   9     398.1        1.0340        0.0000        3.6159        3.6160       2.581945       0.06178
   8     437.6        1.0372        0.0000        3.3759        3.3759       2.338690       0.05201
   7     480.5        1.0411        0.0000        3.1957        3.1958       2.154650       0.03614
   6     533.0        1.0472        0.0000        3.0467        3.0467       1.999542       0.02495
   5     589.8        1.0561        0.0000        2.9023        2.9023       1.846198       0.02276
   4     651.6        1.0719        0.0000        2.7183        2.7184       1.646440       0.02732
   3     718.7        1.0992        0.0001        2.5058        2.5059       1.406622       0.03014
   2     792.3        1.1505        0.0001        2.2756        2.2757       1.125163       0.03228
   1     891.5        0.7659        0.7181        0.8129        1.5310       0.765113       0.03064
   0    1013.0        0.9242        0.5844        0.6408        1.2252       0.301027       0.03222

  Modules and versions used in this calculation:

       rrtmg_sw.1col.f90:  $Revision$                    rrtmg_sw_init.f90:  $Revision$        
     rrtmgsw_cldprop.f90:  $Revision$                  rrtmgsw_cldprmc.f90:  NOT USED          
     rrtmg_sw_reftra.f90:  $Revision$                  rrtmg_sw_spcvrt.f90:  NOT USED          
     rrtmg_sw_spcvmc.f90:  NOT USED                    rrtmgsw_setcoef.f90:  NOT USED          
     rrtmg_sw_taumol.f90:  $Revision$                  rrtmg_sw_vrtqdr.f90:  NOT USED          
                rrtatm.f:  NOT USED                             util_xxx.f:  NOT USED          
                 extra.f:  NOT USED                       rrtmg_sw_k_g.f90:  $Revision$        

