

 Wavenumbers:   820. - 50000. cm-1, ATM      1
 LEVEL PRESSURE   UPWARD FLUX   DIFDOWN FLUX  DIRDOWN FLUX  DOWNWARD FLUX   NET FLUX    HEATING RATE
          mb          W/m2          W/m2          W/m2        W/m2          W/m2       degree/day
  51    .06700      415.8318        0.0000      617.8126      617.8126     201.980802       0.00000
  50    .07753      415.8314        0.0013      617.7947      617.7961     201.964663      12.93620
  49    .09103      415.8310        0.0030      617.7778      617.7808     201.949854       9.25606
  48    0.1069      415.8305        0.0050      617.7581      617.7631     201.932593       9.18781
  47    0.1255      415.8299        0.0072      617.7340      617.7412     201.911250       9.67597
  46    0.1487      415.8294        0.0100      617.7009      617.7109     201.881567      10.81986
  45    0.1794      415.8286        0.0139      617.6521      617.6660     201.837340      12.14134
  44    0.2165      415.8279        0.0184      617.5895      617.6079     201.780024      13.03830
  43    0.2613      415.8271        0.0238      617.5089      617.5327     201.705520      14.04383
  42    0.3336      415.8262        0.0326      617.3641      617.3967     201.570450      15.74776
  41    0.4307      415.8255        0.0442      617.1591      617.2033     201.377851      16.74606
  40    0.5894      415.8252        0.0629      616.8005      616.8634     201.038207      18.06182
  39     1.339      415.8420        0.1477      614.9443      615.0919     199.249969      20.13231
  38     1.782      415.8643        0.1953      613.9670      614.1624     198.298041      18.12318
  37     2.292      415.9016        0.2496      613.0059      613.2555     197.353916      15.63717
  36     2.964      415.9675        0.3201      611.9577      612.2778     196.310238      13.10131
  35     3.853      416.0785        0.4126      610.8024      611.2150     195.136501      11.13898
  34     5.035      416.2492        0.5346      609.5327      610.0673     193.818029       9.41862
  33     6.613      416.4899        0.6965      608.1464      608.8429     192.353069       7.83168
  32     8.786      416.8033        0.9138      606.6250      607.5388     190.735511       6.28201
  31     11.80      417.2090        1.2231      604.8486      606.0717     188.862764       5.24310
  30     15.07      417.5948        1.5531      603.2440      604.7971     187.202263       4.28709
  29     18.79      417.9863        1.9245      601.6511      603.5756     185.589321       3.65704
  28     23.16      418.3925        2.3560      599.9927      602.3487     183.956274       3.15779
  27     28.12      418.7970        2.8472      598.2881      601.1352     182.338255       2.75052
  26     33.73      419.1621        3.3947      596.5951      599.9898     180.827757       2.27107
  25     40.54      419.5010        4.0540      594.7727      598.8267     179.325605       1.86359
  24     48.69      419.8108        4.8450      592.7865      597.6315     177.820648       1.55739
  23     57.69      420.0551        5.7097      590.7959      596.5055     176.450408       1.28439
  22     68.43      420.2420        6.7340      588.6191      595.3531     175.111104       1.05287
  21     81.20      420.3199        7.9485      586.2690      594.2175     173.897516       0.80192
  20     96.49      420.2787        9.3864      583.6961      593.0825     172.803840       0.60363
  19     114.6      420.1763       11.0781      580.7708      591.8489     171.672562       0.52823
  18     136.5      420.0109       13.0588      577.4359      590.4947     170.483875       0.45708
  17     162.9      419.7762       15.3833      573.5624      588.9457     169.169551       0.42011
  16     196.4      419.3852       18.3475      568.5907      586.9383     167.553068       0.40689
  15     218.7      419.1000       20.2640      565.0572      585.3212     166.221255       0.50564
  14     243.0      418.7814       22.3195      560.7495      583.0691     164.287694       0.67062
  13     269.0      418.4296       24.5155      555.3947      579.9102     161.480531       0.91063
  12     297.5      418.0485       26.8525      548.9964      575.8489     157.800363       1.09150
  11     328.5      417.6468       29.3371      542.0895      571.4266     153.779811       1.09318
  10     361.9      417.2300       31.9653      534.6242      566.5895     149.359561       1.11837
   9     398.1      416.8052       34.7418      526.4204      561.1623     144.357007       1.16548
   8     437.6      416.3880       37.6652      517.3907      555.0559     138.667914       1.21636
   7     480.5      415.9937       40.7336      507.7216      548.4552     132.461475       1.21892
   6     533.0      415.6066       44.4224      495.9006      540.3230     124.716366       1.24594
   5     589.8      415.3664       48.2930      483.0788      531.3719     116.005434       1.29299
   4     651.6      415.4670       52.3329      468.6907      521.0236     105.556607       1.42891
   3     718.7      416.1601       56.5338      453.2257      509.7596      93.599521       1.50267
   2     792.3      418.0840       60.8741      436.4928      497.3669      79.282880       1.64196
   1     891.5      350.4183      274.4911      137.5940      412.0851      61.666775       1.49905
   0    1013.0      356.3785      270.0279      129.1102      399.1381      42.759622       1.31282



 Wavenumbers:  2600. -  3250. cm-1, ATM      1
 LEVEL PRESSURE   UPWARD FLUX   DIFDOWN FLUX  DIRDOWN FLUX  DOWNWARD FLUX   NET FLUX    HEATING RATE
          mb          W/m2          W/m2          W/m2        W/m2          W/m2       degree/day
  51    .06700        1.4562        0.0000        5.4450        5.4450       3.988862       0.00000
  50    .07753        1.4562        0.0000        5.4450        5.4450       3.988854       0.00640
  49    .09103        1.4562        0.0000        5.4450        5.4450       3.988844       0.00627
  48    0.1069        1.4562        0.0000        5.4450        5.4450       3.988832       0.00613
  47    0.1255        1.4562        0.0000        5.4450        5.4450       3.988819       0.00599
  46    0.1487        1.4562        0.0000        5.4450        5.4450       3.988802       0.00608
  45    0.1794        1.4562        0.0000        5.4450        5.4450       3.988780       0.00625
  44    0.2165        1.4562        0.0000        5.4449        5.4449       3.988753       0.00612
  43    0.2613        1.4562        0.0000        5.4449        5.4449       3.988721       0.00600
  42    0.3336        1.4562        0.0000        5.4448        5.4448       3.988668       0.00617
  41    0.4307        1.4562        0.0000        5.4448        5.4448       3.988597       0.00620
  40    0.5894        1.4562        0.0000        5.4446        5.4446       3.988477       0.00637
  39     1.339        1.4562        0.0000        5.4439        5.4439       3.987769       0.00797
  38     1.782        1.4562        0.0000        5.4434        5.4434       3.987226       0.01034
  37     2.292        1.4562        0.0000        5.4427        5.4427       3.986510       0.01186
  36     2.964        1.4562        0.0000        5.4416        5.4416       3.985472       0.01304
  35     3.853        1.4562        0.0000        5.4402        5.4402       3.983994       0.01402
  34     5.035        1.4562        0.0000        5.4381        5.4381       3.981939       0.01468
  33     6.613        1.4562        0.0000        5.4353        5.4353       3.979157       0.01487
  32     8.786        1.4562        0.0000        5.4317        5.4317       3.975525       0.01411
  31     11.80        1.4562        0.0000        5.4269        5.4269       3.970744       0.01339
  30     15.07        1.4562        0.0000        5.4224        5.4224       3.966216       0.01169
  29     18.79        1.4562        0.0000        5.4180        5.4180       3.961802       0.01001
  28     23.16        1.4562        0.0000        5.4135        5.4135       3.957313       0.00868
  27     28.12        1.4562        0.0000        5.4088        5.4088       3.952661       0.00791
  26     33.73        1.4562        0.0000        5.4036        5.4036       3.947414       0.00789
  25     40.54        1.4562        0.0000        5.3966        5.3967       3.940463       0.00862
  24     48.69        1.4562        0.0000        5.3872        5.3872       3.930971       0.00982
  23     57.69        1.4562        0.0000        5.3754        5.3754       3.919166       0.01107
  22     68.43        1.4563        0.0000        5.3599        5.3599       3.903647       0.01220
  21     81.20        1.4563        0.0000        5.3401        5.3401       3.883770       0.01313
  20     96.49        1.4564        0.0000        5.3155        5.3155       3.859142       0.01359
  19     114.6        1.4565        0.0000        5.2853        5.2854       3.828859       0.01414
  18     136.5        1.4566        0.0001        5.2504        5.2505       3.793830       0.01347
  17     162.9        1.4568        0.0001        5.2111        5.2112       3.754310       0.01263
  16     196.4        1.4572        0.0001        5.1640        5.1641       3.706918       0.01193
  15     218.7        1.4576        0.0001        5.1331        5.1332       3.675639       0.01188
  14     243.0        1.4582        0.0001        5.0962        5.0963       3.638147       0.01300
  13     269.0        1.4591        0.0001        5.0511        5.0512       3.592092       0.01494
  12     297.5        1.4605        0.0001        4.9956        4.9957       3.535192       0.01688
  11     328.5        1.4625        0.0001        4.9304        4.9305       3.467988       0.01827
  10     361.9        1.4652        0.0001        4.8511        4.8512       3.386012       0.02074
   9     398.1        1.4690        0.0002        4.7507        4.7508       3.281882       0.02426
   8     437.6        1.4741        0.0002        4.6220        4.6222       3.148111       0.02860
   7     480.5        1.4812        0.0002        4.4625        4.4627       2.981503       0.03272
   6     533.0        1.4926        0.0002        4.2460        4.2462       2.753660       0.03665
   5     589.8        1.5098        0.0002        3.9954        3.9956       2.485763       0.03976
   4     651.6        1.5380        0.0002        3.7089        3.7091       2.171055       0.04304
   3     718.7        1.5838        0.0002        3.4018        3.4020       1.818259       0.04434
   2     792.3        1.6648        0.0002        3.0564        3.0566       1.391875       0.04890
   1     891.5        1.0679        1.0921        0.8586        1.9507       0.882720       0.04333
   0    1013.0        1.2259        0.9172        0.6930        1.6102       0.384299       0.03461



 Wavenumbers:  3250. -  4000. cm-1, ATM      1
 LEVEL PRESSURE   UPWARD FLUX   DIFDOWN FLUX  DIRDOWN FLUX  DOWNWARD FLUX   NET FLUX    HEATING RATE
          mb          W/m2          W/m2          W/m2        W/m2          W/m2       degree/day
  51    .06700        0.0206        0.0000        9.1795        9.1795       9.158909       0.00000
  50    .07753        0.0206        0.0000        9.1747        9.1747       9.154066       3.88148
  49    .09103        0.0206        0.0000        9.1713        9.1713       9.150678       2.11747
  48    0.1069        0.0206        0.0000        9.1688        9.1688       9.148154       1.34402
  47    0.1255        0.0206        0.0000        9.1665        9.1665       9.145894       1.02422
  46    0.1487        0.0206        0.0000        9.1641        9.1641       9.143453       0.88991
  45    0.1794        0.0206        0.0000        9.1612        9.1612       9.140575       0.79008
  44    0.2165        0.0206        0.0000        9.1583        9.1583       9.137655       0.66430
  43    0.2613        0.0206        0.0000        9.1553        9.1553       9.134682       0.56041
  42    0.3336        0.0206        0.0000        9.1511        9.1511       9.130503       0.48723
  41    0.4307        0.0206        0.0000        9.1464        9.1464       9.125734       0.41459
  40    0.5894        0.0206        0.0000        9.1393        9.1394       9.118729       0.37255
  39     1.339        0.0206        0.0000        9.1127        9.1127       9.092115       0.29962
  38     1.782        0.0206        0.0000        9.1011        9.1011       9.080527       0.22062
  37     2.292        0.0206        0.0000        9.0901        9.0901       9.069460       0.18329
  36     2.964        0.0206        0.0000        9.0776        9.0776       9.057031       0.15603
  35     3.853        0.0206        0.0000        9.0629        9.0629       9.042240       0.14036
  34     5.035        0.0206        0.0000        9.0441        9.0441       9.023502       0.13386
  33     6.613        0.0206        0.0000        9.0191        9.0191       8.998500       0.13366
  32     8.786        0.0206        0.0000        8.9843        8.9843       8.963716       0.13509
  31     11.80        0.0206        0.0000        8.9327        8.9327       8.912100       0.14451
  30     15.07        0.0206        0.0000        8.8758        8.8759       8.855255       0.14676
  29     18.79        0.0206        0.0000        8.8110        8.8110       8.790428       0.14698
  28     23.16        0.0206        0.0000        8.7365        8.7366       8.715983       0.14395
  27     28.12        0.0206        0.0000        8.6554        8.6555       8.634870       0.13789
  26     33.73        0.0206        0.0000        8.5719        8.5719       8.551370       0.12554
  25     40.54        0.0206        0.0001        8.4812        8.4812       8.460647       0.11255
  24     48.69        0.0206        0.0001        8.3838        8.3839       8.363345       0.10069
  23     57.69        0.0205        0.0001        8.2861        8.2862       8.265610       0.09161
  22     68.43        0.0205        0.0001        8.1751        8.1751       8.154613       0.08726
  21     81.20        0.0205        0.0001        8.0457        8.0458       8.025255       0.08548
  20     96.49        0.0205        0.0001        7.8949        7.8950       7.874552       0.08318
  19     114.6        0.0205        0.0001        7.7162        7.7163       7.695842       0.08344
  18     136.5        0.0205        0.0002        7.5193        7.5195       7.498998       0.07569
  17     162.9        0.0204        0.0002        7.2913        7.2915       7.271106       0.07284
  16     196.4        0.0204        0.0002        6.9660        6.9662       6.945832       0.08188
  15     218.7        0.0204        0.0002        6.6648        6.6650       6.644640       0.11435
  14     243.0        0.0204        0.0002        6.2619        6.2622       6.241837       0.13971
  13     269.0        0.0204        0.0003        5.7576        5.7579       5.737517       0.16360
  12     297.5        0.0204        0.0003        5.1719        5.1722       5.151782       0.17372
  11     328.5        0.0204        0.0002        4.5757        4.5760       4.555546       0.16211
  10     361.9        0.0205        0.0002        3.9995        3.9998       3.979244       0.14581
   9     398.1        0.0207        0.0002        3.4655        3.4657       3.444979       0.12447
   8     437.6        0.0211        0.0002        2.9740        2.9743       2.953185       0.10515
   7     480.5        0.0216        0.0002        2.5307        2.5309       2.509251       0.08719
   6     533.0        0.0227        0.0002        2.0614        2.0616       2.038872       0.07567
   5     589.8        0.0247        0.0002        1.6150        1.6151       1.590465       0.06656
   4     651.6        0.0288        0.0001        1.1565        1.1566       1.127788       0.06327
   3     718.7        0.0379        0.0001        0.7390        0.7391       0.701185       0.05361
   2     792.3        0.0622        0.0001        0.3985        0.3985       0.336343       0.04184
   1     891.5        0.0005        0.0361        0.0379        0.0740       0.073432       0.02237
   0    1013.0        0.0052        0.0037        0.0031        0.0069       0.001650       0.00498



 Wavenumbers:  4000. -  4650. cm-1, ATM      1
 LEVEL PRESSURE   UPWARD FLUX   DIFDOWN FLUX  DIRDOWN FLUX  DOWNWARD FLUX   NET FLUX    HEATING RATE
          mb          W/m2          W/m2          W/m2        W/m2          W/m2       degree/day
  51    .06700        5.3440        0.0000       10.7795       10.7795       5.435559       0.00000
  50    .07753        5.3440        0.0000       10.7795       10.7795       5.435558       0.00080
  49    .09103        5.3440        0.0000       10.7795       10.7795       5.435557       0.00078
  48    0.1069        5.3440        0.0000       10.7795       10.7795       5.435555       0.00076
  47    0.1255        5.3440        0.0000       10.7795       10.7795       5.435553       0.00075
  46    0.1487        5.3440        0.0000       10.7795       10.7795       5.435551       0.00076
  45    0.1794        5.3440        0.0000       10.7795       10.7795       5.435549       0.00078
  44    0.2165        5.3440        0.0000       10.7795       10.7795       5.435545       0.00076
  43    0.2613        5.3440        0.0000       10.7795       10.7795       5.435541       0.00075
  42    0.3336        5.3440        0.0000       10.7795       10.7795       5.435535       0.00077
  41    0.4307        5.3440        0.0000       10.7795       10.7795       5.435526       0.00077
  40    0.5894        5.3440        0.0000       10.7795       10.7795       5.435511       0.00080
  39     1.339        5.3440        0.0000       10.7794       10.7794       5.435421       0.00101
  38     1.782        5.3440        0.0000       10.7793       10.7793       5.435351       0.00133
  37     2.292        5.3440        0.0000       10.7792       10.7792       5.435257       0.00156
  36     2.964        5.3440        0.0000       10.7791       10.7791       5.435117       0.00176
  35     3.853        5.3440        0.0000       10.7789       10.7789       5.434909       0.00198
  34     5.035        5.3440        0.0000       10.7786       10.7786       5.434602       0.00219
  33     6.613        5.3440        0.0000       10.7781       10.7781       5.434150       0.00242
  32     8.786        5.3440        0.0000       10.7774       10.7774       5.433482       0.00259
  31     11.80        5.3440        0.0001       10.7763       10.7764       5.432433       0.00294
  30     15.07        5.3440        0.0001       10.7751       10.7752       5.431203       0.00318
  29     18.79        5.3440        0.0001       10.7736       10.7737       5.429714       0.00338
  28     23.16        5.3440        0.0001       10.7717       10.7718       5.427866       0.00357
  27     28.12        5.3440        0.0001       10.7695       10.7696       5.425627       0.00381
  26     33.73        5.3440        0.0002       10.7667       10.7668       5.422866       0.00415
  25     40.54        5.3440        0.0002       10.7629       10.7631       5.419120       0.00465
  24     48.69        5.3440        0.0002       10.7579       10.7581       5.414127       0.00517
  23     57.69        5.3441        0.0003       10.7520       10.7523       5.408205       0.00555
  22     68.43        5.3441        0.0003       10.7446       10.7449       5.400780       0.00584
  21     81.20        5.3443        0.0004       10.7355       10.7359       5.391631       0.00605
  20     96.49        5.3444        0.0005       10.7245       10.7249       5.380490       0.00615
  19     114.6        5.3447        0.0005       10.7107       10.7113       5.366548       0.00651
  18     136.5        5.3451        0.0006       10.6942       10.6948       5.349735       0.00646
  17     162.9        5.3457        0.0008       10.6740       10.6748       5.329097       0.00660
  16     196.4        5.3467        0.0009       10.6464       10.6473       5.300577       0.00718
  15     218.7        5.3476        0.0010       10.6255       10.6265       5.278841       0.00825
  14     243.0        5.3490        0.0011       10.5980       10.5992       5.250153       0.00995
  13     269.0        5.3511        0.0012       10.5611       10.5623       5.211215       0.01263
  12     297.5        5.3542        0.0014       10.5119       10.5133       5.159098       0.01546
  11     328.5        5.3585        0.0015       10.4499       10.4514       5.092895       0.01800
  10     361.9        5.3641        0.0017       10.3702       10.3718       5.007736       0.02155
   9     398.1        5.3711        0.0018       10.2678       10.2696       4.898477       0.02545
   8     437.6        5.3800        0.0020       10.1390       10.1410       4.760971       0.02940
   7     480.5        5.3912        0.0021        9.9877        9.9898       4.598622       0.03188
   6     533.0        5.4083        0.0023        9.7937        9.7960       4.387758       0.03392
   5     589.8        5.4325        0.0025        9.5752        9.5777       4.145180       0.03601
   4     651.6        5.4708        0.0028        9.2958        9.2985       3.827785       0.04340
   3     718.7        5.5332        0.0029        8.9267        8.9297       3.396439       0.05421
   2     792.3        5.6456        0.0031        8.4542        8.4573       2.811712       0.06706
   1     891.5        4.0548        3.5532        2.5907        6.1439       2.089176       0.06148
   0    1013.0        4.3044        3.2940        2.3520        5.6460       1.341598       0.05191



 Wavenumbers:  4650. -  5150. cm-1, ATM      1
 LEVEL PRESSURE   UPWARD FLUX   DIFDOWN FLUX  DIRDOWN FLUX  DOWNWARD FLUX   NET FLUX    HEATING RATE
          mb          W/m2          W/m2          W/m2        W/m2          W/m2       degree/day
  51    .06700        3.7989        0.0000       10.2033       10.2033       6.404425       0.00000
  50    .07753        3.7989        0.0000       10.2031       10.2031       6.404189       0.18901
  49    .09103        3.7989        0.0000       10.2028       10.2028       6.403895       0.18428
  48    0.1069        3.7989        0.0000       10.2025       10.2025       6.403558       0.17931
  47    0.1255        3.7989        0.0000       10.2021       10.2021       6.403173       0.17426
  46    0.1487        3.7989        0.0000       10.2016       10.2016       6.402692       0.17536
  45    0.1794        3.7989        0.0000       10.2010       10.2010       6.402042       0.17850
  44    0.2165        3.7989        0.0000       10.2002       10.2002       6.401283       0.17277
  43    0.2613        3.7989        0.0000       10.1993       10.1993       6.400397       0.16690
  42    0.3336        3.7989        0.0000       10.1979       10.1979       6.398965       0.16702
  41    0.4307        3.7989        0.0000       10.1960       10.1960       6.397124       0.16002
  40    0.5894        3.7989        0.0000       10.1932       10.1932       6.394250       0.15283
  39     1.339        3.7989        0.0000       10.1816       10.1816       6.382658       0.13050
  38     1.782        3.7989        0.0000       10.1760       10.1760       6.377130       0.10526
  37     2.292        3.7989        0.0000       10.1706       10.1706       6.371673       0.09038
  36     2.964        3.7989        0.0000       10.1646       10.1647       6.365749       0.07436
  35     3.853        3.7989        0.0000       10.1584       10.1584       6.359534       0.05898
  34     5.035        3.7989        0.0000       10.1521       10.1521       6.353197       0.04527
  33     6.613        3.7989        0.0000       10.1456       10.1456       6.346738       0.03453
  32     8.786        3.7989        0.0001       10.1386       10.1386       6.339723       0.02724
  31     11.80        3.7989        0.0001       10.1295       10.1296       6.330675       0.02533
  30     15.07        3.7989        0.0001       10.1196       10.1197       6.320785       0.02553
  29     18.79        3.7989        0.0001       10.1076       10.1077       6.308761       0.02726
  28     23.16        3.7990        0.0002       10.0923       10.0924       6.293434       0.02964
  27     28.12        3.7990        0.0002       10.0731       10.0733       6.274308       0.03251
  26     33.73        3.7991        0.0002       10.0500       10.0503       6.251170       0.03479
  25     40.54        3.7992        0.0003       10.0201       10.0204       6.221205       0.03718
  24     48.69        3.7993        0.0003        9.9820        9.9823       6.182943       0.03959
  23     57.69        3.7995        0.0004        9.9384        9.9388       6.139288       0.04092
  22     68.43        3.7998        0.0005        9.8858        9.8862       6.086392       0.04158
  21     81.20        3.8002        0.0005        9.8234        9.8240       6.023774       0.04138
  20     96.49        3.8008        0.0006        9.7518        9.7524       5.951639       0.03981
  19     114.6        3.8015        0.0008        9.6719        9.6727       5.871148       0.03758
  18     136.5        3.8026        0.0009        9.5858        9.5867       5.784099       0.03347
  17     162.9        3.8041        0.0011        9.4940        9.4951       5.691014       0.02975
  16     196.4        3.8064        0.0013        9.3883        9.3895       5.583152       0.02715
  15     218.7        3.8082        0.0014        9.3229        9.3243       5.516098       0.02546
  14     243.0        3.8106        0.0015        9.2520        9.2535       5.442911       0.02538
  13     269.0        3.8139        0.0017        9.1717        9.1734       5.359510       0.02706
  12     297.5        3.8184        0.0019        9.0763        9.0781       5.259722       0.02960
  11     328.5        3.8244        0.0020        8.9650        8.9670       5.142608       0.03184
  10     361.9        3.8321        0.0022        8.8349        8.8371       5.005014       0.03481
   9     398.1        3.8422        0.0024        8.6820        8.6844       4.842263       0.03792
   8     437.6        3.8552        0.0026        8.5028        8.5054       4.650191       0.04107
   7     480.5        3.8722        0.0028        8.2948        8.2976       4.425450       0.04414
   6     533.0        3.8980        0.0030        8.0209        8.0239       4.125939       0.04818
   5     589.8        3.9338        0.0033        7.7063        7.7096       3.775814       0.05197
   4     651.6        3.9865        0.0035        7.3412        7.3447       3.358204       0.05711
   3     718.7        4.0656        0.0037        6.9387        6.9424       2.876794       0.06050
   2     792.3        4.1897        0.0039        6.5066        6.5105       2.320802       0.06377
   1     891.5        2.9656        2.6640        1.9732        4.6372       1.671600       0.05524
   0    1013.0        3.1992        2.4351        1.7626        4.1977       0.998519       0.04674



 Wavenumbers:  5150. -  6150. cm-1, ATM      1
 LEVEL PRESSURE   UPWARD FLUX   DIFDOWN FLUX  DIRDOWN FLUX  DOWNWARD FLUX   NET FLUX    HEATING RATE
          mb          W/m2          W/m2          W/m2        W/m2          W/m2       degree/day
  51    .06700        9.4332        0.0000       25.5798       25.5798      16.146593       0.00000
  50    .07753        9.4332        0.0000       25.5798       25.5798      16.146554       0.03160
  49    .09103        9.4332        0.0000       25.5797       25.5797      16.146502       0.03209
  48    0.1069        9.4332        0.0000       25.5797       25.5797      16.146441       0.03260
  47    0.1255        9.4332        0.0000       25.5796       25.5796      16.146368       0.03310
  46    0.1487        9.4332        0.0000       25.5795       25.5795      16.146273       0.03487
  45    0.1794        9.4332        0.0000       25.5794       25.5794      16.146137       0.03711
  44    0.2165        9.4332        0.0000       25.5792       25.5792      16.145972       0.03767
  43    0.2613        9.4332        0.0000       25.5790       25.5790      16.145769       0.03825
  42    0.3336        9.4332        0.0000       25.5786       25.5786      16.145422       0.04042
  41    0.4307        9.4332        0.0000       25.5782       25.5782      16.144951       0.04096
  40    0.5894        9.4332        0.0000       25.5774       25.5774      16.144162       0.04197
  39     1.339        9.4332        0.0000       25.5735       25.5736      16.140360       0.04281
  38     1.782        9.4332        0.0001       25.5713       25.5714      16.138146       0.04215
  37     2.292        9.4332        0.0001       25.5688       25.5688      16.135640       0.04150
  36     2.964        9.4332        0.0001       25.5656       25.5657      16.132456       0.03997
  35     3.853        9.4332        0.0001       25.5615       25.5616      16.128410       0.03840
  34     5.035        9.4332        0.0002       25.5562       25.5564      16.123198       0.03723
  33     6.613        9.4332        0.0002       25.5494       25.5496      16.116436       0.03615
  32     8.786        9.4332        0.0003       25.5406       25.5409      16.107672       0.03404
  31     11.80        9.4332        0.0004       25.5287       25.5290      16.095817       0.03319
  30     15.07        9.4332        0.0005       25.5167       25.5172      16.083927       0.03070
  29     18.79        9.4333        0.0006       25.5042       25.5048      16.071492       0.02819
  28     23.16        9.4333        0.0007       25.4907       25.4914      16.058093       0.02591
  27     28.12        9.4334        0.0009       25.4764       25.4773      16.043960       0.02403
  26     33.73        9.4334        0.0010       25.4620       25.4631      16.029628       0.02155
  25     40.54        9.4336        0.0013       25.4463       25.4475      16.013942       0.01946
  24     48.69        9.4337        0.0015       25.4294       25.4309      15.997126       0.01740
  23     57.69        9.4340        0.0018       25.4126       25.4144      15.980410       0.01567
  22     68.43        9.4343        0.0021       25.3944       25.3965      15.962239       0.01428
  21     81.20        9.4347        0.0025       25.3744       25.3769      15.942220       0.01323
  20     96.49        9.4352        0.0030       25.3519       25.3549      15.919702       0.01243
  19     114.6        9.4358        0.0035       25.3262       25.3297      15.893859       0.01207
  18     136.5        9.4366        0.0042       25.2962       25.3004      15.863760       0.01157
  17     162.9        9.4376        0.0050       25.2521       25.2571      15.819470       0.01416
  16     196.4        9.4390        0.0060       25.1593       25.1653      15.726321       0.02345
  15     218.7        9.4400        0.0066       25.0159       25.0226      15.582623       0.05456
  14     243.0        9.4412        0.0073       24.7089       24.7162      15.275070       0.10667
  13     269.0        9.4427        0.0080       24.1619       24.1698      14.727122       0.17775
  12     297.5        9.4448        0.0086       23.4544       23.4630      14.018225       0.21025
  11     328.5        9.4475        0.0093       22.7355       22.7448      13.297288       0.19602
  10     361.9        9.4510        0.0100       21.9224       21.9324      12.481421       0.20642
   9     398.1        9.4556        0.0106       20.9939       21.0045      11.548942       0.21725
   8     437.6        9.4619        0.0112       19.9833       19.9946      10.532698       0.21728
   7     480.5        9.4704        0.0119       18.9483       18.9601       9.489748       0.20483
   6     533.0        9.4845        0.0125       17.7796       17.7921       8.307587       0.19017
   5     589.8        9.5070        0.0132       16.6726       16.6858       7.178848       0.16754
   4     651.6        9.5471        0.0139       15.6343       15.6482       6.101194       0.14737
   3     718.7        9.6190        0.0147       14.7738       14.7885       5.169517       0.11709
   2     792.3        9.7587        0.0156       14.0291       14.0447       4.286090       0.10132
   1     891.5        7.1296        6.0786        4.3487       10.4273       3.297670       0.08411
   0    1013.0        7.4188        5.7245        4.0017        9.7261       2.307309       0.06877



 Wavenumbers:  6150. -  7700. cm-1, ATM      1
 LEVEL PRESSURE   UPWARD FLUX   DIFDOWN FLUX  DIRDOWN FLUX  DOWNWARD FLUX   NET FLUX    HEATING RATE
          mb          W/m2          W/m2          W/m2        W/m2          W/m2       degree/day
  51    .06700       14.3796        0.0000       47.3109       47.3109      32.931303       0.00000
  50    .07753       14.3796        0.0000       47.3108       47.3108      32.931247       0.04553
  49    .09103       14.3796        0.0000       47.3107       47.3107      32.931173       0.04583
  48    0.1069       14.3796        0.0000       47.3106       47.3106      32.931087       0.04614
  47    0.1255       14.3796        0.0000       47.3105       47.3105      32.930984       0.04645
  46    0.1487       14.3795        0.0000       47.3104       47.3104      32.930851       0.04852
  45    0.1794       14.3795        0.0000       47.3102       47.3102      32.930664       0.05127
  44    0.2165       14.3795        0.0000       47.3100       47.3100      32.930437       0.05167
  43    0.2613       14.3795        0.0000       47.3097       47.3097      32.930161       0.05210
  42    0.3336       14.3795        0.0000       47.3092       47.3092      32.929691       0.05471
  41    0.4307       14.3795        0.0000       47.3085       47.3086      32.929056       0.05521
  40    0.5894       14.3795        0.0001       47.3074       47.3075      32.927997       0.05633
  39     1.339       14.3795        0.0002       47.3022       47.3024      32.922905       0.05733
  38     1.782       14.3794        0.0002       47.2991       47.2993      32.919935       0.05655
  37     2.292       14.3794        0.0003       47.2956       47.2959      32.916559       0.05591
  36     2.964       14.3793        0.0004       47.2912       47.2916      32.912241       0.05421
  35     3.853       14.3792        0.0005       47.2855       47.2859      32.906706       0.05252
  34     5.035       14.3791        0.0006       47.2780       47.2787      32.899526       0.05129
  33     6.613       14.3790        0.0008       47.2683       47.2692      32.890138       0.05019
  32     8.786       14.3788        0.0011       47.2556       47.2567      32.877839       0.04777
  31     11.80       14.3786        0.0015       47.2380       47.2395      32.860935       0.04732
  30     15.07       14.3783        0.0019       47.2201       47.2220      32.843647       0.04463
  29     18.79       14.3780        0.0024       47.2008       47.2032      32.825168       0.04190
  28     23.16       14.3777        0.0029       47.1795       47.1824      32.804778       0.03943
  27     28.12       14.3773        0.0036       47.1565       47.1600      32.782784       0.03739
  26     33.73       14.3768        0.0043       47.1324       47.1367      32.759863       0.03446
  25     40.54       14.3762        0.0051       47.1054       47.1105      32.734226       0.03180
  24     48.69       14.3756        0.0061       47.0754       47.0816      32.705973       0.02924
  23     57.69       14.3749        0.0073       47.0449       47.0522      32.677352       0.02683
  22     68.43       14.3740        0.0086       47.0110       47.0196      32.645615       0.02495
  21     81.20       14.3730        0.0102       46.9729       46.9831      32.610122       0.02345
  20     96.49       14.3717        0.0121       46.9294       46.9415      32.569782       0.02226
  19     114.6       14.3703        0.0144       46.8790       46.8934      32.523151       0.02177
  18     136.5       14.3685        0.0171       46.8200       46.8371      32.468530       0.02100
  17     162.9       14.3665        0.0203       46.7361       46.7564      32.389915       0.02513
  16     196.4       14.3640        0.0244       46.5703       46.5947      32.230732       0.04007
  15     218.7       14.3624        0.0271       46.3473       46.3744      32.011993       0.08305
  14     243.0       14.3610        0.0299       45.9299       45.9598      31.598810       0.14331
  13     269.0       14.3599        0.0327       45.1708       45.2035      30.843621       0.24498
  12     297.5       14.3596        0.0355       44.0115       44.0469      29.687335       0.34294
  11     328.5       14.3604        0.0383       42.7242       42.7625      28.402080       0.34946
  10     361.9       14.3629        0.0411       41.3539       41.3950      27.032178       0.34660
   9     398.1       14.3679        0.0439       39.7953       39.8391      25.471252       0.36366
   8     437.6       14.3771        0.0465       37.9948       38.0412      23.664162       0.38637
   7     480.5       14.3923        0.0489       36.0647       36.1137      21.721328       0.38157
   6     533.0       14.4217        0.0516       33.7773       33.8289      19.407189       0.37227
   5     589.8       14.4736        0.0540       31.4082       31.4622      16.988635       0.35899
   4     651.6       14.5737        0.0560       28.8834       28.9394      14.365617       0.35870
   3     718.7       14.7624        0.0577       26.4104       26.4681      11.705719       0.33428
   2     792.3       15.1468        0.0592       24.0056       24.0648       8.918008       0.31972
   1     891.5       10.5951        9.5913        7.0581       16.6495       6.054396       0.24368
   0    1013.0       11.3451        8.6927        6.1873       14.8800       3.534894       0.17494



 Wavenumbers:  7700. -  8050. cm-1, ATM      1
 LEVEL PRESSURE   UPWARD FLUX   DIFDOWN FLUX  DIRDOWN FLUX  DOWNWARD FLUX   NET FLUX    HEATING RATE
          mb          W/m2          W/m2          W/m2        W/m2          W/m2       degree/day
  51    .06700        7.2140        0.0000       11.1810       11.1810       3.966924       0.00000
  50    .07753        7.2140        0.0000       11.1809       11.1809       3.966902       0.01814
  49    .09103        7.2140        0.0000       11.1809       11.1809       3.966873       0.01777
  48    0.1069        7.2141        0.0000       11.1809       11.1809       3.966841       0.01740
  47    0.1255        7.2141        0.0000       11.1809       11.1809       3.966803       0.01703
  46    0.1487        7.2141        0.0000       11.1808       11.1808       3.966756       0.01728
  45    0.1794        7.2141        0.0000       11.1808       11.1808       3.966691       0.01778
  44    0.2165        7.2141        0.0000       11.1807       11.1807       3.966614       0.01744
  43    0.2613        7.2141        0.0000       11.1806       11.1806       3.966523       0.01712
  42    0.3336        7.2142        0.0000       11.1805       11.1805       3.966373       0.01751
  41    0.4307        7.2142        0.0000       11.1803       11.1804       3.966174       0.01732
  40    0.5894        7.2143        0.0000       11.1801       11.1801       3.965849       0.01730
  39     1.339        7.2146        0.0001       11.1788       11.1789       3.964309       0.01733
  38     1.782        7.2148        0.0001       11.1781       11.1782       3.963405       0.01722
  37     2.292        7.2150        0.0001       11.1772       11.1773       3.962358       0.01734
  36     2.964        7.2153        0.0002       11.1761       11.1762       3.960984       0.01725
  35     3.853        7.2156        0.0002       11.1746       11.1748       3.959168       0.01723
  34     5.035        7.2161        0.0003       11.1726       11.1729       3.956757       0.01723
  33     6.613        7.2168        0.0004       11.1700       11.1703       3.953535       0.01722
  32     8.786        7.2177        0.0005       11.1664       11.1669       3.949195       0.01686
  31     11.80        7.2190        0.0007       11.1613       11.1620       3.942990       0.01737
  30     15.07        7.2204        0.0009       11.1558       11.1567       3.936332       0.01719
  29     18.79        7.2220        0.0011       11.1497       11.1508       3.928818       0.01704
  28     23.16        7.2238        0.0013       11.1425       11.1439       3.920050       0.01695
  27     28.12        7.2259        0.0016       11.1343       11.1360       3.910038       0.01702
  26     33.73        7.2283        0.0020       11.1252       11.1272       3.898853       0.01682
  25     40.54        7.2312        0.0024       11.1142       11.1166       3.885367       0.01673
  24     48.69        7.2347        0.0028       11.1010       11.1038       3.869151       0.01678
  23     57.69        7.2385        0.0033       11.0866       11.0899       3.851393       0.01665
  22     68.43        7.2432        0.0040       11.0695       11.0735       3.830319       0.01657
  21     81.20        7.2487        0.0047       11.0494       11.0541       3.805320       0.01652
  20     96.49        7.2554        0.0056       11.0255       11.0311       3.775686       0.01636
  19     114.6        7.2634        0.0066       10.9975       11.0042       3.740715       0.01633
  18     136.5        7.2731        0.0078       10.9648       10.9726       3.699556       0.01583
  17     162.9        7.2847        0.0093       10.9263       10.9356       3.650933       0.01554
  16     196.4        7.3000        0.0112       10.8773       10.8885       3.588468       0.01572
  15     218.7        7.3102        0.0125       10.8455       10.8580       3.547751       0.01546
  14     243.0        7.3216        0.0138       10.8114       10.8253       3.503702       0.01528
  13     269.0        7.3340        0.0153       10.7749       10.7902       3.456125       0.01543
  12     297.5        7.3478        0.0169       10.7357       10.7526       3.404752       0.01524
  11     328.5        7.3631        0.0186       10.6937       10.7123       3.349225       0.01510
  10     361.9        7.3800        0.0204       10.6489       10.6693       3.289264       0.01517
   9     398.1        7.3988        0.0224       10.6008       10.6231       3.224299       0.01514
   8     437.6        7.4199        0.0245       10.5491       10.5736       3.153615       0.01511
   7     480.5        7.4437        0.0268       10.4934       10.5202       3.076545       0.01514
   6     533.0        7.4746        0.0296       10.4243       10.4538       2.979283       0.01565
   5     589.8        7.5106        0.0326       10.3479       10.3805       2.869871       0.01624
   4     651.6        7.5538        0.0358       10.2613       10.2971       2.743326       0.01731
   3     718.7        7.6067        0.0392       10.1618       10.2010       2.594243       0.01874
   2     792.3        7.6738        0.0428       10.0439       10.0867       2.412863       0.02080
   1     891.5        5.8500        4.7388        3.2779        8.0167       2.166719       0.02095
   0    1013.0        5.9757        4.6374        3.1940        7.8314       1.855703       0.02160



 Wavenumbers:  8050. - 12850. cm-1, ATM      1
 LEVEL PRESSURE   UPWARD FLUX   DIFDOWN FLUX  DIRDOWN FLUX  DOWNWARD FLUX   NET FLUX    HEATING RATE
          mb          W/m2          W/m2          W/m2        W/m2          W/m2       degree/day
  51    .06700       90.3140        0.0000      156.5418      156.5418      66.227712       0.00000
  50    .07753       90.3140        0.0000      156.5417      156.5417      66.227712       0.00000
  49    .09103       90.3140        0.0001      156.5417      156.5417      66.227712       0.00000
  48    0.1069       90.3140        0.0001      156.5416      156.5417      66.227712      -0.00000
  47    0.1255       90.3140        0.0002      156.5415      156.5417      66.227712      -0.00000
  46    0.1487       90.3139        0.0002      156.5414      156.5417      66.227712       0.00000
  45    0.1794       90.3139        0.0003      156.5413      156.5416      66.227712       0.00000
  44    0.2165       90.3139        0.0004      156.5412      156.5416      66.227712      -0.00000
  43    0.2613       90.3138        0.0005      156.5410      156.5415      66.227712      -0.00000
  42    0.3336       90.3137        0.0008      156.5407      156.5414      66.227712       0.00000
  41    0.4307       90.3136        0.0010      156.5403      156.5413      66.227712       0.00000
  40    0.5894       90.3134        0.0015      156.5397      156.5412      66.227712      -0.00000
  39     1.339       90.3126        0.0036      156.5367      156.5403      66.227712       0.00000
  38     1.782       90.3121        0.0048      156.5350      156.5398      66.227712      -0.00000
  37     2.292       90.3115        0.0062      156.5330      156.5392      66.227712       0.00000
  36     2.964       90.3107        0.0081      156.5303      156.5384      66.227712       0.00000
  35     3.853       90.3097        0.0106      156.5268      156.5374      66.227712       0.00000
  34     5.035       90.3084        0.0139      156.5222      156.5361      66.227712       0.00000
  33     6.613       90.3066        0.0183      156.5160      156.5343      66.227712       0.00000
  32     8.786       90.3042        0.0242      156.5076      156.5319      66.227712      -0.00000
  31     11.80       90.3007        0.0327      156.4957      156.5284      66.227712       0.00000
  30     15.07       90.2969        0.0419      156.4828      156.5247      66.227712       0.00000
  29     18.79       90.2927        0.0522      156.4682      156.5204      66.227712       0.00000
  28     23.16       90.2878        0.0643      156.4512      156.5155      66.227712      -0.00000
  27     28.12       90.2821        0.0782      156.4317      156.5099      66.227712      -0.00000
  26     33.73       90.2758        0.0937      156.4099      156.5035      66.227712       0.00000
  25     40.54       90.2681        0.1124      156.3834      156.4959      66.227712       0.00000
  24     48.69       90.2589        0.1351      156.3515      156.4866      66.227712      -0.00000
  23     57.69       90.2487        0.1600      156.3164      156.4764      66.227712      -0.00000
  22     68.43       90.2366        0.1897      156.2746      156.4643      66.227712       0.00000
  21     81.20       90.2221        0.2252      156.2246      156.4498      66.227712       0.00000
  20     96.49       90.2048        0.2676      156.1649      156.4325      66.227712       0.00000
  19     114.6       90.1844        0.3179      156.0879      156.4059      66.221493       0.00290
  18     136.5       90.1601        0.3778      155.9962      156.3739      66.213779       0.00297
  17     162.9       90.1312        0.4492      155.8831      156.3322      66.200975       0.00409
  16     196.4       90.0938        0.5420      155.7199      156.2619      66.168157       0.00826
  15     218.7       90.0694        0.6031      155.5733      156.1764      66.106958       0.02324
  14     243.0       90.0436        0.6694      155.3367      156.0061      65.962519       0.05010
  13     269.0       90.0172        0.7412      154.9514      155.6926      65.675370       0.09315
  12     297.5       89.9920        0.8184      154.3896      155.2080      65.216050       0.13623
  11     328.5       89.9689        0.9017      153.7151      154.6168      64.647944       0.15447
  10     361.9       89.9501        0.9911      152.9087      153.8998      63.949768       0.17665
   9     398.1       89.9392        1.0867      151.8986      152.9853      63.046046       0.21055
   8     437.6       89.9427        1.1883      150.6031      151.7914      61.848738       0.25599
   7     480.5       89.9682        1.2957      149.0014      150.2971      60.328956       0.29848
   6     533.0       90.0406        1.4256      146.7375      148.1632      58.122547       0.35494
   5     589.8       90.1948        1.5616      143.8730      145.4346      55.239773       0.42790
   4     651.6       90.5226        1.7010      140.0955      141.7965      51.273896       0.54234
   3     718.7       91.1541        1.8423      135.5278      137.3701      46.216030       0.63563
   2     792.3       92.4036        1.9822      130.0690      132.0512      39.647536       0.75333
   1     891.5       67.9005       58.4809       40.5947       99.0757      31.175106       0.72096
   0    1013.0       70.8917       55.3287       37.5445       92.8732      21.981496       0.63836



 Wavenumbers: 12850. - 16000. cm-1, ATM      1
 LEVEL PRESSURE   UPWARD FLUX   DIFDOWN FLUX  DIRDOWN FLUX  DOWNWARD FLUX   NET FLUX    HEATING RATE
          mb          W/m2          W/m2          W/m2        W/m2          W/m2       degree/day
  51    .06700       75.2843        0.0000       98.0872       98.0872      22.802910       0.00000
  50    .07753       75.2843        0.0001       98.0864       98.0864      22.802119       0.63398
  49    .09103       75.2843        0.0002       98.0853       98.0854      22.801126       0.62083
  48    0.1069       75.2843        0.0003       98.0841       98.0843      22.799985       0.60743
  47    0.1255       75.2843        0.0004       98.0826       98.0830      22.798674       0.59430
  46    0.1487       75.2843        0.0005       98.0809       98.0814      22.797020       0.60295
  45    0.1794       75.2844        0.0007       98.0784       98.0792      22.794770       0.61763
  44    0.2165       75.2845        0.0010       98.0756       98.0766      22.792124       0.60191
  43    0.2613       75.2846        0.0012       98.0723       98.0736      22.789013       0.58639
  42    0.3336       75.2848        0.0017       98.0670       98.0687      22.783938       0.59179
  41    0.4307       75.2851        0.0023       98.0602       98.0625      22.777376       0.57051
  40    0.5894       75.2858        0.0033       98.0496       98.0529      22.767042       0.54953
  39     1.339       75.2921        0.0080       98.0043       98.0124      22.720316       0.52605
  38     1.782       75.2978        0.0108       97.9793       97.9901      22.692329       0.53283
  37     2.292       75.3063        0.0140       97.9498       97.9638      22.657516       0.57660
  36     2.964       75.3204        0.0182       97.9088       97.9270      22.606646       0.63857
  35     3.853       75.3432        0.0238       97.8503       97.8741      22.530942       0.71845
  34     5.035       75.3775        0.0312       97.7680       97.7992      22.421635       0.78084
  33     6.613       75.4255        0.0410       97.6562       97.6972      22.271740       0.80134
  32     8.786       75.4879        0.0543       97.5107       97.5650      22.077070       0.75603
  31     11.80       75.5692        0.0733       97.3179       97.3912      21.821977       0.71418
  30     15.07       75.6470        0.0937       97.1283       97.2220      21.574956       0.63776
  29     18.79       75.7265        0.1167       96.9300       97.0467      21.320138       0.57775
  28     23.16       75.8096        0.1435       96.7166       96.8600      21.050405       0.52158
  27     28.12       75.8933        0.1741       96.4935       96.6676      20.774329       0.46931
  26     33.73       75.9706        0.2084       96.2731       96.4815      20.510911       0.39605
  25     40.54       76.0452        0.2499       96.0408       96.2906      20.245479       0.32930
  24     48.69       76.1167        0.2998       95.7946       96.0944      19.977673       0.27714
  23     57.69       76.1776        0.3547       95.5573       95.9120      19.734405       0.22803
  22     68.43       76.2308        0.4201       95.3106       95.7307      19.499881       0.18437
  21     81.20       76.2679        0.4981       95.0643       95.5625      19.294518       0.13570
  20     96.49       76.2878        0.5912       94.8153       95.4065      19.118652       0.09707
  19     114.6       76.3117        0.7028       94.5411       95.2439      18.932172       0.08707
  18     136.5       76.3291        0.8351       94.2320       95.0671      18.738016       0.07466
  17     162.9       76.3399        0.9926       93.8753       94.8680      18.528014       0.06713
  16     196.4       76.3328        1.1969       93.4347       94.6316      18.298767       0.05770
  15     218.7       76.3206        1.3311       93.1513       94.4823      18.161761       0.05202
  14     243.0       76.3041        1.4769       92.8439       94.3208      18.016683       0.05032
  13     269.0       76.2834        1.6349       92.5111       94.1460      17.862595       0.04999
  12     297.5       76.2589        1.8056       92.1495       93.9551      17.696155       0.04936
  11     328.5       76.2326        1.9900       91.7554       93.7454      17.512829       0.04985
  10     361.9       76.2053        2.1886       91.3262       93.5148      17.309460       0.05145
   9     398.1       76.1785        2.4022       90.8575       93.2598      17.081231       0.05317
   8     437.6       76.1550        2.6315       90.3418       92.9733      16.818291       0.05622
   7     480.5       76.1377        2.8771       89.7728       92.6499      16.512272       0.06010
   6     533.0       76.1315        3.1791       89.0428       92.2219      16.090398       0.06787
   5     589.8       76.1533        3.5035       88.2038       91.7073      15.553989       0.07962
   4     651.6       76.2352        3.8501       87.1979       91.0481      14.812895       0.10135
   3     718.7       76.4001        4.2174       86.0161       90.2335      13.833443       0.12309
   2     792.3       76.7192        4.6014       84.5970       89.1984      12.479275       0.15531
   1     891.5       64.1568       47.2186       27.4002       74.6188      10.461976       0.17166
   0    1013.0       65.2127       46.5165       26.4631       72.9796       7.766962       0.18713



 Wavenumbers: 16000. - 22650. cm-1, ATM      1
 LEVEL PRESSURE   UPWARD FLUX   DIFDOWN FLUX  DIRDOWN FLUX  DOWNWARD FLUX   NET FLUX    HEATING RATE
          mb          W/m2          W/m2          W/m2        W/m2          W/m2       degree/day
  51    .06700      140.3868        0.0000      156.3892      156.3892      16.002416       0.00000
  50    .07753      140.3868        0.0004      156.3887      156.3891      16.002269       0.11802
  49    .09103      140.3868        0.0009      156.3879      156.3888      16.002055       0.13386
  48    0.1069      140.3868        0.0015      156.3871      156.3885      16.001768       0.15264
  47    0.1255      140.3868        0.0021      156.3861      156.3882      16.001384       0.17399
  46    0.1487      140.3868        0.0029      156.3847      156.3877      16.000819       0.20618
  45    0.1794      140.3870        0.0041      156.3828      156.3869      15.999935       0.24276
  44    0.2165      140.3872        0.0054      156.3805      156.3859      15.998735       0.27283
  43    0.2613      140.3875        0.0070      156.3776      156.3846      15.997108       0.30673
  42    0.3336      140.3883        0.0096      156.3726      156.3823      15.994014       0.36071
  41    0.4307      140.3895        0.0131      156.3657      156.3788      15.989351       0.40548
  40    0.5894      140.3921        0.0188      156.3537      156.3725      15.980457       0.47297
  39     1.339      140.4144        0.0458      156.2834      156.3292      15.914746       0.73978
  38     1.782      140.4352        0.0616      156.2324      156.2939      15.858769       1.06571
  37     2.292      140.4663        0.0799      156.1641      156.2440      15.777742       1.34202
  36     2.964      140.5180        0.1039      156.0605      156.1644      15.646478       1.64777
  35     3.853      140.6016        0.1357      155.9041      156.0397      15.438193       1.97666
  34     5.035      140.7277        0.1778      155.6774      155.8551      15.127451       2.21981
  33     6.613      140.9040        0.2340      155.3656      155.5996      14.695613       2.30861
  32     8.786      141.1336        0.3096      154.9577      155.2673      14.133700       2.18227
  31     11.80      141.4323        0.4176      154.4153      154.8329      13.400558       2.05257
  30     15.07      141.7185        0.5334      153.8804      154.4138      12.695310       1.82081
  29     18.79      142.0106        0.6641      153.3191      153.9831      11.972507       1.63882
  28     23.16      142.3159        0.8164      152.7126      153.5290      11.213040       1.46856
  27     28.12      142.6230        0.9903      152.0755      153.0658      10.442827       1.30931
  26     33.73      142.9064        1.1848      151.4409      152.6257       9.719379       1.08772
  25     40.54      143.1789        1.4196      150.7637      152.1833       9.004363       0.88706
  24     48.69      143.4396        1.7023      150.0338      151.7361       8.296500       0.73253
  23     57.69      143.6604        2.0125      149.3151      151.3276       7.667150       0.58992
  22     68.43      143.8527        2.3815      148.5476      150.9291       7.076366       0.46443
  21     81.20      143.9848        2.8208      147.7517      150.5725       6.587659       0.32293
  20     96.49      144.0523        3.3438      146.9127      150.2565       6.204153       0.21167
  19     114.6      144.0863        3.9630      145.9763      149.9393       5.853009       0.16396
  18     136.5      144.0953        4.6941      144.9088      149.6029       5.507580       0.13283
  17     162.9      144.0776        5.5607      143.6785      149.2392       5.161566       0.11060
  16     196.4      143.9934        6.6787      142.1651      148.8438       4.850368       0.07833
  15     218.7      143.9156        7.4093      141.2033      148.6127       4.697059       0.05821
  14     243.0      143.8208        8.2001      140.1753      148.3754       4.554670       0.04939
  13     269.0      143.7073        9.0532      139.0797      148.1329       4.425611       0.04187
  12     297.5      143.5745        9.9706      137.9141      147.8847       4.310261       0.03421
  11     328.5      143.4263       10.9568      136.6676      147.6243       4.198005       0.03052
  10     361.9      143.2626       12.0124      135.3392      147.3516       4.088981       0.02758
   9     398.1      143.0829       13.1417      133.9235      147.0652       3.982299       0.02485
   8     437.6      142.8880       14.3466      132.4163      146.7628       3.874818       0.02298
   7     480.5      142.6776       15.6292      130.8147      146.4439       3.766244       0.02132
   6     533.0      142.4188       17.1957      128.8599      146.0556       3.636820       0.02082
   5     589.8      142.1439       18.8694      126.7679      145.6374       3.493513       0.02127
   4     651.6      141.8592       20.6520      124.5274      145.1794       3.320228       0.02370
   3     718.7      141.5710       22.5451      122.1285      144.6735       3.102488       0.02736
   2     792.3      141.2964       24.5466      119.5548      144.1014       2.805013       0.03412
   1     891.5      127.6544       91.3796       38.5818      129.9614       2.307051       0.04237
   0    1013.0      127.7783       92.1739       37.1802      129.3541       1.575873       0.05077



 Wavenumbers: 22650. - 29000. cm-1, ATM      1
 LEVEL PRESSURE   UPWARD FLUX   DIFDOWN FLUX  DIRDOWN FLUX  DOWNWARD FLUX   NET FLUX    HEATING RATE
          mb          W/m2          W/m2          W/m2        W/m2          W/m2       degree/day
  51    .06700       58.3889        0.0000       59.0156       59.0156       0.626712       0.00000
  50    .07753       58.3888        0.0005       59.0151       59.0155       0.626712      -0.00000
  49    .09103       58.3887        0.0010       59.0144       59.0154       0.626712      -0.00000
  48    0.1069       58.3886        0.0017       59.0136       59.0153       0.626712       0.00000
  47    0.1255       58.3884        0.0025       59.0127       59.0151       0.626712       0.00000
  46    0.1487       58.3882        0.0034       59.0115       59.0149       0.626712       0.00000
  45    0.1794       58.3880        0.0048       59.0099       59.0147       0.626712      -0.00000
  44    0.2165       58.3877        0.0063       59.0080       59.0144       0.626712       0.00000
  43    0.2613       58.3873        0.0082       59.0058       59.0140       0.626712      -0.00000
  42    0.3336       58.3867        0.0113       59.0022       59.0134       0.626712      -0.00000
  41    0.4307       58.3859        0.0153       58.9973       59.0126       0.626712       0.00000
  40    0.5894       58.3846        0.0220       58.9894       59.0113       0.626712       0.00000
  39     1.339       58.3785        0.0534       58.9518       59.0052       0.626712       0.00000
  38     1.782       58.3749        0.0719       58.9297       59.0016       0.626712       0.00000
  37     2.292       58.3707        0.0933       58.9042       58.9974       0.626712       0.00000
  36     2.964       58.3652        0.1213       58.8706       58.9920       0.626712      -0.00000
  35     3.853       58.3580        0.1584       58.8264       58.9847       0.626712       0.00000
  34     5.035       58.3484        0.2076       58.7676       58.9751       0.626712      -0.00000
  33     6.613       58.3356        0.2733       58.6891       58.9623       0.626712       0.00000
  32     8.786       58.3184        0.3617       58.5834       58.9451       0.626712       0.00000
  31     11.80       58.2938        0.4880       58.4324       58.9205       0.626712      -0.00000
  30     15.07       58.2674        0.6234       58.2706       58.8941       0.626712       0.00000
  29     18.79       58.2376        0.7761       58.0882       58.8643       0.626712       0.00000
  28     23.16       58.2029        0.9539       57.8757       58.8296       0.626712      -0.00000
  27     28.12       58.1634        1.1567       57.6333       58.7901       0.626712       0.00000
  26     33.73       58.1192        1.3829       57.3631       58.7460       0.626712       0.00000
  25     40.54       58.0662        1.6550       57.0379       58.6929       0.626712       0.00000
  24     48.69       58.0025        1.9813       56.6479       58.6292       0.626712      -0.00000
  23     57.69       57.9329        2.3376       56.2221       58.5597       0.626712       0.00000
  22     68.43       57.8507        2.7588       55.7186       58.4774       0.626712      -0.00000
  21     81.20       57.7536        3.2563       55.1239       58.3803       0.626712       0.00000
  20     96.49       57.6390        3.8429       54.4228       58.2657       0.626712      -0.00000
  19     114.6       57.5046        4.5303       53.6010       58.1313       0.626712      -0.00000
  18     136.5       57.3477        5.3327       52.6418       57.9744       0.626712       0.00000
  17     162.9       57.1642        6.2706       51.5203       57.7909       0.626712      -0.00000
  16     196.4       56.9315        7.4588       50.0994       57.5582       0.626712       0.00000
  15     218.7       56.7819        8.2223       49.1863       57.4086       0.626712       0.00000
  14     243.0       56.6220        9.0375       48.2113       57.2487       0.626712       0.00000
  13     269.0       56.4520        9.9038       47.1749       57.0787       0.626712       0.00000
  12     297.5       56.2719       10.8204       46.0783       56.8987       0.626712      -0.00000
  11     328.5       56.0816       11.7887       44.9195       56.7083       0.626712       0.00000
  10     361.9       55.8813       12.8062       43.7018       56.5080       0.626712       0.00000
   9     398.1       55.6712       13.8728       42.4250       56.2979       0.626712       0.00000
   8     437.6       55.4514       14.9865       41.0916       56.0782       0.626712      -0.00000
   7     480.5       55.2226       16.1449       39.7045       55.8493       0.626712       0.00000
   6     533.0       54.9500       17.5225       38.0543       55.5767       0.626712       0.00000
   5     589.8       54.6669       18.9505       36.3431       55.2936       0.626712      -0.00000
   4     651.6       54.3745       20.4216       34.5795       55.0012       0.626712       0.00000
   3     718.7       54.0738       21.9303       32.7702       54.7005       0.626712      -0.00000
   2     792.3       53.7666       23.4677       30.9256       54.3933       0.626712       0.00000
   1     891.5       50.0962       41.2231        9.4998       50.7228       0.626607       0.00001
   0    1013.0       49.9359       41.9308        8.6317       50.5625       0.626607      -0.00000



 Wavenumbers: 29000. - 38000. cm-1, ATM      1
 LEVEL PRESSURE   UPWARD FLUX   DIFDOWN FLUX  DIRDOWN FLUX  DOWNWARD FLUX   NET FLUX    HEATING RATE
          mb          W/m2          W/m2          W/m2        W/m2          W/m2       degree/day
  51    .06700        8.7385        0.0000       20.8114       20.8114      12.072877       0.00000
  50    .07753        8.7383        0.0003       20.8070       20.8074      12.069069       3.05152
  49    .09103        8.7381        0.0007       20.8009       20.8016      12.063532       3.46082
  48    0.1069        8.7378        0.0012       20.7928       20.7939      12.056123       3.94425
  47    0.1255        8.7375        0.0017       20.7820       20.7837      12.046218       4.49030
  46    0.1487        8.7372        0.0024       20.7665       20.7688      12.031655       5.30839
  45    0.1794        8.7367        0.0033       20.7424       20.7457      12.008990       6.22198
  44    0.2165        8.7362        0.0044       20.7103       20.7147      11.978468       6.94333
  43    0.2613        8.7356        0.0056       20.6675       20.6731      11.937474       7.72724
  42    0.3336        8.7347        0.0077       20.5880       20.5956      11.860914       8.92615
  41    0.4307        8.7336        0.0104       20.4722       20.4826      11.748962       9.73391
  40    0.5894        8.7321        0.0147       20.2637       20.2784      11.546281      10.77833
  39     1.339        8.7287        0.0331       19.0984       19.1315      10.402823      12.87326
  38     1.782        8.7291        0.0427       18.4394       18.4820       9.752915      12.37321
  37     2.292        8.7318        0.0530       17.7714       17.8244       9.092593      10.93665
  36     2.964        8.7383        0.0656       17.0421       17.1078       8.369505       9.07694
  35     3.853        8.7510        0.0816       16.2678       16.3494       7.598382       7.31809
  34     5.035        8.7721        0.1017       15.4803       15.5820       6.809972       5.63208
  33     6.613        8.8027        0.1275       14.7157       14.8432       6.040504       4.11357
  32     8.786        8.8431        0.1612       13.9936       14.1548       5.311706       2.83039
  31     11.80        8.8958        0.2082       13.2835       13.4918       4.595940       2.00392
  30     15.07        8.9467        0.2570       12.7394       12.9964       4.049658       1.41039
  29     18.79        8.9992        0.3110       12.2666       12.5777       3.578410       1.06847
  28     23.16        9.0550        0.3725       11.8300       12.2025       3.147481       0.83328
  27     28.12        9.1122        0.4413       11.4279       11.8692       2.757005       0.66378
  26     33.73        9.1650        0.5172       11.0695       11.5867       2.421705       0.50413
  25     40.54        9.2150        0.6078       10.7209       11.3287       2.113745       0.38206
  24     48.69        9.2622        0.7154       10.3742       11.0896       1.827398       0.29632
  23     57.69        9.3008        0.8318       10.0549       10.8867       1.585827       0.22644
  22     68.43        9.3321        0.9683        9.7327       10.7010       1.368971       0.17048
  21     81.20        9.3469        1.1295        9.4134       10.5429       1.196057       0.11426
  20     96.49        9.3433        1.3190        9.0887       10.4078       1.064434       0.07265
  19     114.6        9.3295        1.5380        8.7388       10.2768       0.947279       0.05470
  18     136.5        9.3083        1.7883        8.3549       10.1432       0.834871       0.04322
  17     162.9        9.2799        2.0736        7.9311       10.0047       0.724816       0.03518
  16     196.4        9.2323        2.4270        7.4333        9.8603       0.627952       0.02438
  15     218.7        9.1981        2.6493        7.1295        9.7788       0.580712       0.01794
  14     243.0        9.1606        2.8816        6.8161        9.6977       0.537093       0.01513
  13     269.0        9.1196        3.1232        6.4943        9.6175       0.497928       0.01270
  12     297.5        9.0752        3.3729        6.1657        9.5386       0.463405       0.01024
  11     328.5        9.0288        3.6297        5.8295        9.4592       0.430353       0.00899
  10     361.9        8.9810        3.8913        5.4886        9.3799       0.398921       0.00795
   9     398.1        8.9317        4.1569        5.1440        9.3008       0.369136       0.00694
   8     437.6        8.8816        4.4251        4.7969        9.2220       0.340425       0.00614
   7     480.5        8.8310        4.6938        4.4504        9.1441       0.313174       0.00535
   6     533.0        8.7728        5.0000        4.0563        9.0563       0.283470       0.00478
   5     589.8        8.7154        5.3020        3.6682        8.9702       0.254712       0.00427
   4     651.6        8.6598        5.5958        3.2905        8.8864       0.226579       0.00385
   3     718.7        8.6063        5.8801        2.9252        8.8053       0.199027       0.00346
   2     792.3        8.5557        6.1513        2.5764        8.7278       0.172062       0.00309
   1     891.5        8.2078        7.6273        0.7202        8.3474       0.139626       0.00276
   0    1013.0        8.1945        7.7161        0.5827        8.2988       0.104346       0.00245



 Wavenumbers: 38000. - 50000. cm-1, ATM      1
 LEVEL PRESSURE   UPWARD FLUX   DIFDOWN FLUX  DIRDOWN FLUX  DOWNWARD FLUX   NET FLUX    HEATING RATE
          mb          W/m2          W/m2          W/m2        W/m2          W/m2       degree/day
  51    .06700        0.0061        0.0000        1.2836        1.2836       1.277518       0.00000
  50    .07753        0.0061        0.0001        1.2812        1.2812       1.275183       1.87150
  49    .09103        0.0060        0.0002        1.2777        1.2778       1.271851       2.08247
  48    0.1069        0.0059        0.0002        1.2731        1.2734       1.267473       2.33059
  47    0.1255        0.0058        0.0004        1.2672        1.2675       1.261717       2.60908
  46    0.1487        0.0057        0.0005        1.2586        1.2591       1.253391       3.03499
  45    0.1794        0.0055        0.0007        1.2455        1.2462       1.240623       3.50520
  44    0.2165        0.0054        0.0009        1.2282        1.2291       1.223697       3.85037
  43    0.2613        0.0052        0.0011        1.2054        1.2065       1.201348       4.21261
  42    0.3336        0.0049        0.0015        1.1639        1.1654       1.160524       4.75970
  41    0.4307        0.0045        0.0020        1.1051        1.1070       1.102565       5.03943
  40    0.5894        0.0039        0.0026        1.0039        1.0064       1.002524       5.32007
  39     1.339        0.0022        0.0035        0.5438        0.5473       0.545104       5.14971
  38     1.782        0.0016        0.0032        0.3635        0.3666       0.365006       3.42879
  37     2.292        0.0012        0.0027        0.2356        0.2383       0.237058       2.11916
  36     2.964        0.0009        0.0022        0.1455        0.1477       0.146786       1.13318
  35     3.853        0.0006        0.0017        0.0858        0.0875       0.086906       0.56828
  34     5.035        0.0004        0.0013        0.0488        0.0501       0.049701       0.26578
  33     6.613        0.0003        0.0010        0.0273        0.0282       0.027974       0.11615
  32     8.786        0.0002        0.0007        0.0144        0.0151       0.014928       0.05067
  31     11.80        0.0001        0.0004        0.0065        0.0070       0.006903       0.02247
  30     15.07        0.0000        0.0003        0.0031        0.0034       0.003329       0.00923
  29     18.79        0.0000        0.0002        0.0014        0.0016       0.001583       0.00396
  28     23.16        0.0000        0.0001        0.0006        0.0007       0.000720       0.00167
  27     28.12        0.0000        0.0001        0.0003        0.0003       0.000317       0.00069
  26     33.73        0.0000        0.0000        0.0001        0.0001       0.000140       0.00027
  25     40.54        0.0000        0.0000        0.0000        0.0001       0.000057       0.00010
  24     48.69        0.0000        0.0000        0.0000        0.0000       0.000021       0.00004
  23     57.69        0.0000        0.0000        0.0000        0.0000       0.000008       0.00001
  22     68.43        0.0000        0.0000        0.0000        0.0000       0.000003       0.00000
  21     81.20        0.0000        0.0000        0.0000        0.0000       0.000001       0.00000
  20     96.49        0.0000        0.0000        0.0000        0.0000       0.000000       0.00000
  19     114.6        0.0000        0.0000        0.0000        0.0000       0.000000       0.00000
  18     136.5        0.0000        0.0000        0.0000        0.0000       0.000000       0.00000
  17     162.9        0.0000        0.0000        0.0000        0.0000       0.000000       0.00000
  16     196.4        0.0000        0.0000        0.0000        0.0000       0.000000       0.00000
  15     218.7        0.0000        0.0000        0.0000        0.0000       0.000000       0.00000
  14     243.0        0.0000        0.0000        0.0000        0.0000       0.000000       0.00000
  13     269.0        0.0000        0.0000        0.0000        0.0000       0.000000       0.00000
  12     297.5        0.0000        0.0000        0.0000        0.0000       0.000000       0.00000
  11     328.5        0.0000        0.0000        0.0000        0.0000       0.000000       0.00000
  10     361.9        0.0000        0.0000        0.0000        0.0000       0.000000       0.00000
   9     398.1        0.0000        0.0000        0.0000        0.0000       0.000000       0.00000
   8     437.6        0.0000        0.0000        0.0000        0.0000       0.000000       0.00000
   7     480.5        0.0000        0.0000        0.0000        0.0000       0.000000       0.00000
   6     533.0        0.0000        0.0000        0.0000        0.0000       0.000000       0.00000
   5     589.8        0.0000        0.0000        0.0000        0.0000       0.000000       0.00000
   4     651.6        0.0000        0.0000        0.0000        0.0000       0.000000       0.00000
   3     718.7        0.0000        0.0000        0.0000        0.0000       0.000000       0.00000
   2     792.3        0.0000        0.0000        0.0000        0.0000       0.000000       0.00000
   1     891.5        0.0000        0.0000        0.0000        0.0000       0.000000       0.00000
   0    1013.0        0.0000        0.0000        0.0000        0.0000       0.000000       0.00000



 Wavenumbers:   820. -  2600. cm-1, ATM      1
 LEVEL PRESSURE   UPWARD FLUX   DIFDOWN FLUX  DIRDOWN FLUX  DOWNWARD FLUX   NET FLUX    HEATING RATE
          mb          W/m2          W/m2          W/m2        W/m2          W/m2       degree/day
  51    .06700        1.0666        0.0000        6.0047        6.0047       4.938081       0.00000
  50    .07753        1.0666        0.0000        6.0008        6.0008       4.934228       3.08822
  49    .09103        1.0666        0.0000        5.9999        5.9999       4.933343       0.55359
  48    0.1069        1.0666        0.0000        5.9989        5.9989       4.932354       0.52653
  47    0.1255        1.0666        0.0000        5.9978        5.9978       4.931236       0.50651
  46    0.1487        1.0666        0.0000        5.9964        5.9964       4.929879       0.49458
  45    0.1794        1.0666        0.0000        5.9947        5.9947       4.928160       0.47201
  44    0.2165        1.0666        0.0000        5.9929        5.9929       4.926318       0.41911
  43    0.2613        1.0666        0.0000        5.9909        5.9909       4.924358       0.36934
  42    0.3336        1.0666        0.0000        5.9880        5.9880       4.921480       0.33557
  41    0.4307        1.0666        0.0000        5.9846        5.9846       4.918011       0.30166
  40    0.5894        1.0666        0.0000        5.9791        5.9791       4.912505       0.29277
  39     1.339        1.0666        0.0000        5.9536        5.9536       4.887017       0.28696
  38     1.782        1.0666        0.0000        5.9395        5.9395       4.872877       0.26919
  37     2.292        1.0666        0.0000        5.9237        5.9237       4.857125       0.26090
  36     2.964        1.0666        0.0000        5.9039        5.9039       4.837350       0.24824
  35     3.853        1.0666        0.0000        5.8793        5.8793       4.812692       0.23401
  34     5.035        1.0666        0.0000        5.8487        5.8487       4.782127       0.21835
  33     6.613        1.0666        0.0000        5.8108        5.8108       4.744159       0.20298
  32     8.786        1.0666        0.0000        5.7631        5.7631       4.696531       0.18497
  31     11.80        1.0666        0.0000        5.7039        5.7039       4.637267       0.16592
  30     15.07        1.0666        0.0000        5.6539        5.6539       4.587220       0.12921
  29     18.79        1.0667        0.0000        5.6127        5.6127       4.546075       0.09329
  28     23.16        1.0667        0.0000        5.5794        5.5794       4.512686       0.06456
  27     28.12        1.0667        0.0000        5.5518        5.5518       4.485105       0.04689
  26     33.73        1.0667        0.0000        5.5268        5.5268       4.460033       0.03770
  25     40.54        1.0668        0.0000        5.4993        5.4993       4.432566       0.03408
  24     48.69        1.0668        0.0000        5.4678        5.4678       4.400994       0.03267
  23     57.69        1.0668        0.0000        5.4340        5.4340       4.367171       0.03170
  22     68.43        1.0669        0.0000        5.3947        5.3948       4.327853       0.03091
  21     81.20        1.0670        0.0000        5.3497        5.3497       4.282765       0.02979
  20     96.49        1.0670        0.0000        5.2982        5.2982       4.231182       0.02847
  19     114.6        1.0671        0.0000        5.2389        5.2389       4.171775       0.02774
  18     136.5        1.0673        0.0000        5.1716        5.1717       4.104410       0.02590
  17     162.9        1.0674        0.0000        5.0890        5.0891       4.021623       0.02646
  16     196.4        1.0677        0.0000        4.9668        4.9668       3.899114       0.03084
  15     218.7        1.0680        0.0000        4.8585        4.8585       3.790466       0.04125
  14     243.0        1.0685        0.0000        4.7078        4.7079       3.639387       0.05240
  13     269.0        1.0692        0.0000        4.5343        4.5343       3.465112       0.05653
  12     297.5        1.0703        0.0000        4.3419        4.3420       3.271673       0.05737
  11     328.5        1.0718        0.0000        4.1281        4.1281       3.056338       0.05855
  10     361.9        1.0738        0.0000        3.8786        3.8787       2.804849       0.06363
   9     398.1        1.0765        0.0000        3.6159        3.6160       2.539487       0.06182
   8     437.6        1.0799        0.0000        3.3759        3.3759       2.295996       0.05206
   7     480.5        1.0841        0.0000        3.1957        3.1958       2.111670       0.03620
   6     533.0        1.0906        0.0000        3.0467        3.0467       1.956131       0.02502
   5     589.8        1.1002        0.0000        2.9023        2.9023       1.802158       0.02285
   4     651.6        1.1170        0.0000        2.7183        2.7184       1.601328       0.02746
   3     718.7        1.1462        0.0001        2.5058        2.5059       1.359664       0.03037
   2     792.3        1.2011        0.0001        2.2756        2.2757       1.074589       0.03269
   1     891.5        0.7390        0.8075        0.6523        1.4597       0.720697       0.03011
   0    1013.0        0.8912        0.6573        0.5142        1.1715       0.280366       0.03057

  Modules and versions used in this calculation:

       rrtmg_sw.1col.f90:  $Revision$                    rrtmg_sw_init.f90:  $Revision$        
     rrtmgsw_cldprop.f90:  $Revision$                  rrtmgsw_cldprmc.f90:  NOT USED          
     rrtmg_sw_reftra.f90:  $Revision$                  rrtmg_sw_spcvrt.f90:  NOT USED          
     rrtmg_sw_spcvmc.f90:  NOT USED                    rrtmgsw_setcoef.f90:  NOT USED          
     rrtmg_sw_taumol.f90:  $Revision$                  rrtmg_sw_vrtqdr.f90:  NOT USED          
                rrtatm.f:  NOT USED                             util_xxx.f:  NOT USED          
                 extra.f:  NOT USED                       rrtmg_sw_k_g.f90:  $Revision$        

