

 Wavenumbers:   820. - 50000. cm-1, ATM      1
 LEVEL PRESSURE   UPWARD FLUX   DIFDOWN FLUX  DIRDOWN FLUX  DOWNWARD FLUX   NET FLUX    HEATING RATE
          mb          W/m2          W/m2          W/m2        W/m2          W/m2       degree/day
  51    .06700      477.3646        0.0000      617.8126      617.8126     140.447981       0.00000
  50    .07753      477.3642        0.0014      617.7947      617.7961     140.431835      12.94139
  49    .09103      477.3638        0.0031      617.7778      617.7808     140.417017       9.26172
  48    0.1069      477.3634        0.0050      617.7581      617.7631     140.399745       9.19403
  47    0.1255      477.3629        0.0073      617.7340      617.7412     140.378386       9.68284
  46    0.1487      477.3623        0.0101      617.7009      617.7110     140.348681      10.82776
  45    0.1794      477.3616        0.0140      617.6521      617.6661     140.304421      12.15044
  44    0.2165      477.3610        0.0185      617.5895      617.6080     140.247062      13.04832
  43    0.2613      477.3603        0.0239      617.5089      617.5328     140.172498      14.05490
  42    0.3336      477.3596        0.0328      617.3641      617.3969     140.037319      15.76056
  41    0.4307      477.3591        0.0445      617.1591      617.2037     139.844556      16.76027
  40    0.5894      477.3593        0.0634      616.8005      616.8639     139.504605      18.07817
  39     1.339      477.3789        0.1488      614.9443      615.0931     137.714164      20.15712
  38     1.782      477.4035        0.1969      613.9670      614.1639     136.760392      18.15828
  37     2.292      477.4438        0.2516      613.0059      613.2575     135.813621      15.68099
  36     2.964      477.5147        0.3227      611.9577      612.2803     134.765684      13.15478
  35     3.853      477.6331        0.4159      610.8024      611.2183     133.585214      11.20287
  34     5.035      477.8150        0.5390      609.5327      610.0717     132.256706       9.49031
  33     6.613      478.0710        0.7023      608.1464      608.8488     130.777770       7.90640
  32     8.786      478.4046        0.9215      606.6250      607.5465     129.141935       6.35299
  31     11.80      478.8370        1.2335      604.8486      606.0822     127.245152       5.31040
  30     15.07      479.2492        1.5665      603.2440      604.8105     125.561297       4.34738
  29     18.79      479.6682        1.9412      601.6511      603.5923     123.924175       3.71186
  28     23.16      480.1039        2.3766      599.9927      602.3693     122.265420       3.20750
  27     28.12      480.5393        2.8722      598.2881      601.1602     120.620969       2.79546
  26     33.73      480.9346        3.4247      596.5951      600.0198     119.085193       2.30908
  25     40.54      481.3052        4.0900      594.7727      598.8627     117.557484       1.89530
  24     48.69      481.6483        4.8884      592.7865      597.6748     116.026516       1.58431
  23     57.69      481.9247        5.7611      590.7959      596.5570     114.632313       1.30686
  22     68.43      482.1448        6.7951      588.6191      595.4142     113.269437       1.07140
  21     81.20      482.2555        8.0212      586.2690      594.2902     112.034687       0.81590
  20     96.49      482.2469        9.4730      583.6961      593.1691     110.922140       0.61405
  19     114.6      482.1785       11.1810      580.7708      591.9519     109.773319       0.53642
  18     136.5      482.0522       13.1813      577.4359      590.6172     108.565075       0.46460
  17     162.9      481.8635       15.5292      573.5624      589.0916     107.228132       0.42734
  16     196.4      481.5304       18.5239      568.5907      587.1146     105.584166       0.41381
  15     218.7      481.2840       20.4605      565.0572      585.5177     104.233667       0.51273
  14     243.0      481.0103       22.5379      560.7495      583.2875     102.277167       0.67858
  13     269.0      480.7125       24.7577      555.3947      580.1524      99.439951       0.92038
  12     297.5      480.3993       27.1206      548.9964      576.1170      95.717677       1.10399
  11     328.5      480.0830       29.6332      542.0895      571.7227      91.639657       1.10880
  10     361.9      479.7754       32.2917      534.6242      566.9159      87.140491       1.13833
   9     398.1      479.4934       35.1008      526.4204      561.5213      82.027815       1.19114
   8     437.6      479.2693       38.0594      517.3907      555.4500      76.180732       1.25014
   7     480.5      479.1386       41.1654      507.7216      548.8870      69.748355       1.26329
   6     533.0      479.1842       44.9006      495.9006      540.8012      61.617051       1.30807
   5     589.8      479.6139       48.8211      483.0788      531.8999      52.285982       1.38504
   4     651.6      480.8796       52.9137      468.6907      521.6043      40.724666       1.58104
   3     718.7      483.6538       57.1703      453.2257      510.3961      26.742268       1.75720
   2     792.3      489.7988       61.5686      436.4928      498.0614       8.262628       2.11941
   1     891.5      112.7586      115.7764        0.0000      115.7764       3.017794       0.44631
   0    1013.0      112.9317      115.5312        0.0000      115.5312       2.599496       0.02904



 Wavenumbers:  2600. -  3250. cm-1, ATM      1
 LEVEL PRESSURE   UPWARD FLUX   DIFDOWN FLUX  DIRDOWN FLUX  DOWNWARD FLUX   NET FLUX    HEATING RATE
          mb          W/m2          W/m2          W/m2        W/m2          W/m2       degree/day
  51    .06700        2.3863        0.0000        5.4450        5.4450       3.058684       0.00000
  50    .07753        2.3863        0.0000        5.4450        5.4450       3.058676       0.00640
  49    .09103        2.3863        0.0000        5.4450        5.4450       3.058666       0.00627
  48    0.1069        2.3863        0.0000        5.4450        5.4450       3.058655       0.00613
  47    0.1255        2.3863        0.0000        5.4450        5.4450       3.058641       0.00599
  46    0.1487        2.3863        0.0000        5.4450        5.4450       3.058625       0.00608
  45    0.1794        2.3863        0.0000        5.4450        5.4450       3.058602       0.00625
  44    0.2165        2.3863        0.0000        5.4449        5.4449       3.058575       0.00612
  43    0.2613        2.3863        0.0000        5.4449        5.4449       3.058543       0.00600
  42    0.3336        2.3863        0.0000        5.4448        5.4448       3.058490       0.00617
  41    0.4307        2.3863        0.0000        5.4448        5.4448       3.058419       0.00620
  40    0.5894        2.3863        0.0000        5.4446        5.4446       3.058299       0.00637
  39     1.339        2.3863        0.0000        5.4439        5.4439       3.057592       0.00797
  38     1.782        2.3863        0.0000        5.4434        5.4434       3.057049       0.01034
  37     2.292        2.3863        0.0000        5.4427        5.4427       3.056333       0.01186
  36     2.964        2.3863        0.0000        5.4416        5.4416       3.055294       0.01304
  35     3.853        2.3863        0.0000        5.4402        5.4402       3.053816       0.01402
  34     5.035        2.3863        0.0000        5.4381        5.4381       3.051760       0.01469
  33     6.613        2.3864        0.0000        5.4353        5.4353       3.048979       0.01487
  32     8.786        2.3864        0.0000        5.4317        5.4317       3.045345       0.01411
  31     11.80        2.3864        0.0000        5.4269        5.4269       3.040562       0.01339
  30     15.07        2.3864        0.0000        5.4224        5.4224       3.036032       0.01170
  29     18.79        2.3864        0.0000        5.4180        5.4180       3.031614       0.01002
  28     23.16        2.3864        0.0000        5.4135        5.4135       3.027120       0.00869
  27     28.12        2.3864        0.0000        5.4088        5.4088       3.022460       0.00792
  26     33.73        2.3864        0.0000        5.4036        5.4036       3.017202       0.00791
  25     40.54        2.3864        0.0000        5.3966        5.3967       3.010234       0.00864
  24     48.69        2.3865        0.0000        5.3872        5.3872       3.000716       0.00985
  23     57.69        2.3865        0.0000        5.3754        5.3754       2.988876       0.01110
  22     68.43        2.3866        0.0000        5.3599        5.3599       2.973308       0.01224
  21     81.20        2.3867        0.0000        5.3401        5.3401       2.953359       0.01318
  20     96.49        2.3869        0.0000        5.3155        5.3155       2.928630       0.01365
  19     114.6        2.3871        0.0001        5.2853        5.2854       2.898210       0.01420
  18     136.5        2.3875        0.0001        5.2504        5.2505       2.862988       0.01354
  17     162.9        2.3880        0.0001        5.2111        5.2112       2.823194       0.01272
  16     196.4        2.3888        0.0001        5.1640        5.1641       2.775354       0.01204
  15     218.7        2.3896        0.0001        5.1331        5.1332       2.743650       0.01204
  14     243.0        2.3909        0.0001        5.0962        5.0963       2.705462       0.01324
  13     269.0        2.3929        0.0001        5.0511        5.0512       2.658333       0.01529
  12     297.5        2.3959        0.0001        4.9956        4.9957       2.599793       0.01736
  11     328.5        2.4002        0.0001        4.9304        4.9305       2.530274       0.01890
  10     361.9        2.4062        0.0002        4.8511        4.8513       2.445077       0.02156
   9     398.1        2.4144        0.0002        4.7507        4.7509       2.336431       0.02531
   8     437.6        2.4260        0.0002        4.6220        4.6222       2.196266       0.02997
   7     480.5        2.4421        0.0002        4.4625        4.4627       2.020608       0.03450
   6     533.0        2.4686        0.0002        4.2460        4.2463       1.777696       0.03908
   5     589.8        2.5094        0.0002        3.9954        3.9956       1.486201       0.04327
   4     651.6        2.5780        0.0002        3.7089        3.7091       1.131124       0.04856
   3     718.7        2.6938        0.0002        3.4018        3.4021       0.708258       0.05314
   2     792.3        2.9116        0.0002        3.0564        3.0567       0.145062       0.06459
   1     891.5        0.0001        0.0094        0.0000        0.0094       0.009336       0.01155
   0    1013.0        0.0001        0.0088        0.0000        0.0088       0.008676       0.00005



 Wavenumbers:  3250. -  4000. cm-1, ATM      1
 LEVEL PRESSURE   UPWARD FLUX   DIFDOWN FLUX  DIRDOWN FLUX  DOWNWARD FLUX   NET FLUX    HEATING RATE
          mb          W/m2          W/m2          W/m2        W/m2          W/m2       degree/day
  51    .06700        0.1110        0.0000        9.1795        9.1795       9.068577       0.00000
  50    .07753        0.1110        0.0000        9.1747        9.1747       9.063735       3.88148
  49    .09103        0.1110        0.0000        9.1713        9.1713       9.060347       2.11747
  48    0.1069        0.1110        0.0000        9.1688        9.1688       9.057822       1.34402
  47    0.1255        0.1110        0.0000        9.1665        9.1665       9.055563       1.02422
  46    0.1487        0.1110        0.0000        9.1641        9.1641       9.053121       0.88991
  45    0.1794        0.1110        0.0000        9.1612        9.1612       9.050243       0.79008
  44    0.2165        0.1110        0.0000        9.1583        9.1583       9.047323       0.66430
  43    0.2613        0.1110        0.0000        9.1553        9.1553       9.044350       0.56041
  42    0.3336        0.1110        0.0000        9.1511        9.1511       9.040171       0.48723
  41    0.4307        0.1110        0.0000        9.1464        9.1464       9.035403       0.41459
  40    0.5894        0.1110        0.0000        9.1393        9.1394       9.028397       0.37255
  39     1.339        0.1110        0.0000        9.1127        9.1127       9.001784       0.29962
  38     1.782        0.1110        0.0000        9.1011        9.1011       8.990195       0.22062
  37     2.292        0.1110        0.0000        9.0901        9.0901       8.979129       0.18329
  36     2.964        0.1109        0.0000        9.0776        9.0776       8.966699       0.15603
  35     3.853        0.1109        0.0000        9.0629        9.0629       8.951909       0.14036
  34     5.035        0.1109        0.0000        9.0441        9.0441       8.933170       0.13386
  33     6.613        0.1109        0.0000        9.0191        9.0191       8.908168       0.13366
  32     8.786        0.1109        0.0000        8.9843        8.9843       8.873385       0.13509
  31     11.80        0.1109        0.0000        8.9327        8.9327       8.821768       0.14451
  30     15.07        0.1109        0.0000        8.8758        8.8759       8.764923       0.14676
  29     18.79        0.1109        0.0000        8.8110        8.8110       8.700096       0.14698
  28     23.16        0.1109        0.0000        8.7365        8.7366       8.625651       0.14395
  27     28.12        0.1109        0.0000        8.6554        8.6555       8.544538       0.13789
  26     33.73        0.1109        0.0000        8.5719        8.5719       8.461038       0.12554
  25     40.54        0.1109        0.0001        8.4812        8.4812       8.370315       0.11255
  24     48.69        0.1109        0.0001        8.3838        8.3839       8.273013       0.10069
  23     57.69        0.1109        0.0001        8.2861        8.2862       8.175277       0.09161
  22     68.43        0.1109        0.0001        8.1751        8.1751       8.064281       0.08726
  21     81.20        0.1109        0.0001        8.0457        8.0458       7.934922       0.08548
  20     96.49        0.1108        0.0001        7.8949        7.8951       7.784218       0.08318
  19     114.6        0.1108        0.0001        7.7162        7.7163       7.605508       0.08345
  18     136.5        0.1108        0.0002        7.5193        7.5195       7.408663       0.07569
  17     162.9        0.1108        0.0002        7.2913        7.2915       7.180768       0.07284
  16     196.4        0.1107        0.0002        6.9660        6.9662       6.855487       0.08188
  15     218.7        0.1107        0.0002        6.6648        6.6650       6.554280       0.11436
  14     243.0        0.1108        0.0003        6.2619        6.2622       6.151438       0.13972
  13     269.0        0.1108        0.0003        5.7576        5.7579       5.647026       0.16363
  12     297.5        0.1111        0.0003        5.1719        5.1722       5.061092       0.17378
  11     328.5        0.1115        0.0003        4.5757        4.5760       4.464510       0.16221
  10     361.9        0.1122        0.0002        3.9995        3.9998       3.887635       0.14596
   9     398.1        0.1133        0.0002        3.4655        3.4657       3.352431       0.12469
   8     437.6        0.1152        0.0002        2.9740        2.9743       2.859076       0.10548
   7     480.5        0.1183        0.0002        2.5307        2.5309       2.412616       0.08768
   6     533.0        0.1242        0.0002        2.0614        2.0616       1.937363       0.07645
   5     589.8        0.1351        0.0002        1.6150        1.6151       1.480047       0.06788
   4     651.6        0.1578        0.0001        1.1565        1.1566       0.998743       0.06582
   3     718.7        0.2081        0.0001        0.7390        0.7391       0.530975       0.05879
   2     792.3        0.3438        0.0001        0.3985        0.3985       0.054734       0.05462
   1     891.5        0.0000        0.0000        0.0000        0.0000       0.000000       0.00466
   0    1013.0        0.0000        0.0000        0.0000        0.0000       0.000000       0.00000



 Wavenumbers:  4000. -  4650. cm-1, ATM      1
 LEVEL PRESSURE   UPWARD FLUX   DIFDOWN FLUX  DIRDOWN FLUX  DOWNWARD FLUX   NET FLUX    HEATING RATE
          mb          W/m2          W/m2          W/m2        W/m2          W/m2       degree/day
  51    .06700        7.4952        0.0000       10.7795       10.7795       3.284295       0.00000
  50    .07753        7.4952        0.0000       10.7795       10.7795       3.284294       0.00080
  49    .09103        7.4952        0.0000       10.7795       10.7795       3.284293       0.00078
  48    0.1069        7.4952        0.0000       10.7795       10.7795       3.284291       0.00077
  47    0.1255        7.4952        0.0000       10.7795       10.7795       3.284290       0.00075
  46    0.1487        7.4952        0.0000       10.7795       10.7795       3.284288       0.00076
  45    0.1794        7.4952        0.0000       10.7795       10.7795       3.284285       0.00078
  44    0.2165        7.4952        0.0000       10.7795       10.7795       3.284281       0.00076
  43    0.2613        7.4952        0.0000       10.7795       10.7795       3.284277       0.00075
  42    0.3336        7.4952        0.0000       10.7795       10.7795       3.284271       0.00077
  41    0.4307        7.4952        0.0000       10.7795       10.7795       3.284262       0.00078
  40    0.5894        7.4952        0.0000       10.7795       10.7795       3.284247       0.00080
  39     1.339        7.4952        0.0000       10.7794       10.7794       3.284157       0.00101
  38     1.782        7.4952        0.0000       10.7793       10.7793       3.284087       0.00134
  37     2.292        7.4952        0.0000       10.7792       10.7792       3.283993       0.00156
  36     2.964        7.4952        0.0000       10.7791       10.7791       3.283852       0.00177
  35     3.853        7.4952        0.0000       10.7789       10.7789       3.283643       0.00198
  34     5.035        7.4952        0.0000       10.7786       10.7786       3.283335       0.00220
  33     6.613        7.4952        0.0000       10.7781       10.7781       3.282881       0.00243
  32     8.786        7.4952        0.0000       10.7774       10.7775       3.282210       0.00260
  31     11.80        7.4952        0.0001       10.7763       10.7764       3.281156       0.00295
  30     15.07        7.4953        0.0001       10.7751       10.7752       3.279918       0.00320
  29     18.79        7.4953        0.0001       10.7736       10.7737       3.278419       0.00340
  28     23.16        7.4953        0.0001       10.7717       10.7718       3.276556       0.00360
  27     28.12        7.4953        0.0001       10.7695       10.7696       3.274297       0.00384
  26     33.73        7.4953        0.0002       10.7667       10.7669       3.271507       0.00419
  25     40.54        7.4954        0.0002       10.7629       10.7631       3.267717       0.00470
  24     48.69        7.4955        0.0003       10.7579       10.7582       3.262656       0.00524
  23     57.69        7.4957        0.0003       10.7520       10.7523       3.256642       0.00564
  22     68.43        7.4959        0.0004       10.7446       10.7450       3.249084       0.00594
  21     81.20        7.4962        0.0004       10.7355       10.7359       3.239749       0.00617
  20     96.49        7.4966        0.0005       10.7245       10.7250       3.228348       0.00629
  19     114.6        7.4973        0.0006       10.7107       10.7113       3.214034       0.00668
  18     136.5        7.4982        0.0007       10.6942       10.6949       3.196711       0.00666
  17     162.9        7.4995        0.0008       10.6740       10.6749       3.175354       0.00683
  16     196.4        7.5017        0.0010       10.6464       10.6474       3.145677       0.00747
  15     218.7        7.5036        0.0011       10.6255       10.6266       3.122963       0.00862
  14     243.0        7.5064        0.0012       10.5980       10.5993       3.092906       0.01042
  13     269.0        7.5105        0.0014       10.5611       10.5625       3.052009       0.01327
  12     297.5        7.5164        0.0015       10.5119       10.5135       2.997089       0.01629
  11     328.5        7.5245        0.0017       10.4499       10.4515       2.927075       0.01904
  10     361.9        7.5351        0.0018       10.3702       10.3720       2.836912       0.02281
   9     398.1        7.5485        0.0020       10.2678       10.2698       2.721258       0.02694
   8     437.6        7.5658        0.0022       10.1390       10.1412       2.575352       0.03120
   7     480.5        7.5882        0.0024        9.9877        9.9901       2.401831       0.03408
   6     533.0        7.6232        0.0026        9.7937        9.7963       2.173041       0.03681
   5     589.8        7.6748        0.0028        9.5752        9.5780       1.903222       0.04005
   4     651.6        7.7599        0.0031        9.2958        9.2988       1.538911       0.04982
   3     718.7        7.9080        0.0033        8.9267        8.9300       1.021985       0.06496
   2     792.3        8.2010        0.0035        8.4542        8.4577       0.256744       0.08776
   1     891.5        0.0090        0.0629        0.0000        0.0629       0.053942       0.01726
   0    1013.0        0.0092        0.0614        0.0000        0.0614       0.052250       0.00012



 Wavenumbers:  4650. -  5150. cm-1, ATM      1
 LEVEL PRESSURE   UPWARD FLUX   DIFDOWN FLUX  DIRDOWN FLUX  DOWNWARD FLUX   NET FLUX    HEATING RATE
          mb          W/m2          W/m2          W/m2        W/m2          W/m2       degree/day
  51    .06700        5.4363        0.0000       10.2033       10.2033       4.767036       0.00000
  50    .07753        5.4363        0.0000       10.2031       10.2031       4.766800       0.18901
  49    .09103        5.4363        0.0000       10.2028       10.2028       4.766505       0.18428
  48    0.1069        5.4363        0.0000       10.2025       10.2025       4.766168       0.17931
  47    0.1255        5.4363        0.0000       10.2021       10.2021       4.765784       0.17426
  46    0.1487        5.4363        0.0000       10.2016       10.2016       4.765303       0.17536
  45    0.1794        5.4363        0.0000       10.2010       10.2010       4.764653       0.17851
  44    0.2165        5.4363        0.0000       10.2002       10.2002       4.763893       0.17277
  43    0.2613        5.4363        0.0000       10.1993       10.1993       4.763008       0.16690
  42    0.3336        5.4363        0.0000       10.1979       10.1979       4.761575       0.16702
  41    0.4307        5.4363        0.0000       10.1960       10.1960       4.759735       0.16003
  40    0.5894        5.4363        0.0000       10.1932       10.1932       4.756861       0.15283
  39     1.339        5.4363        0.0000       10.1816       10.1816       4.745268       0.13051
  38     1.782        5.4363        0.0000       10.1760       10.1760       4.739739       0.10527
  37     2.292        5.4363        0.0000       10.1706       10.1706       4.734281       0.09039
  36     2.964        5.4363        0.0000       10.1646       10.1647       4.728356       0.07438
  35     3.853        5.4363        0.0000       10.1584       10.1584       4.722139       0.05901
  34     5.035        5.4363        0.0000       10.1521       10.1521       4.715798       0.04530
  33     6.613        5.4363        0.0000       10.1456       10.1456       4.709331       0.03457
  32     8.786        5.4363        0.0001       10.1386       10.1386       4.702304       0.02729
  31     11.80        5.4364        0.0001       10.1295       10.1296       4.693234       0.02539
  30     15.07        5.4364        0.0001       10.1196       10.1197       4.683314       0.02561
  29     18.79        5.4365        0.0001       10.1076       10.1077       4.671249       0.02735
  28     23.16        5.4366        0.0002       10.0923       10.0924       4.655863       0.02975
  27     28.12        5.4367        0.0002       10.0731       10.0734       4.636657       0.03265
  26     33.73        5.4369        0.0003       10.0500       10.0503       4.613414       0.03495
  25     40.54        5.4371        0.0003       10.0201       10.0204       4.583300       0.03736
  24     48.69        5.4375        0.0004        9.9820        9.9823       4.544828       0.03981
  23     57.69        5.4380        0.0004        9.9384        9.9389       4.500905       0.04117
  22     68.43        5.4386        0.0005        9.8858        9.8863       4.447641       0.04187
  21     81.20        5.4395        0.0006        9.8234        9.8240       4.384516       0.04171
  20     96.49        5.4408        0.0007        9.7518        9.7525       4.311684       0.04020
  19     114.6        5.4425        0.0008        9.6719        9.6727       4.230237       0.03803
  18     136.5        5.4449        0.0010        9.5858        9.5868       4.141879       0.03398
  17     162.9        5.4482        0.0012        9.4940        9.4952       4.046985       0.03033
  16     196.4        5.4533        0.0014        9.3883        9.3897       3.936363       0.02785
  15     218.7        5.4573        0.0015        9.3229        9.3245       3.867164       0.02627
  14     243.0        5.4624        0.0017        9.2520        9.2537       3.791240       0.02633
  13     269.0        5.4693        0.0019        9.1717        9.1735       3.704227       0.02823
  12     297.5        5.4788        0.0020        9.0763        9.0783       3.599490       0.03106
  11     328.5        5.4912        0.0022        8.9650        8.9672       3.475964       0.03359
  10     361.9        5.5072        0.0024        8.8349        8.8374       3.330111       0.03690
   9     398.1        5.5280        0.0027        8.6820        8.6847       3.156623       0.04042
   8     437.6        5.5551        0.0029        8.5028        8.5057       2.950536       0.04406
   7     480.5        5.5905        0.0031        8.2948        8.2979       2.707440       0.04774
   6     533.0        5.6446        0.0034        8.0209        8.0243       2.379659       0.05273
   5     589.8        5.7203        0.0036        7.7063        7.7099       1.989695       0.05788
   4     651.6        5.8332        0.0039        7.3412        7.3451       1.511874       0.06534
   3     718.7        6.0067        0.0041        6.9387        6.9428       0.936061       0.07236
   2     792.3        6.2919        0.0043        6.5066        6.5109       0.218999       0.08224
   1     891.5        0.0018        0.0365        0.0000        0.0365       0.034637       0.01569
   0    1013.0        0.0019        0.0353        0.0000        0.0353       0.033453       0.00008



 Wavenumbers:  5150. -  6150. cm-1, ATM      1
 LEVEL PRESSURE   UPWARD FLUX   DIFDOWN FLUX  DIRDOWN FLUX  DOWNWARD FLUX   NET FLUX    HEATING RATE
          mb          W/m2          W/m2          W/m2        W/m2          W/m2       degree/day
  51    .06700       12.7925        0.0000       25.5798       25.5798      12.787315       0.00000
  50    .07753       12.7925        0.0000       25.5798       25.5798      12.787275       0.03164
  49    .09103       12.7925        0.0000       25.5797       25.5797      12.787224       0.03212
  48    0.1069       12.7925        0.0000       25.5797       25.5797      12.787163       0.03263
  47    0.1255       12.7925        0.0000       25.5796       25.5796      12.787090       0.03313
  46    0.1487       12.7925        0.0000       25.5795       25.5795      12.786994       0.03490
  45    0.1794       12.7925        0.0000       25.5794       25.5794      12.786859       0.03715
  44    0.2165       12.7925        0.0000       25.5792       25.5792      12.786693       0.03771
  43    0.2613       12.7925        0.0000       25.5790       25.5790      12.786490       0.03829
  42    0.3336       12.7925        0.0000       25.5786       25.5786      12.786143       0.04045
  41    0.4307       12.7925        0.0000       25.5782       25.5782      12.785671       0.04100
  40    0.5894       12.7925        0.0000       25.5774       25.5774      12.784881       0.04201
  39     1.339       12.7925        0.0000       25.5735       25.5736      12.781075       0.04285
  38     1.782       12.7925        0.0001       25.5713       25.5714      12.778858       0.04221
  37     2.292       12.7925        0.0001       25.5688       25.5689      12.776348       0.04157
  36     2.964       12.7925        0.0001       25.5656       25.5657      12.773157       0.04005
  35     3.853       12.7925        0.0001       25.5615       25.5616      12.769101       0.03850
  34     5.035       12.7925        0.0002       25.5562       25.5564      12.763875       0.03733
  33     6.613       12.7926        0.0002       25.5494       25.5496      12.757092       0.03626
  32     8.786       12.7926        0.0003       25.5406       25.5409      12.748297       0.03416
  31     11.80       12.7927        0.0004       25.5287       25.5291      12.736393       0.03333
  30     15.07       12.7927        0.0005       25.5167       25.5172      12.724444       0.03085
  29     18.79       12.7929        0.0006       25.5042       25.5048      12.711939       0.02835
  28     23.16       12.7930        0.0008       25.4907       25.4914      12.698453       0.02608
  27     28.12       12.7932        0.0009       25.4764       25.4774      12.684212       0.02421
  26     33.73       12.7934        0.0011       25.4620       25.4631      12.669748       0.02175
  25     40.54       12.7937        0.0013       25.4463       25.4476      12.653880       0.01969
  24     48.69       12.7942        0.0016       25.4294       25.4310      12.636819       0.01766
  23     57.69       12.7947        0.0019       25.4126       25.4145      12.619809       0.01594
  22     68.43       12.7954        0.0023       25.3944       25.3967      12.601265       0.01458
  21     81.20       12.7963        0.0027       25.3744       25.3771      12.580780       0.01354
  20     96.49       12.7974        0.0032       25.3519       25.3551      12.557686       0.01275
  19     114.6       12.7988        0.0038       25.3262       25.3300      12.531136       0.01240
  18     136.5       12.8005        0.0045       25.2962       25.3007      12.500171       0.01191
  17     162.9       12.8026        0.0053       25.2521       25.2574      12.454812       0.01450
  16     196.4       12.8055        0.0064       25.1593       25.1657      12.360198       0.02382
  15     218.7       12.8076        0.0071       25.0159       25.0231      12.215446       0.05496
  14     243.0       12.8102        0.0079       24.7089       24.7168      11.906587       0.10712
  13     269.0       12.8135        0.0086       24.1619       24.1704      11.356958       0.17830
  12     297.5       12.8179        0.0093       23.4544       23.4637      10.645740       0.21094
  11     328.5       12.8238        0.0100       22.7355       22.7455       9.921716       0.19686
  10     361.9       12.8315        0.0108       21.9224       21.9332       9.101675       0.20748
   9     398.1       12.8420        0.0115       20.9939       21.0054       8.163433       0.21859
   8     437.6       12.8566        0.0122       19.9833       19.9955       7.138955       0.21904
   7     480.5       12.8769        0.0129       18.9483       18.9612       6.084281       0.20713
   6     533.0       12.9117        0.0137       17.7796       17.7933       4.881637       0.19347
   5     589.8       12.9684        0.0145       16.6726       16.6871       3.718720       0.17262
   4     651.6       13.0731        0.0153       15.6343       15.6497       2.576559       0.15619
   3     718.7       13.2676        0.0163       14.7738       14.7901       1.522433       0.13247
   2     792.3       13.6700        0.0173       14.0291       14.0464       0.376431       0.13143
   1     891.5        0.0221        0.1283        0.0000        0.1283       0.106119       0.02300
   0    1013.0        0.0225        0.1263        0.0000        0.1263       0.103842       0.00016



 Wavenumbers:  6150. -  7700. cm-1, ATM      1
 LEVEL PRESSURE   UPWARD FLUX   DIFDOWN FLUX  DIRDOWN FLUX  DOWNWARD FLUX   NET FLUX    HEATING RATE
          mb          W/m2          W/m2          W/m2        W/m2          W/m2       degree/day
  51    .06700       20.7779        0.0000       47.3109       47.3109      26.532972       0.00000
  50    .07753       20.7779        0.0000       47.3108       47.3108      26.532916       0.04553
  49    .09103       20.7779        0.0000       47.3107       47.3107      26.532842       0.04583
  48    0.1069       20.7779        0.0000       47.3106       47.3106      26.532756       0.04614
  47    0.1255       20.7779        0.0000       47.3105       47.3105      26.532653       0.04645
  46    0.1487       20.7779        0.0000       47.3104       47.3104      26.532520       0.04852
  45    0.1794       20.7779        0.0000       47.3102       47.3102      26.532333       0.05127
  44    0.2165       20.7779        0.0000       47.3100       47.3100      26.532106       0.05167
  43    0.2613       20.7779        0.0000       47.3097       47.3097      26.531830       0.05210
  42    0.3336       20.7779        0.0000       47.3092       47.3092      26.531360       0.05471
  41    0.4307       20.7779        0.0001       47.3085       47.3086      26.530726       0.05521
  40    0.5894       20.7778        0.0001       47.3074       47.3075      26.529666       0.05634
  39     1.339       20.7778        0.0002       47.3022       47.3024      26.524574       0.05733
  38     1.782       20.7778        0.0002       47.2991       47.2994      26.521604       0.05655
  37     2.292       20.7777        0.0003       47.2956       47.2960      26.518228       0.05591
  36     2.964       20.7777        0.0004       47.2912       47.2916      26.513910       0.05421
  35     3.853       20.7776        0.0005       47.2855       47.2860      26.508375       0.05253
  34     5.035       20.7775        0.0007       47.2780       47.2787      26.501194       0.05130
  33     6.613       20.7774        0.0009       47.2683       47.2692      26.491806       0.05019
  32     8.786       20.7773        0.0012       47.2556       47.2568      26.479506       0.04777
  31     11.80       20.7770        0.0016       47.2380       47.2396      26.462602       0.04733
  30     15.07       20.7768        0.0020       47.2201       47.2221      26.445313       0.04464
  29     18.79       20.7765        0.0026       47.2008       47.2034      26.426832       0.04190
  28     23.16       20.7762        0.0031       47.1795       47.1827      26.406439       0.03943
  27     28.12       20.7759        0.0038       47.1565       47.1603      26.384442       0.03739
  26     33.73       20.7755        0.0046       47.1324       47.1370      26.361517       0.03447
  25     40.54       20.7750        0.0055       47.1054       47.1109      26.335875       0.03181
  24     48.69       20.7744        0.0066       47.0754       47.0820      26.307615       0.02925
  23     57.69       20.7738        0.0078       47.0449       47.0528      26.278984       0.02684
  22     68.43       20.7730        0.0093       47.0110       47.0203      26.247235       0.02496
  21     81.20       20.7721        0.0110       46.9729       46.9839      26.211724       0.02346
  20     96.49       20.7711        0.0131       46.9294       46.9424      26.171361       0.02228
  19     114.6       20.7698        0.0155       46.8790       46.8945      26.124693       0.02179
  18     136.5       20.7684        0.0184       46.8200       46.8384      26.070022       0.02102
  17     162.9       20.7667        0.0219       46.7361       46.7580      25.991312       0.02516
  16     196.4       20.7647        0.0263       46.5703       46.5966      25.831892       0.04013
  15     218.7       20.7637        0.0292       46.3473       46.3765      25.612849       0.08316
  14     243.0       20.7631        0.0322       45.9299       45.9621      25.199036       0.14352
  13     269.0       20.7636        0.0353       45.1708       45.2061      24.442503       0.24542
  12     297.5       20.7663        0.0383       44.0115       44.0498      23.283491       0.34375
  11     328.5       20.7720        0.0414       42.7242       42.7656      21.993647       0.35071
  10     361.9       20.7822        0.0446       41.3539       41.3985      20.616344       0.34847
   9     398.1       20.7993        0.0477       39.7953       39.8430      19.043626       0.36641
   8     437.6       20.8278        0.0507       37.9948       38.0454      17.217585       0.39042
   7     480.5       20.8731        0.0535       36.0647       36.1182      15.245177       0.38737
   6     533.0       20.9578        0.0567       33.7773       33.8339      12.876182       0.38110
   5     589.8       21.1054        0.0596       31.4082       31.4678      10.362332       0.37314
   4     651.6       21.3921        0.0620       28.8834       28.9454       7.553273       0.38415
   3     718.7       21.9503        0.0642       26.4104       26.4746       4.524280       0.38066
   2     792.3       23.1878        0.0661       24.0056       24.0717       0.883876       0.41751
   1     891.5        0.0429        0.1889        0.0000        0.1889       0.145992       0.06279
   0    1013.0        0.0436        0.1852        0.0000        0.1852       0.141533       0.00031



 Wavenumbers:  7700. -  8050. cm-1, ATM      1
 LEVEL PRESSURE   UPWARD FLUX   DIFDOWN FLUX  DIRDOWN FLUX  DOWNWARD FLUX   NET FLUX    HEATING RATE
          mb          W/m2          W/m2          W/m2        W/m2          W/m2       degree/day
  51    .06700        9.2603        0.0000       11.1810       11.1810       1.920660       0.00000
  50    .07753        9.2603        0.0000       11.1809       11.1809       1.920635       0.01956
  49    .09103        9.2603        0.0000       11.1809       11.1809       1.920605       0.01917
  48    0.1069        9.2603        0.0000       11.1809       11.1809       1.920569       0.01876
  47    0.1255        9.2603        0.0000       11.1809       11.1809       1.920529       0.01836
  46    0.1487        9.2604        0.0000       11.1808       11.1808       1.920478       0.01863
  45    0.1794        9.2604        0.0000       11.1808       11.1808       1.920408       0.01917
  44    0.2165        9.2604        0.0000       11.1807       11.1807       1.920325       0.01881
  43    0.2613        9.2604        0.0000       11.1806       11.1806       1.920227       0.01845
  42    0.3336        9.2605        0.0000       11.1805       11.1805       1.920065       0.01888
  41    0.4307        9.2605        0.0000       11.1803       11.1804       1.919851       0.01868
  40    0.5894        9.2606        0.0000       11.1801       11.1801       1.919500       0.01866
  39     1.339        9.2611        0.0001       11.1788       11.1789       1.917840       0.01869
  38     1.782        9.2613        0.0001       11.1781       11.1782       1.916865       0.01857
  37     2.292        9.2616        0.0001       11.1772       11.1773       1.915736       0.01870
  36     2.964        9.2620        0.0002       11.1761       11.1763       1.914253       0.01861
  35     3.853        9.2625        0.0002       11.1746       11.1748       1.912295       0.01858
  34     5.035        9.2632        0.0003       11.1726       11.1729       1.909694       0.01858
  33     6.613        9.2642        0.0004       11.1700       11.1704       1.906218       0.01858
  32     8.786        9.2654        0.0006       11.1664       11.1669       1.901535       0.01819
  31     11.80        9.2672        0.0007       11.1613       11.1620       1.894838       0.01875
  30     15.07        9.2691        0.0010       11.1558       11.1568       1.887651       0.01856
  29     18.79        9.2713        0.0012       11.1497       11.1509       1.879536       0.01840
  28     23.16        9.2739        0.0015       11.1425       11.1440       1.870065       0.01831
  27     28.12        9.2769        0.0018       11.1343       11.1361       1.859245       0.01839
  26     33.73        9.2802        0.0021       11.1252       11.1273       1.847152       0.01818
  25     40.54        9.2842        0.0026       11.1142       11.1168       1.832562       0.01810
  24     48.69        9.2891        0.0031       11.1010       11.1041       1.815008       0.01817
  23     57.69        9.2945        0.0036       11.0866       11.0902       1.795770       0.01803
  22     68.43        9.3009        0.0043       11.0695       11.0738       1.772920       0.01796
  21     81.20        9.3087        0.0051       11.0494       11.0545       1.745785       0.01793
  20     96.49        9.3180        0.0061       11.0255       11.0316       1.713580       0.01778
  19     114.6        9.3292        0.0072       10.9975       11.0047       1.675516       0.01777
  18     136.5        9.3427        0.0085       10.9648       10.9733       1.630639       0.01726
  17     162.9        9.3589        0.0101       10.9263       10.9364       1.577512       0.01698
  16     196.4        9.3804        0.0122       10.8773       10.8895       1.509079       0.01723
  15     218.7        9.3947        0.0136       10.8455       10.8591       1.464362       0.01698
  14     243.0        9.4106        0.0150       10.8114       10.8265       1.415885       0.01681
  13     269.0        9.4281        0.0166       10.7749       10.7915       1.363407       0.01702
  12     297.5        9.4475        0.0184       10.7357       10.7541       1.306605       0.01685
  11     328.5        9.4689        0.0202       10.6937       10.7140       1.245048       0.01674
  10     361.9        9.4927        0.0222       10.6489       10.6711       1.178390       0.01687
   9     398.1        9.5192        0.0244       10.6008       10.6251       1.105950       0.01688
   8     437.6        9.5489        0.0267       10.5491       10.5758       1.026883       0.01691
   7     480.5        9.5822        0.0292       10.4934       10.5226       0.940378       0.01699
   6     533.0        9.6257        0.0322       10.4243       10.4565       0.830775       0.01763
   5     589.8        9.6765        0.0355       10.3479       10.3834       0.706926       0.01838
   4     651.6        9.7375        0.0391       10.2613       10.3004       0.562944       0.01969
   3     718.7        9.8123        0.0428       10.1618       10.2046       0.392288       0.02145
   2     792.3        9.9077        0.0468       10.0439       10.0907       0.182997       0.02400
   1     891.5        0.0995        0.1779        0.0000        0.1779       0.078428       0.00890
   0    1013.0        0.1013        0.1745        0.0000        0.1745       0.073179       0.00036



 Wavenumbers:  8050. - 12850. cm-1, ATM      1
 LEVEL PRESSURE   UPWARD FLUX   DIFDOWN FLUX  DIRDOWN FLUX  DOWNWARD FLUX   NET FLUX    HEATING RATE
          mb          W/m2          W/m2          W/m2        W/m2          W/m2       degree/day
  51    .06700      122.3676        0.0000      156.5418      156.5418      34.174112       0.00000
  50    .07753      122.3676        0.0000      156.5417      156.5417      34.174112      -0.00000
  49    .09103      122.3676        0.0001      156.5417      156.5417      34.174112       0.00000
  48    0.1069      122.3676        0.0001      156.5416      156.5417      34.174112      -0.00000
  47    0.1255      122.3676        0.0002      156.5415      156.5417      34.174112       0.00000
  46    0.1487      122.3676        0.0003      156.5414      156.5417      34.174112       0.00000
  45    0.1794      122.3675        0.0003      156.5413      156.5417      34.174112       0.00000
  44    0.2165      122.3675        0.0005      156.5412      156.5416      34.174112      -0.00000
  43    0.2613      122.3675        0.0006      156.5410      156.5416      34.174112      -0.00000
  42    0.3336      122.3674        0.0008      156.5407      156.5415      34.174112       0.00000
  41    0.4307      122.3673        0.0011      156.5403      156.5414      34.174112      -0.00000
  40    0.5894      122.3672        0.0016      156.5397      156.5413      34.174112       0.00000
  39     1.339      122.3665        0.0039      156.5367      156.5406      34.174112      -0.00000
  38     1.782      122.3662        0.0053      156.5350      156.5403      34.174112       0.00000
  37     2.292      122.3657        0.0068      156.5330      156.5398      34.174112       0.00000
  36     2.964      122.3651        0.0089      156.5303      156.5392      34.174112       0.00000
  35     3.853      122.3644        0.0116      156.5268      156.5385      34.174112      -0.00000
  34     5.035      122.3633        0.0153      156.5222      156.5375      34.174112       0.00000
  33     6.613      122.3620        0.0201      156.5160      156.5361      34.174112      -0.00000
  32     8.786      122.3602        0.0266      156.5076      156.5343      34.174112       0.00000
  31     11.80      122.3575        0.0360      156.4957      156.5316      34.174112       0.00000
  30     15.07      122.3547        0.0460      156.4828      156.5288      34.174112       0.00000
  29     18.79      122.3515        0.0574      156.4682      156.5256      34.174112      -0.00000
  28     23.16      122.3478        0.0707      156.4512      156.5219      34.174112      -0.00000
  27     28.12      122.3435        0.0859      156.4317      156.5176      34.174112       0.00000
  26     33.73      122.3387        0.1029      156.4099      156.5128      34.174112       0.00000
  25     40.54      122.3329        0.1236      156.3834      156.5070      34.174112       0.00000
  24     48.69      122.3259        0.1485      156.3515      156.5000      34.174112       0.00000
  23     57.69      122.3182        0.1759      156.3164      156.4923      34.174112      -0.00000
  22     68.43      122.3090        0.2085      156.2746      156.4831      34.174112       0.00000
  21     81.20      122.2980        0.2475      156.2246      156.4721      34.174112      -0.00000
  20     96.49      122.2849        0.2941      156.1649      156.4590      34.174112       0.00000
  19     114.6      122.2696        0.3495      156.0879      156.4374      34.167789       0.00295
  18     136.5      122.2515        0.4153      155.9962      156.4114      34.159952       0.00301
  17     162.9      122.2298        0.4938      155.8831      156.3768      34.146973       0.00415
  16     196.4      122.2020        0.5959      155.7199      156.3158      34.113815       0.00835
  15     218.7      122.1843        0.6630      155.5733      156.2363      34.052025       0.02346
  14     243.0      122.1667        0.7360      155.3367      156.0727      33.906026       0.05064
  13     269.0      122.1514        0.8150      154.9514      155.7664      33.615029       0.09440
  12     297.5      122.1423        0.9001      154.3896      155.2897      33.147436       0.13868
  11     328.5      122.1418        0.9918      153.7151      154.7069      32.565154       0.15832
  10     361.9      122.1552        1.0904      152.9087      153.9991      31.843965       0.18247
   9     398.1      122.1910        1.1958      151.8986      153.0944      30.903463       0.21912
   8     437.6      122.2640        1.3081      150.6031      151.9112      29.647163       0.26860
   7     480.5      122.3925        1.4269      149.0014      150.4283      28.035780       0.31647
   6     533.0      122.6459        1.5707      146.7375      148.3082      25.662350       0.38181
   5     589.8      123.0977        1.7216      143.8730      145.5946      22.496837       0.46987
   4     651.6      123.9710        1.8765      140.0955      141.9720      18.001004       0.61482
   3     718.7      125.6083        2.0338      135.5278      137.5615      11.953224       0.76004
   2     792.3      128.9107        2.1894      130.0690      132.2584       3.347704       0.98696
   1     891.5        4.6485        5.5628        0.0000        5.5628       0.914336       0.20707
   0    1013.0        4.6976        5.4994        0.0000        5.4994       0.801811       0.00781



 Wavenumbers: 12850. - 16000. cm-1, ATM      1
 LEVEL PRESSURE   UPWARD FLUX   DIFDOWN FLUX  DIRDOWN FLUX  DOWNWARD FLUX   NET FLUX    HEATING RATE
          mb          W/m2          W/m2          W/m2        W/m2          W/m2       degree/day
  51    .06700       85.3044        0.0000       98.0872       98.0872      12.782815       0.00000
  50    .07753       85.3044        0.0001       98.0864       98.0864      12.782020       0.63662
  49    .09103       85.3044        0.0002       98.0853       98.0855      12.781022       0.62383
  48    0.1069       85.3044        0.0003       98.0841       98.0843      12.779875       0.61084
  47    0.1255       85.3045        0.0004       98.0826       98.0830      12.778555       0.59820
  46    0.1487       85.3045        0.0005       98.0809       98.0814      12.776888       0.60757
  45    0.1794       85.3046        0.0008       98.0784       98.0792      12.774619       0.62307
  44    0.2165       85.3047        0.0010       98.0756       98.0766      12.771946       0.60802
  43    0.2613       85.3048        0.0013       98.0723       98.0736      12.768799       0.59326
  42    0.3336       85.3051        0.0018       98.0670       98.0688      12.763654       0.59987
  41    0.4307       85.3056        0.0024       98.0602       98.0626      12.756988       0.57959
  40    0.5894       85.3066        0.0035       98.0496       98.0530      12.746455       0.56013
  39     1.339       85.3145        0.0084       98.0043       98.0128      12.698255       0.54264
  38     1.782       85.3216        0.0113       97.9793       97.9906      12.669013       0.55673
  37     2.292       85.3321        0.0147       97.9498       97.9645      12.632382       0.60670
  36     2.964       85.3494        0.0191       97.9088       97.9279      12.578567       0.67554
  35     3.853       85.3771        0.0250       97.8503       97.8753      12.498185       0.76284
  34     5.035       85.4188        0.0327       97.7680       97.8007      12.381890       0.83076
  33     6.613       85.4770        0.0431       97.6562       97.6993      12.222263       0.85337
  32     8.786       85.5528        0.0570       97.5107       97.5677      12.014891       0.80536
  31     11.80       85.6516        0.0769       97.3179       97.3948      11.743160       0.76076
  30     15.07       85.7466        0.0983       97.1283       97.2266      11.480061       0.67927
  29     18.79       85.8438        0.1224       96.9300       97.0525      11.208687       0.61529
  28     23.16       85.9457        0.1506       96.7166       96.8672      10.921468       0.55539
  27     28.12       86.0487        0.1828       96.4935       96.6763      10.627562       0.49962
  26     33.73       86.1446        0.2188       96.2731       96.4919      10.347296       0.42139
  25     40.54       86.2380        0.2623       96.0408       96.3031      10.065093       0.35010
  24     48.69       86.3289        0.3148       95.7946       96.1094       9.780528       0.29448
  23     57.69       86.4076        0.3725       95.5573       95.9298       9.522153       0.24219
  22     68.43       86.4787        0.4413       95.3106       95.7519       9.273177       0.19573
  21     81.20       86.5322        0.5233       95.0643       95.5876       9.055464       0.14386
  20     96.49       86.5671        0.6211       94.8153       95.4364       8.869334       0.10273
  19     114.6       86.6050        0.7384       94.5411       95.2794       8.674461       0.09099
  18     136.5       86.6381        0.8773       94.2320       95.1094       8.471315       0.07811
  17     162.9       86.6668        1.0428       93.8753       94.9181       8.251307       0.07032
  16     196.4       86.6813        1.2575       93.4347       94.6922       8.010828       0.06053
  15     218.7       86.6830        1.3985       93.1513       94.5498       7.866811       0.05468
  14     243.0       86.6818        1.5517       92.8439       94.3957       7.713905       0.05303
  13     269.0       86.6781        1.7178       92.5111       94.2289       7.550877       0.05289
  12     297.5       86.6729        1.8973       92.1495       94.0468       7.373832       0.05251
  11     328.5       86.6690        2.0912       91.7554       93.8466       7.177601       0.05335
  10     361.9       86.6679        2.3000       91.3262       93.6262       6.958281       0.05549
   9     398.1       86.6722        2.5246       90.8575       93.3822       6.709980       0.05785
   8     437.6       86.6864        2.7657       90.3418       93.1075       6.421057       0.06177
   7     480.5       86.7155        3.0239       89.7728       92.7967       6.081142       0.06676
   6     533.0       86.7774        3.3412       89.0428       92.3841       5.606709       0.07632
   5     589.8       86.8912        3.6821       88.2038       91.8859       4.994745       0.09084
   4     651.6       87.1083        4.0459       87.1979       91.2439       4.135599       0.11749
   3     718.7       87.4710        4.4314       86.0161       90.4476       2.976546       0.14566
   2     792.3       88.1019        4.8346       84.5970       89.4317       1.329711       0.18887
   1     891.5       13.8046       14.4255        0.0000       14.4255       0.620904       0.06032
   0    1013.0       13.8668       14.3549        0.0000       14.3549       0.488066       0.00922



 Wavenumbers: 16000. - 22650. cm-1, ATM      1
 LEVEL PRESSURE   UPWARD FLUX   DIFDOWN FLUX  DIRDOWN FLUX  DOWNWARD FLUX   NET FLUX    HEATING RATE
          mb          W/m2          W/m2          W/m2        W/m2          W/m2       degree/day
  51    .06700      141.9862        0.0000      156.3892      156.3892      14.403039       0.00000
  50    .07753      141.9862        0.0004      156.3887      156.3891      14.402891       0.11893
  49    .09103      141.9862        0.0009      156.3879      156.3888      14.402675       0.13490
  48    0.1069      141.9862        0.0015      156.3871      156.3885      14.402386       0.15383
  47    0.1255      141.9862        0.0021      156.3861      156.3882      14.401999       0.17534
  46    0.1487      141.9862        0.0030      156.3847      156.3877      14.401429       0.20778
  45    0.1794      141.9864        0.0041      156.3828      156.3869      14.400538       0.24464
  44    0.2165      141.9866        0.0054      156.3805      156.3859      14.399329       0.27495
  43    0.2613      141.9870        0.0070      156.3776      156.3847      14.397689       0.30911
  42    0.3336      141.9877        0.0097      156.3726      156.3823      14.394572       0.36351
  41    0.4307      141.9890        0.0132      156.3657      156.3789      14.389872       0.40862
  40    0.5894      141.9917        0.0189      156.3537      156.3726      14.380909       0.47664
  39     1.339      142.0147        0.0459      156.2834      156.3294      14.314689       0.74551
  38     1.782      142.0359        0.0618      156.2324      156.2942      14.258278       1.07398
  37     2.292      142.0677        0.0802      156.1641      156.2443      14.176622       1.35244
  36     2.964      142.1205        0.1043      156.0605      156.1648      14.044337       1.66057
  35     3.853      142.2058        0.1362      155.9041      156.0402      13.834432       1.99204
  34     5.035      142.3345        0.1784      155.6774      155.8558      13.521267       2.23712
  33     6.613      142.5144        0.2348      155.3656      155.6004      13.086053       2.32666
  32     8.786      142.7487        0.3107      154.9577      155.2684      12.519728       2.19940
  31     11.80      143.0536        0.4192      154.4153      154.8344      11.780803       2.06876
  30     15.07      143.3458        0.5354      153.8804      154.4158      11.069959       1.83526
  29     18.79      143.6442        0.6665      153.3191      153.9856      10.341389       1.65189
  28     23.16      143.9561        0.8194      152.7126      153.5320       9.575826       1.48035
  27     28.12      144.2701        0.9940      152.0755      153.0695       8.799392       1.31989
  26     33.73      144.5601        1.1892      151.4409      152.6302       8.070064       1.09656
  25     40.54      144.8394        1.4249      150.7637      152.1886       7.349202       0.89431
  24     48.69      145.1070        1.7087      150.0338      151.7425       6.635515       0.73855
  23     57.69      145.3342        2.0200      149.3151      151.3352       6.000953       0.59481
  22     68.43      145.5328        2.3905      148.5476      150.9381       5.405249       0.46830
  21     81.20      145.6708        2.8315      147.7517      150.5832       4.912447       0.32564
  20     96.49      145.7435        3.3566      146.9127      150.2692       4.525710       0.21345
  19     114.6      145.7826        3.9782      145.9763      149.9545       4.171958       0.16518
  18     136.5      145.7971        4.7123      144.9088      149.6210       3.823950       0.13382
  17     162.9      145.7855        5.5823      143.6785      149.2608       3.475335       0.11143
  16     196.4      145.7082        6.7049      142.1651      148.8700       3.161779       0.07893
  15     218.7      145.6346        7.4385      141.2033      148.6419       3.007291       0.05865
  14     243.0      145.5442        8.2326      140.1753      148.4079       2.863774       0.04978
  13     269.0      145.4353        9.0893      139.0797      148.1689       2.733615       0.04222
  12     297.5      145.3075       10.0106      137.9141      147.9247       2.617150       0.03454
  11     328.5      145.1648       11.0009      136.6676      147.6685       2.503661       0.03086
  10     361.9      145.0071       12.0611      135.3392      147.4003       2.393245       0.02794
   9     398.1      144.8339       13.1953      133.9235      147.1188       2.284927       0.02524
   8     437.6      144.6463       14.4055      132.4163      146.8217       2.175427       0.02341
   7     480.5      144.4442       15.6938      130.8147      146.5085       2.064329       0.02182
   6     533.0      144.1962       17.2674      128.8599      146.1273       1.931134       0.02143
   5     589.8      143.9342       18.9488      126.7679      145.7168       1.782542       0.02206
   4     651.6      143.6660       20.7396      124.5274      145.2671       1.601071       0.02482
   3     718.7      143.3992       22.6416      122.1285      144.7700       1.370845       0.02893
   2     792.3      143.1536       24.6525      119.5548      144.2073       1.053701       0.03637
   1     891.5       57.7928       58.5752        0.0000       58.5752       0.782352       0.02309
   0    1013.0       57.8561       58.4936        0.0000       58.4936       0.637581       0.01005



 Wavenumbers: 22650. - 29000. cm-1, ATM      1
 LEVEL PRESSURE   UPWARD FLUX   DIFDOWN FLUX  DIRDOWN FLUX  DOWNWARD FLUX   NET FLUX    HEATING RATE
          mb          W/m2          W/m2          W/m2        W/m2          W/m2       degree/day
  51    .06700       58.7788        0.0000       59.0156       59.0156       0.236844       0.00000
  50    .07753       58.7787        0.0005       59.0151       59.0155       0.236844       0.00000
  49    .09103       58.7786        0.0010       59.0144       59.0154       0.236844       0.00000
  48    0.1069       58.7784        0.0017       59.0136       59.0153       0.236844       0.00000
  47    0.1255       58.7783        0.0025       59.0127       59.0151       0.236844       0.00000
  46    0.1487       58.7781        0.0035       59.0115       59.0149       0.236844       0.00000
  45    0.1794       58.7778        0.0048       59.0099       59.0147       0.236844      -0.00000
  44    0.2165       58.7775        0.0063       59.0080       59.0144       0.236844       0.00000
  43    0.2613       58.7772        0.0082       59.0058       59.0140       0.236844       0.00000
  42    0.3336       58.7766        0.0113       59.0022       59.0134       0.236844       0.00000
  41    0.4307       58.7758        0.0154       58.9973       59.0127       0.236844       0.00000
  40    0.5894       58.7745        0.0220       58.9894       59.0114       0.236844       0.00000
  39     1.339       58.7685        0.0536       58.9518       59.0053       0.236844       0.00000
  38     1.782       58.7649        0.0721       58.9297       59.0018       0.236844      -0.00000
  37     2.292       58.7608        0.0935       58.9042       58.9977       0.236844      -0.00000
  36     2.964       58.7554        0.1216       58.8706       58.9923       0.236844       0.00000
  35     3.853       58.7483        0.1588       58.8264       58.9852       0.236844      -0.00000
  34     5.035       58.7389        0.2081       58.7676       58.9757       0.236844      -0.00000
  33     6.613       58.7262        0.2740       58.6891       58.9631       0.236844       0.00000
  32     8.786       58.7092        0.3627       58.5834       58.9461       0.236844       0.00000
  31     11.80       58.6849        0.4893       58.4324       58.9218       0.236844       0.00000
  30     15.07       58.6589        0.6251       58.2706       58.8958       0.236844       0.00000
  29     18.79       58.6296        0.7782       58.0882       58.8664       0.236844      -0.00000
  28     23.16       58.5954        0.9565       57.8757       58.8322       0.236844       0.00000
  27     28.12       58.5564        1.1599       57.6333       58.7932       0.236844       0.00000
  26     33.73       58.5129        1.3867       57.3631       58.7497       0.236844       0.00000
  25     40.54       58.4606        1.6595       57.0379       58.6974       0.236844       0.00000
  24     48.69       58.3978        1.9868       56.6479       58.6346       0.236844       0.00000
  23     57.69       58.3293        2.3440       56.2221       58.5661       0.236844      -0.00000
  22     68.43       58.2482        2.7665       55.7186       58.4851       0.236844       0.00000
  21     81.20       58.1525        3.2654       55.1239       58.3893       0.236844       0.00000
  20     96.49       58.0396        3.8537       54.4228       58.2765       0.236844      -0.00000
  19     114.6       57.9073        4.5432       53.6010       58.1441       0.236844       0.00000
  18     136.5       57.7528        5.3479       52.6418       57.9897       0.236844      -0.00000
  17     162.9       57.5722        6.2887       51.5203       57.8090       0.236844       0.00000
  16     196.4       57.3433        7.4807       50.0994       57.5801       0.236844       0.00000
  15     218.7       57.1961        8.2467       49.1863       57.4330       0.236844      -0.00000
  14     243.0       57.0389        9.0645       48.2113       57.2758       0.236844      -0.00000
  13     269.0       56.8719        9.9338       47.1749       57.1087       0.236844       0.00000
  12     297.5       56.6950       10.8536       46.0783       56.9318       0.236844       0.00000
  11     328.5       56.5081       11.8254       44.9195       56.7449       0.236844       0.00000
  10     361.9       56.3116       12.8466       43.7018       56.5484       0.236844       0.00000
   9     398.1       56.1054       13.9173       42.4250       56.3423       0.236844       0.00000
   8     437.6       55.8901       15.0353       41.0916       56.1270       0.236844      -0.00000
   7     480.5       55.6660       16.1984       39.7045       55.9028       0.236844       0.00000
   6     533.0       55.3992       17.5818       38.0543       55.6361       0.236844       0.00000
   5     589.8       55.1224       19.0162       36.3431       55.3592       0.236844      -0.00000
   4     651.6       54.8369       20.4942       34.5795       55.0738       0.236844       0.00000
   3     718.7       54.5438       22.0104       32.7702       54.7806       0.236844      -0.00000
   2     792.3       54.2446       23.5559       30.9256       54.4815       0.236844      -0.00000
   1     891.5       32.2186       32.4392        0.0000       32.4392       0.220534       0.00139
   0    1013.0       32.2109       32.4315        0.0000       32.4315       0.220534       0.00000



 Wavenumbers: 29000. - 38000. cm-1, ATM      1
 LEVEL PRESSURE   UPWARD FLUX   DIFDOWN FLUX  DIRDOWN FLUX  DOWNWARD FLUX   NET FLUX    HEATING RATE
          mb          W/m2          W/m2          W/m2        W/m2          W/m2       degree/day
  51    .06700        8.8121        0.0000       20.8114       20.8114      11.999287       0.00000
  50    .07753        8.8119        0.0003       20.8070       20.8074      11.995479       3.05166
  49    .09103        8.8117        0.0007       20.8009       20.8016      11.989942       3.46097
  48    0.1069        8.8114        0.0012       20.7928       20.7939      11.982532       3.94443
  47    0.1255        8.8111        0.0017       20.7820       20.7837      11.972627       4.49050
  46    0.1487        8.8108        0.0024       20.7665       20.7688      11.958063       5.30863
  45    0.1794        8.8103        0.0033       20.7424       20.7457      11.935397       6.22227
  44    0.2165        8.8098        0.0044       20.7103       20.7147      11.904874       6.94367
  43    0.2613        8.8092        0.0056       20.6675       20.6731      11.863877       7.72763
  42    0.3336        8.8083        0.0077       20.5880       20.5957      11.787313       8.92661
  41    0.4307        8.8073        0.0104       20.4722       20.4826      11.675356       9.73444
  40    0.5894        8.8057        0.0147       20.2637       20.2784      11.472663      10.77895
  39     1.339        8.8024        0.0332       19.0984       19.1315      10.329116      12.87426
  38     1.782        8.8030        0.0428       18.4394       18.4821       9.679132      12.37464
  37     2.292        8.8058        0.0531       17.7714       17.8245       9.018702      10.93844
  36     2.964        8.8125        0.0658       17.0421       17.1079       8.295442       9.07910
  35     3.853        8.8255        0.0817       16.2678       16.3496       7.524047       7.32068
  34     5.035        8.8470        0.1019       15.4803       15.5822       6.735230       5.63499
  33     6.613        8.8783        0.1278       14.7157       14.8435       5.965191       4.11663
  32     8.786        8.9195        0.1616       13.9936       14.1552       5.235635       2.83333
  31     11.80        8.9735        0.2088       13.2835       13.4923       4.518848       2.00678
  30     15.07        9.0255        0.2577       12.7394       12.9970       3.971538       1.41305
  29     18.79        9.0793        0.3119       12.2666       12.5785       3.499187       1.07097
  28     23.16        9.1365        0.3736       11.8300       12.2036       3.067034       0.83564
  27     28.12        9.1952        0.4426       11.4279       11.8705       2.675239       0.66603
  26     33.73        9.2496        0.5187       11.0695       11.5882       2.338618       0.50612
  25     40.54        9.3013        0.6097       10.7209       11.3306       2.029266       0.38379
  24     48.69        9.3504        0.7176       10.3742       11.0918       1.741443       0.29785
  23     57.69        9.3909        0.8345       10.0549       10.8894       1.498467       0.22775
  22     68.43        9.4241        0.9715        9.7327       10.7043       1.280201       0.17159
  21     81.20        9.4408        1.1334        9.4134       10.5469       1.106045       0.11508
  20     96.49        9.4391        1.3238        9.0887       10.4125       0.973389       0.07322
  19     114.6        9.4273        1.5437        8.7388       10.2825       0.855235       0.05517
  18     136.5        9.4083        1.7952        8.3549       10.1501       0.741786       0.04362
  17     162.9        9.3825        2.0820        7.9311       10.0131       0.630618       0.03553
  16     196.4        9.3379        2.4373        7.4333        9.8706       0.532679       0.02465
  15     218.7        9.3055        2.6608        7.1295        9.7904       0.484875       0.01815
  14     243.0        9.2700        2.8946        6.8161        9.7107       0.440707       0.01532
  13     269.0        9.2310        3.1377        6.4943        9.6321       0.401021       0.01287
  12     297.5        9.1888        3.3891        6.1657        9.5548       0.366013       0.01038
  11     328.5        9.1448        3.6478        5.8295        9.4773       0.332472       0.00912
  10     361.9        9.0994        3.9113        5.4886        9.4000       0.300548       0.00808
   9     398.1        9.0529        4.1791        5.1440        9.3231       0.270269       0.00705
   8     437.6        9.0056        4.4497        4.7969        9.2467       0.241054       0.00625
   7     480.5        8.9581        4.7210        4.4504        9.1714       0.213295       0.00545
   6     533.0        8.9037        5.0305        4.0563        9.0867       0.183002       0.00487
   5     589.8        8.8505        5.3359        3.6682        9.0041       0.153633       0.00436
   4     651.6        8.7993        5.6336        3.2905        8.9242       0.124860       0.00393
   3     718.7        8.7507        5.9221        2.9252        8.8473       0.096635       0.00355
   2     792.3        8.7054        6.1979        2.5764        8.7744       0.068962       0.00317
   1     891.5        4.1187        4.1652        0.0000        4.1652       0.046473       0.00191
   0    1013.0        4.1217        4.1562        0.0000        4.1562       0.034497       0.00083



 Wavenumbers: 38000. - 50000. cm-1, ATM      1
 LEVEL PRESSURE   UPWARD FLUX   DIFDOWN FLUX  DIRDOWN FLUX  DOWNWARD FLUX   NET FLUX    HEATING RATE
          mb          W/m2          W/m2          W/m2        W/m2          W/m2       degree/day
  51    .06700        0.0061        0.0000        1.2836        1.2836       1.277518       0.00000
  50    .07753        0.0061        0.0001        1.2812        1.2812       1.275183       1.87150
  49    .09103        0.0060        0.0002        1.2777        1.2778       1.271851       2.08247
  48    0.1069        0.0059        0.0002        1.2731        1.2734       1.267473       2.33059
  47    0.1255        0.0058        0.0004        1.2672        1.2675       1.261717       2.60908
  46    0.1487        0.0057        0.0005        1.2586        1.2591       1.253391       3.03499
  45    0.1794        0.0055        0.0007        1.2455        1.2462       1.240623       3.50520
  44    0.2165        0.0054        0.0009        1.2282        1.2291       1.223697       3.85037
  43    0.2613        0.0052        0.0011        1.2054        1.2065       1.201348       4.21261
  42    0.3336        0.0049        0.0015        1.1639        1.1654       1.160524       4.75970
  41    0.4307        0.0045        0.0020        1.1051        1.1070       1.102565       5.03943
  40    0.5894        0.0039        0.0026        1.0039        1.0064       1.002524       5.32007
  39     1.339        0.0022        0.0035        0.5438        0.5473       0.545104       5.14971
  38     1.782        0.0016        0.0032        0.3635        0.3666       0.365006       3.42879
  37     2.292        0.0012        0.0027        0.2356        0.2383       0.237058       2.11916
  36     2.964        0.0009        0.0022        0.1455        0.1477       0.146786       1.13318
  35     3.853        0.0006        0.0017        0.0858        0.0875       0.086906       0.56828
  34     5.035        0.0004        0.0013        0.0488        0.0501       0.049701       0.26578
  33     6.613        0.0003        0.0010        0.0273        0.0282       0.027974       0.11615
  32     8.786        0.0002        0.0007        0.0144        0.0151       0.014928       0.05067
  31     11.80        0.0001        0.0004        0.0065        0.0070       0.006903       0.02247
  30     15.07        0.0000        0.0003        0.0031        0.0034       0.003329       0.00923
  29     18.79        0.0000        0.0002        0.0014        0.0016       0.001583       0.00396
  28     23.16        0.0000        0.0001        0.0006        0.0007       0.000720       0.00167
  27     28.12        0.0000        0.0001        0.0003        0.0003       0.000317       0.00069
  26     33.73        0.0000        0.0000        0.0001        0.0001       0.000140       0.00027
  25     40.54        0.0000        0.0000        0.0000        0.0001       0.000057       0.00010
  24     48.69        0.0000        0.0000        0.0000        0.0000       0.000021       0.00004
  23     57.69        0.0000        0.0000        0.0000        0.0000       0.000008       0.00001
  22     68.43        0.0000        0.0000        0.0000        0.0000       0.000003       0.00000
  21     81.20        0.0000        0.0000        0.0000        0.0000       0.000001       0.00000
  20     96.49        0.0000        0.0000        0.0000        0.0000       0.000000       0.00000
  19     114.6        0.0000        0.0000        0.0000        0.0000       0.000000       0.00000
  18     136.5        0.0000        0.0000        0.0000        0.0000       0.000000       0.00000
  17     162.9        0.0000        0.0000        0.0000        0.0000       0.000000       0.00000
  16     196.4        0.0000        0.0000        0.0000        0.0000       0.000000       0.00000
  15     218.7        0.0000        0.0000        0.0000        0.0000       0.000000       0.00000
  14     243.0        0.0000        0.0000        0.0000        0.0000       0.000000       0.00000
  13     269.0        0.0000        0.0000        0.0000        0.0000       0.000000       0.00000
  12     297.5        0.0000        0.0000        0.0000        0.0000       0.000000       0.00000
  11     328.5        0.0000        0.0000        0.0000        0.0000       0.000000       0.00000
  10     361.9        0.0000        0.0000        0.0000        0.0000       0.000000       0.00000
   9     398.1        0.0000        0.0000        0.0000        0.0000       0.000000       0.00000
   8     437.6        0.0000        0.0000        0.0000        0.0000       0.000000       0.00000
   7     480.5        0.0000        0.0000        0.0000        0.0000       0.000000       0.00000
   6     533.0        0.0000        0.0000        0.0000        0.0000       0.000000       0.00000
   5     589.8        0.0000        0.0000        0.0000        0.0000       0.000000       0.00000
   4     651.6        0.0000        0.0000        0.0000        0.0000       0.000000       0.00000
   3     718.7        0.0000        0.0000        0.0000        0.0000       0.000000       0.00000
   2     792.3        0.0000        0.0000        0.0000        0.0000       0.000000       0.00000
   1     891.5        0.0000        0.0000        0.0000        0.0000       0.000000       0.00000
   0    1013.0        0.0000        0.0000        0.0000        0.0000       0.000000       0.00000



 Wavenumbers:   820. -  2600. cm-1, ATM      1
 LEVEL PRESSURE   UPWARD FLUX   DIFDOWN FLUX  DIRDOWN FLUX  DOWNWARD FLUX   NET FLUX    HEATING RATE
          mb          W/m2          W/m2          W/m2        W/m2          W/m2       degree/day
  51    .06700        1.8498        0.0000        6.0047        6.0047       4.154828       0.00000
  50    .07753        1.8498        0.0000        6.0008        6.0008       4.150975       3.08827
  49    .09103        1.8498        0.0000        5.9999        5.9999       4.150089       0.55363
  48    0.1069        1.8498        0.0000        5.9989        5.9989       4.149100       0.52658
  47    0.1255        1.8498        0.0000        5.9978        5.9978       4.147982       0.50656
  46    0.1487        1.8498        0.0000        5.9964        5.9964       4.146625       0.49463
  45    0.1794        1.8498        0.0000        5.9947        5.9947       4.144906       0.47206
  44    0.2165        1.8498        0.0000        5.9929        5.9929       4.143063       0.41917
  43    0.2613        1.8498        0.0000        5.9909        5.9909       4.141104       0.36940
  42    0.3336        1.8498        0.0000        5.9880        5.9880       4.138225       0.33563
  41    0.4307        1.8498        0.0000        5.9846        5.9846       4.134755       0.30172
  40    0.5894        1.8498        0.0000        5.9791        5.9791       4.129248       0.29284
  39     1.339        1.8498        0.0000        5.9536        5.9536       4.103754       0.28702
  38     1.782        1.8498        0.0000        5.9395        5.9395       4.089611       0.26925
  37     2.292        1.8498        0.0000        5.9237        5.9237       4.073855       0.26096
  36     2.964        1.8499        0.0000        5.9039        5.9039       4.054075       0.24830
  35     3.853        1.8499        0.0000        5.8793        5.8793       4.029411       0.23407
  34     5.035        1.8499        0.0000        5.8487        5.8487       3.998837       0.21841
  33     6.613        1.8499        0.0000        5.8108        5.8108       3.960858       0.20304
  32     8.786        1.8499        0.0000        5.7631        5.7631       3.913215       0.18503
  31     11.80        1.8500        0.0000        5.7039        5.7039       3.853929       0.16598
  30     15.07        1.8500        0.0000        5.6539        5.6539       3.803859       0.12927
  29     18.79        1.8500        0.0000        5.6127        5.6127       3.762687       0.09335
  28     23.16        1.8501        0.0000        5.5794        5.5794       3.729268       0.06462
  27     28.12        1.8502        0.0000        5.5518        5.5518       3.701651       0.04695
  26     33.73        1.8502        0.0000        5.5268        5.5268       3.676540       0.03775
  25     40.54        1.8503        0.0000        5.4993        5.4993       3.649026       0.03413
  24     48.69        1.8504        0.0000        5.4678        5.4678       3.617398       0.03273
  23     57.69        1.8505        0.0000        5.4340        5.4340       3.583513       0.03176
  22     68.43        1.8506        0.0000        5.3947        5.3948       3.544120       0.03097
  21     81.20        1.8508        0.0000        5.3497        5.3497       3.498940       0.02985
  20     96.49        1.8510        0.0000        5.2982        5.2982       3.447244       0.02853
  19     114.6        1.8512        0.0000        5.2389        5.2389       3.387696       0.02780
  18     136.5        1.8515        0.0000        5.1716        5.1717       3.320155       0.02597
  17     162.9        1.8519        0.0000        5.0890        5.0891       3.237118       0.02654
  16     196.4        1.8527        0.0000        4.9668        4.9668       3.114171       0.03095
  15     218.7        1.8534        0.0000        4.8585        4.8585       3.005107       0.04141
  14     243.0        1.8545        0.0000        4.7078        4.7079       2.853357       0.05263
  13     269.0        1.8562        0.0000        4.5343        4.5343       2.678102       0.05685
  12     297.5        1.8589        0.0000        4.3419        4.3420       2.483102       0.05783
  11     328.5        1.8625        0.0000        4.1281        4.1281       2.265692       0.05911
  10     361.9        1.8672        0.0000        3.8786        3.8787       2.011465       0.06432
   9     398.1        1.8734        0.0000        3.6159        3.6160       1.742580       0.06264
   8     437.6        1.8814        0.0000        3.3759        3.3759       1.494535       0.05303
   7     480.5        1.8912        0.0000        3.1957        3.1958       1.304634       0.03730
   6     533.0        1.9061        0.0001        3.0467        3.0467       1.140658       0.02638
   5     589.8        1.9281        0.0001        2.9023        2.9023       0.974238       0.02470
   4     651.6        1.9665        0.0001        2.7183        2.7184       0.751862       0.03041
   3     718.7        2.0340        0.0001        2.5058        2.5059       0.471894       0.03518
   2     792.3        2.1688        0.0001        2.2756        2.2757       0.106864       0.04186
   1     891.5        0.0000        0.0048        0.0000        0.0048       0.004741       0.00869
   0    1013.0        0.0000        0.0041        0.0000        0.0041       0.004076       0.00005

  Modules and versions used in this calculation:

       rrtmg_sw.1col.f90:  $Revision$                    rrtmg_sw_init.f90:  $Revision$        
     rrtmgsw_cldprop.f90:  $Revision$                  rrtmgsw_cldprmc.f90:  NOT USED          
     rrtmg_sw_reftra.f90:  $Revision$                  rrtmg_sw_spcvrt.f90:  NOT USED          
     rrtmg_sw_spcvmc.f90:  NOT USED                    rrtmgsw_setcoef.f90:  NOT USED          
     rrtmg_sw_taumol.f90:  $Revision$                  rrtmg_sw_vrtqdr.f90:  NOT USED          
                rrtatm.f:  NOT USED                             util_xxx.f:  NOT USED          
                 extra.f:  NOT USED                       rrtmg_sw_k_g.f90:  $Revision$        

