

 Wavenumbers:   820. - 50000. cm-1, ATM      1
 LEVEL PRESSURE   UPWARD FLUX   DIFDOWN FLUX  DIRDOWN FLUX  DOWNWARD FLUX   NET FLUX    HEATING RATE
          mb          W/m2          W/m2          W/m2        W/m2          W/m2       degree/day
  51    .06700      432.0342        0.0000      617.8126      617.8126     185.778374       0.00000
  50    .07753      432.0338        0.0013      617.7947      617.7961     185.762232      12.93734
  49    .09103      432.0334        0.0030      617.7778      617.7808     185.747421       9.25728
  48    0.1069      432.0329        0.0050      617.7581      617.7631     185.730158       9.18914
  47    0.1255      432.0324        0.0072      617.7340      617.7412     185.708812       9.67742
  46    0.1487      432.0318        0.0100      617.7009      617.7109     185.679124      10.82151
  45    0.1794      432.0311        0.0139      617.6521      617.6660     185.634891      12.14323
  44    0.2165      432.0304        0.0184      617.5895      617.6079     185.577566      13.04037
  43    0.2613      432.0296        0.0238      617.5089      617.5327     185.503049      14.04610
  42    0.3336      432.0288        0.0326      617.3641      617.3967     185.367957      15.75036
  41    0.4307      432.0281        0.0443      617.1591      617.2034     185.175325      16.74894
  40    0.5894      432.0279        0.0630      616.8005      616.8635     184.835620      18.06511
  39     1.339      432.0452        0.1479      614.9443      615.0921     183.046945      20.13723
  38     1.782      432.0680        0.1956      613.9670      614.1626     182.094653      18.13009
  37     2.292      432.1058        0.2500      613.0059      613.2558     181.150009      15.64577
  36     2.964      432.1727        0.3206      611.9577      612.2782     180.105496      13.11179
  35     3.853      432.2851        0.4132      610.8024      611.2156     178.930443      11.15147
  34     5.035      432.4581        0.5354      609.5327      610.0681     177.610010       9.43263
  33     6.613      432.7017        0.6976      608.1464      608.8440     176.142321       7.84627
  32     8.786      433.0190        0.9152      606.6250      607.5402     174.521194       6.29587
  31     11.80      433.4299        1.2250      604.8486      606.0736     172.643753       5.25624
  30     15.07      433.8209        1.5556      603.2440      604.7996     170.978689       4.29887
  29     18.79      434.2177        1.9276      601.6511      603.5787     169.361022       3.66775
  28     23.16      434.6296        2.3598      599.9927      602.3525     167.722950       3.16750
  27     28.12      435.0401        2.8518      598.2881      601.1399     166.099762       2.75931
  26     33.73      435.4110        3.4003      596.5951      599.9954     164.584311       2.27852
  25     40.54      435.7562        4.0606      594.7727      598.8333     163.077133       1.86982
  24     48.69      436.0724        4.8530      592.7865      597.6395     161.567034       1.56272
  23     57.69      436.3230        5.7191      590.7959      596.5150     160.192017       1.28887
  22     68.43      436.5164        6.7453      588.6191      595.3644     158.847952       1.05661
  21     81.20      436.6009        7.9619      586.2690      594.2308     157.629978       0.80482
  20     96.49      436.5662        9.4023      583.6961      593.0984     156.532237       0.60587
  19     114.6      436.4707       11.0970      580.7708      591.8678     155.397092       0.53003
  18     136.5      436.3132       13.0813      577.4359      590.5172     154.203963       0.45879
  17     162.9      436.0881       15.4100      573.5624      588.9725     152.884346       0.42180
  16     196.4      435.7094       18.3798      568.5907      586.9705     151.261092       0.40859
  15     218.7      435.4327       20.2999      565.0572      585.3571     149.924491       0.50746
  14     243.0      435.1241       22.3594      560.7495      583.1090     147.984910       0.67271
  13     269.0      434.7847       24.5597      555.3947      579.9544     145.169683       0.91325
  12     297.5      434.4198       26.9014      548.9964      575.8978     141.478016       1.09491
  11     328.5      434.0389       29.3910      542.0895      571.4806     137.441644       1.09748
  10     361.9      433.6495       32.0248      534.6242      566.6490     132.999546       1.12389
   9     398.1      433.2612       34.8072      526.4204      561.2276     127.966399       1.17261
   8     437.6      432.8943       37.7369      517.3907      555.1276     122.233332       1.22577
   7     480.5      432.5697       40.8121      507.7216      548.5336     115.963957       1.23128
   6     533.0      432.2985       44.5092      495.9006      540.4098     108.111284       1.26325
   5     589.8      432.2397       48.3887      483.0788      531.4675      99.227884       1.31859
   4     651.6      432.6577       52.4378      468.6907      521.1285      88.470791       1.47106
   3     718.7      433.9171       56.6485      453.2257      509.8742      75.957064       1.57263
   2     792.3      436.9697       60.9985      436.4928      497.4914      60.521652       1.77027
   1     891.5      317.8675      347.7041       15.2031      362.9072      45.039775       1.31743
   0    1013.0      322.6750      340.0957       14.2657      354.3613      31.686287       0.92720



 Wavenumbers:  2600. -  3250. cm-1, ATM      1
 LEVEL PRESSURE   UPWARD FLUX   DIFDOWN FLUX  DIRDOWN FLUX  DOWNWARD FLUX   NET FLUX    HEATING RATE
          mb          W/m2          W/m2          W/m2        W/m2          W/m2       degree/day
  51    .06700        1.7221        0.0000        5.4450        5.4450       3.722919       0.00000
  50    .07753        1.7221        0.0000        5.4450        5.4450       3.722911       0.00640
  49    .09103        1.7221        0.0000        5.4450        5.4450       3.722901       0.00627
  48    0.1069        1.7221        0.0000        5.4450        5.4450       3.722889       0.00613
  47    0.1255        1.7221        0.0000        5.4450        5.4450       3.722876       0.00599
  46    0.1487        1.7221        0.0000        5.4450        5.4450       3.722859       0.00608
  45    0.1794        1.7221        0.0000        5.4450        5.4450       3.722836       0.00625
  44    0.2165        1.7221        0.0000        5.4449        5.4449       3.722809       0.00612
  43    0.2613        1.7221        0.0000        5.4449        5.4449       3.722778       0.00600
  42    0.3336        1.7221        0.0000        5.4448        5.4448       3.722725       0.00617
  41    0.4307        1.7221        0.0000        5.4448        5.4448       3.722653       0.00620
  40    0.5894        1.7221        0.0000        5.4446        5.4446       3.722534       0.00637
  39     1.339        1.7221        0.0000        5.4439        5.4439       3.721826       0.00797
  38     1.782        1.7221        0.0000        5.4434        5.4434       3.721283       0.01034
  37     2.292        1.7221        0.0000        5.4427        5.4427       3.720567       0.01186
  36     2.964        1.7221        0.0000        5.4416        5.4416       3.719528       0.01304
  35     3.853        1.7221        0.0000        5.4402        5.4402       3.718051       0.01402
  34     5.035        1.7221        0.0000        5.4381        5.4381       3.715995       0.01469
  33     6.613        1.7221        0.0000        5.4353        5.4353       3.713214       0.01487
  32     8.786        1.7221        0.0000        5.4317        5.4317       3.709581       0.01411
  31     11.80        1.7221        0.0000        5.4269        5.4269       3.704799       0.01339
  30     15.07        1.7221        0.0000        5.4224        5.4224       3.700271       0.01169
  29     18.79        1.7221        0.0000        5.4180        5.4180       3.695856       0.01001
  28     23.16        1.7221        0.0000        5.4135        5.4135       3.691365       0.00868
  27     28.12        1.7221        0.0000        5.4088        5.4088       3.686711       0.00791
  26     33.73        1.7221        0.0000        5.4036        5.4036       3.681461       0.00789
  25     40.54        1.7222        0.0000        5.3966        5.3967       3.674505       0.00863
  24     48.69        1.7222        0.0000        5.3872        5.3872       3.665006       0.00983
  23     57.69        1.7222        0.0000        5.3754        5.3754       3.653191       0.01107
  22     68.43        1.7223        0.0000        5.3599        5.3599       3.637659       0.01221
  21     81.20        1.7223        0.0000        5.3401        5.3401       3.617762       0.01315
  20     96.49        1.7224        0.0000        5.3155        5.3155       3.593105       0.01361
  19     114.6        1.7226        0.0001        5.2853        5.2854       3.562783       0.01416
  18     136.5        1.7228        0.0001        5.2504        5.2505       3.527700       0.01349
  17     162.9        1.7231        0.0001        5.2111        5.2112       3.488102       0.01266
  16     196.4        1.7235        0.0001        5.1640        5.1641       3.440583       0.01196
  15     218.7        1.7240        0.0001        5.1331        5.1332       3.409185       0.01192
  14     243.0        1.7248        0.0001        5.0962        5.0963       3.371495       0.01307
  13     269.0        1.7261        0.0001        5.0511        5.0512       3.325136       0.01504
  12     297.5        1.7280        0.0001        4.9956        4.9957       3.267773       0.01701
  11     328.5        1.7306        0.0001        4.9304        4.9305       3.199915       0.01845
  10     361.9        1.7342        0.0001        4.8511        4.8512       3.117031       0.02097
   9     398.1        1.7392        0.0002        4.7507        4.7508       3.011628       0.02456
   8     437.6        1.7462        0.0002        4.6220        4.6222       2.876057       0.02899
   7     480.5        1.7558        0.0002        4.4625        4.4627       2.706906       0.03322
   6     533.0        1.7714        0.0002        4.2460        4.2462       2.474834       0.03733
   5     589.8        1.7953        0.0002        3.9954        3.9956       2.200334       0.04074
   4     651.6        1.8347        0.0002        3.7089        3.7091       1.874374       0.04458
   3     718.7        1.8999        0.0002        3.4018        3.4020       1.502165       0.04678
   2     792.3        2.0184        0.0002        3.0564        3.0567       1.038295       0.05320
   1     891.5        0.8439        1.3420        0.0949        1.4368       0.592899       0.03790
   0    1013.0        0.9594        1.1391        0.0766        1.2157       0.256241       0.02338



 Wavenumbers:  3250. -  4000. cm-1, ATM      1
 LEVEL PRESSURE   UPWARD FLUX   DIFDOWN FLUX  DIRDOWN FLUX  DOWNWARD FLUX   NET FLUX    HEATING RATE
          mb          W/m2          W/m2          W/m2        W/m2          W/m2       degree/day
  51    .06700        0.0412        0.0000        9.1795        9.1795       9.138301       0.00000
  50    .07753        0.0412        0.0000        9.1747        9.1747       9.133458       3.88148
  49    .09103        0.0412        0.0000        9.1713        9.1713       9.130071       2.11747
  48    0.1069        0.0412        0.0000        9.1688        9.1688       9.127546       1.34402
  47    0.1255        0.0412        0.0000        9.1665        9.1665       9.125287       1.02422
  46    0.1487        0.0412        0.0000        9.1641        9.1641       9.122845       0.88991
  45    0.1794        0.0412        0.0000        9.1612        9.1612       9.119967       0.79008
  44    0.2165        0.0412        0.0000        9.1583        9.1583       9.117047       0.66430
  43    0.2613        0.0412        0.0000        9.1553        9.1553       9.114074       0.56041
  42    0.3336        0.0412        0.0000        9.1511        9.1511       9.109895       0.48723
  41    0.4307        0.0412        0.0000        9.1464        9.1464       9.105127       0.41459
  40    0.5894        0.0412        0.0000        9.1393        9.1394       9.098121       0.37255
  39     1.339        0.0412        0.0000        9.1127        9.1127       9.071507       0.29962
  38     1.782        0.0412        0.0000        9.1011        9.1011       9.059919       0.22062
  37     2.292        0.0412        0.0000        9.0901        9.0901       9.048852       0.18329
  36     2.964        0.0412        0.0000        9.0776        9.0776       9.036423       0.15603
  35     3.853        0.0412        0.0000        9.0629        9.0629       9.021632       0.14036
  34     5.035        0.0412        0.0000        9.0441        9.0441       9.002894       0.13386
  33     6.613        0.0412        0.0000        9.0191        9.0191       8.977892       0.13366
  32     8.786        0.0412        0.0000        8.9843        8.9843       8.943109       0.13509
  31     11.80        0.0412        0.0000        8.9327        8.9327       8.891492       0.14451
  30     15.07        0.0412        0.0000        8.8758        8.8759       8.834647       0.14676
  29     18.79        0.0412        0.0000        8.8110        8.8110       8.769820       0.14698
  28     23.16        0.0412        0.0000        8.7365        8.7366       8.695375       0.14395
  27     28.12        0.0412        0.0000        8.6554        8.6555       8.614262       0.13789
  26     33.73        0.0412        0.0000        8.5719        8.5719       8.530762       0.12554
  25     40.54        0.0412        0.0001        8.4812        8.4812       8.440039       0.11255
  24     48.69        0.0412        0.0001        8.3838        8.3839       8.342737       0.10069
  23     57.69        0.0412        0.0001        8.2861        8.2862       8.245002       0.09161
  22     68.43        0.0411        0.0001        8.1751        8.1751       8.134005       0.08726
  21     81.20        0.0411        0.0001        8.0457        8.0458       8.004647       0.08548
  20     96.49        0.0411        0.0001        7.8949        7.8951       7.853943       0.08318
  19     114.6        0.0411        0.0001        7.7162        7.7163       7.675234       0.08344
  18     136.5        0.0411        0.0002        7.5193        7.5195       7.478389       0.07569
  17     162.9        0.0410        0.0002        7.2913        7.2915       7.250497       0.07284
  16     196.4        0.0410        0.0002        6.9660        6.9662       6.925221       0.08188
  15     218.7        0.0410        0.0002        6.6648        6.6650       6.624026       0.11435
  14     243.0        0.0410        0.0002        6.2619        6.2622       6.221214       0.13971
  13     269.0        0.0410        0.0003        5.7576        5.7579       5.716873       0.16361
  12     297.5        0.0411        0.0003        5.1719        5.1722       5.131093       0.17374
  11     328.5        0.0412        0.0002        4.5757        4.5760       4.534778       0.16214
  10     361.9        0.0414        0.0002        3.9995        3.9998       3.958345       0.14584
   9     398.1        0.0418        0.0002        3.4655        3.4657       3.423866       0.12452
   8     437.6        0.0425        0.0002        2.9740        2.9743       2.931716       0.10522
   7     480.5        0.0437        0.0002        2.5307        2.5309       2.487206       0.08730
   6     533.0        0.0458        0.0002        2.0614        2.0616       2.015717       0.07585
   5     589.8        0.0498        0.0002        1.6150        1.6151       1.565280       0.06686
   4     651.6        0.0582        0.0001        1.1565        1.1566       1.098362       0.06385
   3     718.7        0.0767        0.0001        0.7390        0.7391       0.662411       0.05479
   2     792.3        0.1259        0.0001        0.3985        0.3985       0.272617       0.04471
   1     891.5        0.0003        0.0372        0.0042        0.0414       0.041014       0.01971
   0    1013.0        0.0033        0.0039        0.0003        0.0042       0.000891       0.00279



 Wavenumbers:  4000. -  4650. cm-1, ATM      1
 LEVEL PRESSURE   UPWARD FLUX   DIFDOWN FLUX  DIRDOWN FLUX  DOWNWARD FLUX   NET FLUX    HEATING RATE
          mb          W/m2          W/m2          W/m2        W/m2          W/m2       degree/day
  51    .06700        5.9516        0.0000       10.7795       10.7795       4.827965       0.00000
  50    .07753        5.9516        0.0000       10.7795       10.7795       4.827964       0.00080
  49    .09103        5.9516        0.0000       10.7795       10.7795       4.827963       0.00078
  48    0.1069        5.9516        0.0000       10.7795       10.7795       4.827961       0.00076
  47    0.1255        5.9516        0.0000       10.7795       10.7795       4.827960       0.00075
  46    0.1487        5.9516        0.0000       10.7795       10.7795       4.827958       0.00076
  45    0.1794        5.9516        0.0000       10.7795       10.7795       4.827955       0.00078
  44    0.2165        5.9516        0.0000       10.7795       10.7795       4.827952       0.00076
  43    0.2613        5.9516        0.0000       10.7795       10.7795       4.827948       0.00075
  42    0.3336        5.9516        0.0000       10.7795       10.7795       4.827941       0.00077
  41    0.4307        5.9516        0.0000       10.7795       10.7795       4.827932       0.00077
  40    0.5894        5.9516        0.0000       10.7795       10.7795       4.827917       0.00080
  39     1.339        5.9516        0.0000       10.7794       10.7794       4.827828       0.00101
  38     1.782        5.9516        0.0000       10.7793       10.7793       4.827758       0.00133
  37     2.292        5.9516        0.0000       10.7792       10.7792       4.827664       0.00156
  36     2.964        5.9516        0.0000       10.7791       10.7791       4.827523       0.00176
  35     3.853        5.9516        0.0000       10.7789       10.7789       4.827315       0.00198
  34     5.035        5.9516        0.0000       10.7786       10.7786       4.827007       0.00220
  33     6.613        5.9516        0.0000       10.7781       10.7781       4.826555       0.00242
  32     8.786        5.9516        0.0000       10.7774       10.7775       4.825886       0.00260
  31     11.80        5.9516        0.0001       10.7763       10.7764       4.824836       0.00294
  30     15.07        5.9516        0.0001       10.7751       10.7752       4.823604       0.00318
  29     18.79        5.9516        0.0001       10.7736       10.7737       4.822113       0.00338
  28     23.16        5.9516        0.0001       10.7717       10.7718       4.820260       0.00358
  27     28.12        5.9516        0.0001       10.7695       10.7696       4.818016       0.00381
  26     33.73        5.9516        0.0002       10.7667       10.7668       4.815248       0.00416
  25     40.54        5.9516        0.0002       10.7629       10.7631       4.811490       0.00466
  24     48.69        5.9517        0.0002       10.7579       10.7581       4.806479       0.00519
  23     57.69        5.9517        0.0003       10.7520       10.7523       4.800532       0.00557
  22     68.43        5.9519        0.0003       10.7446       10.7449       4.793070       0.00587
  21     81.20        5.9520        0.0004       10.7355       10.7359       4.783871       0.00608
  20     96.49        5.9523        0.0005       10.7245       10.7249       4.772659       0.00619
  19     114.6        5.9527        0.0006       10.7107       10.7113       4.758615       0.00656
  18     136.5        5.9532        0.0007       10.6942       10.6948       4.741661       0.00652
  17     162.9        5.9540        0.0008       10.6740       10.6748       4.720824       0.00666
  16     196.4        5.9553        0.0009       10.6464       10.6473       4.691983       0.00726
  15     218.7        5.9565        0.0010       10.6255       10.6265       4.669974       0.00836
  14     243.0        5.9583        0.0012       10.5980       10.5992       4.640903       0.01008
  13     269.0        5.9610        0.0013       10.5611       10.5624       4.601417       0.01281
  12     297.5        5.9648        0.0014       10.5119       10.5134       4.548513       0.01569
  11     328.5        5.9702        0.0016       10.4499       10.4514       4.481240       0.01829
  10     361.9        5.9772        0.0017       10.3702       10.3719       4.394677       0.02190
   9     398.1        5.9860        0.0019       10.2678       10.2696       4.283627       0.02587
   8     437.6        5.9972        0.0020       10.1390       10.1410       4.143778       0.02990
   7     480.5        6.0116        0.0022        9.9877        9.9899       3.978325       0.03249
   6     533.0        6.0336        0.0024        9.7937        9.7961       3.762506       0.03472
   5     589.8        6.0653        0.0026        9.5752        9.5778       3.512455       0.03712
   4     651.6        6.1163        0.0028        9.2958        9.2986       3.182323       0.04515
   3     718.7        6.2017        0.0030        8.9267        8.9298       2.728087       0.05708
   2     792.3        6.3613        0.0032        8.4542        8.4574       2.096188       0.07247
   1     891.5        3.3655        4.5433        0.2863        4.8296       1.464047       0.05379
   0    1013.0        3.5516        4.2380        0.2599        4.4979       0.946293       0.03595



 Wavenumbers:  4650. -  5150. cm-1, ATM      1
 LEVEL PRESSURE   UPWARD FLUX   DIFDOWN FLUX  DIRDOWN FLUX  DOWNWARD FLUX   NET FLUX    HEATING RATE
          mb          W/m2          W/m2          W/m2        W/m2          W/m2       degree/day
  51    .06700        4.2591        0.0000       10.2033       10.2033       5.944242       0.00000
  50    .07753        4.2591        0.0000       10.2031       10.2031       5.944006       0.18901
  49    .09103        4.2591        0.0000       10.2028       10.2028       5.943712       0.18428
  48    0.1069        4.2591        0.0000       10.2025       10.2025       5.943375       0.17931
  47    0.1255        4.2591        0.0000       10.2021       10.2021       5.942990       0.17426
  46    0.1487        4.2591        0.0000       10.2016       10.2016       5.942509       0.17536
  45    0.1794        4.2591        0.0000       10.2010       10.2010       5.941859       0.17850
  44    0.2165        4.2591        0.0000       10.2002       10.2002       5.941100       0.17277
  43    0.2613        4.2591        0.0000       10.1993       10.1993       5.940214       0.16690
  42    0.3336        4.2591        0.0000       10.1979       10.1979       5.938782       0.16702
  41    0.4307        4.2591        0.0000       10.1960       10.1960       5.936941       0.16002
  40    0.5894        4.2591        0.0000       10.1932       10.1932       5.934067       0.15283
  39     1.339        4.2591        0.0000       10.1816       10.1816       5.922475       0.13050
  38     1.782        4.2591        0.0000       10.1760       10.1760       5.916946       0.10527
  37     2.292        4.2591        0.0000       10.1706       10.1706       5.911489       0.09038
  36     2.964        4.2591        0.0000       10.1646       10.1647       5.905565       0.07436
  35     3.853        4.2591        0.0000       10.1584       10.1584       5.899349       0.05899
  34     5.035        4.2591        0.0000       10.1521       10.1521       5.893011       0.04528
  33     6.613        4.2591        0.0000       10.1456       10.1456       5.886550       0.03454
  32     8.786        4.2591        0.0001       10.1386       10.1386       5.879532       0.02726
  31     11.80        4.2591        0.0001       10.1295       10.1296       5.870477       0.02535
  30     15.07        4.2591        0.0001       10.1196       10.1197       5.860578       0.02556
  29     18.79        4.2592        0.0001       10.1076       10.1077       5.848543       0.02729
  28     23.16        4.2592        0.0002       10.0923       10.0924       5.833198       0.02967
  27     28.12        4.2593        0.0002       10.0731       10.0733       5.814049       0.03255
  26     33.73        4.2594        0.0002       10.0500       10.0503       5.790881       0.03483
  25     40.54        4.2595        0.0003       10.0201       10.0204       5.760872       0.03723
  24     48.69        4.2597        0.0003        9.9820        9.9823       5.722549       0.03966
  23     57.69        4.2600        0.0004        9.9384        9.9388       5.678816       0.04099
  22     68.43        4.2604        0.0005        9.8858        9.8862       5.625813       0.04167
  21     81.20        4.2610        0.0006        9.8234        9.8240       5.563047       0.04148
  20     96.49        4.2617        0.0007        9.7518        9.7524       5.490709       0.03993
  19     114.6        4.2628        0.0008        9.6719        9.6727       5.409940       0.03771
  18     136.5        4.2642        0.0009        9.5858        9.5867       5.322509       0.03362
  17     162.9        4.2662        0.0011        9.4940        9.4951       5.228898       0.02992
  16     196.4        4.2693        0.0013        9.3883        9.3896       5.120232       0.02735
  15     218.7        4.2718        0.0014        9.3229        9.3244       5.052554       0.02569
  14     243.0        4.2750        0.0016        9.2520        9.2536       4.978571       0.02566
  13     269.0        4.2793        0.0017        9.1717        9.1734       4.894119       0.02740
  12     297.5        4.2853        0.0019        9.0763        9.0782       4.792893       0.03002
  11     328.5        4.2932        0.0021        8.9650        8.9671       4.673916       0.03235
  10     361.9        4.3033        0.0023        8.8349        8.8372       4.533923       0.03542
   9     398.1        4.3164        0.0025        8.6820        8.6845       4.368053       0.03864
   8     437.6        4.3336        0.0027        8.5028        8.5055       4.171912       0.04194
   7     480.5        4.3559        0.0029        8.2948        8.2977       3.941845       0.04518
   6     533.0        4.3899        0.0031        8.0209        8.0240       3.634141       0.04950
   5     589.8        4.4372        0.0034        7.7063        7.7097       3.272494       0.05368
   4     651.6        4.5073        0.0036        7.3412        7.3448       2.837543       0.05948
   3     718.7        4.6133        0.0038        6.9387        6.9425       2.329172       0.06389
   2     792.3        4.7825        0.0040        6.5066        6.5106       1.728061       0.06894
   1     891.5        2.4306        3.3738        0.2181        3.5919       1.161304       0.04823
   0    1013.0        2.6037        3.1030        0.1948        3.2978       0.694138       0.03244



 Wavenumbers:  5150. -  6150. cm-1, ATM      1
 LEVEL PRESSURE   UPWARD FLUX   DIFDOWN FLUX  DIRDOWN FLUX  DOWNWARD FLUX   NET FLUX    HEATING RATE
          mb          W/m2          W/m2          W/m2        W/m2          W/m2       degree/day
  51    .06700       10.3729        0.0000       25.5798       25.5798      15.206910       0.00000
  50    .07753       10.3729        0.0000       25.5798       25.5798      15.206871       0.03161
  49    .09103       10.3729        0.0000       25.5797       25.5797      15.206820       0.03210
  48    0.1069       10.3729        0.0000       25.5797       25.5797      15.206758       0.03261
  47    0.1255       10.3729        0.0000       25.5796       25.5796      15.206685       0.03311
  46    0.1487       10.3729        0.0000       25.5795       25.5795      15.206590       0.03488
  45    0.1794       10.3729        0.0000       25.5794       25.5794      15.206454       0.03712
  44    0.2165       10.3729        0.0000       25.5792       25.5792      15.206289       0.03769
  43    0.2613       10.3729        0.0000       25.5790       25.5790      15.206086       0.03826
  42    0.3336       10.3729        0.0000       25.5786       25.5786      15.205739       0.04043
  41    0.4307       10.3729        0.0000       25.5782       25.5782      15.205268       0.04097
  40    0.5894       10.3729        0.0000       25.5774       25.5774      15.204478       0.04198
  39     1.339       10.3729        0.0000       25.5735       25.5736      15.200675       0.04282
  38     1.782       10.3729        0.0001       25.5713       25.5714      15.198460       0.04216
  37     2.292       10.3729        0.0001       25.5688       25.5688      15.195953       0.04152
  36     2.964       10.3729        0.0001       25.5656       25.5657      15.192768       0.03999
  35     3.853       10.3729        0.0001       25.5615       25.5616      15.188718       0.03843
  34     5.035       10.3729        0.0002       25.5562       25.5564      15.183502       0.03726
  33     6.613       10.3729        0.0002       25.5494       25.5496      15.176734       0.03618
  32     8.786       10.3729        0.0003       25.5406       25.5409      15.167961       0.03407
  31     11.80       10.3729        0.0004       25.5287       25.5290      15.156092       0.03323
  30     15.07       10.3730        0.0005       25.5167       25.5172      15.144185       0.03074
  29     18.79       10.3730        0.0006       25.5042       25.5048      15.131730       0.02824
  28     23.16       10.3731        0.0007       25.4907       25.4914      15.118306       0.02596
  27     28.12       10.3732        0.0009       25.4764       25.4773      15.104142       0.02408
  26     33.73       10.3733        0.0011       25.4620       25.4631      15.089772       0.02161
  25     40.54       10.3735        0.0013       25.4463       25.4475      15.074034       0.01952
  24     48.69       10.3738        0.0015       25.4294       25.4309      15.057147       0.01748
  23     57.69       10.3741        0.0018       25.4126       25.4144      15.040346       0.01575
  22     68.43       10.3745        0.0022       25.3944       25.3966      15.022067       0.01437
  21     81.20       10.3751        0.0026       25.3744       25.3770      15.001915       0.01332
  20     96.49       10.3757        0.0030       25.3519       25.3550      14.979231       0.01252
  19     114.6       10.3766        0.0036       25.3262       25.3298      14.953184       0.01216
  18     136.5       10.3776        0.0043       25.2962       25.3005      14.922836       0.01167
  17     162.9       10.3789        0.0051       25.2521       25.2572      14.878238       0.01426
  16     196.4       10.3807        0.0061       25.1593       25.1654      14.784666       0.02355
  15     218.7       10.3820        0.0068       25.0159       25.0227      14.640664       0.05467
  14     243.0       10.3836        0.0075       24.7089       24.7164      14.332733       0.10680
  13     269.0       10.3857        0.0081       24.1619       24.1700      13.784299       0.17791
  12     297.5       10.3885        0.0088       23.4544       23.4632      13.074728       0.21045
  11     328.5       10.3921        0.0095       22.7355       22.7450      12.352894       0.19626
  10     361.9       10.3968        0.0102       21.9224       21.9326      11.535812       0.20673
   9     398.1       10.4031        0.0109       20.9939       21.0048      10.601653       0.21764
   8     437.6       10.4118        0.0115       19.9833       19.9948       9.583005       0.21779
   7     480.5       10.4238        0.0121       18.9483       18.9604       8.536629       0.20550
   6     533.0       10.4440        0.0129       17.7796       17.7925       7.348477       0.19114
   5     589.8       10.4764        0.0136       16.6726       16.6862       6.209738       0.16903
   4     651.6       10.5354        0.0143       15.6343       15.6486       5.113234       0.14995
   3     718.7       10.6430        0.0152       14.7738       14.7890       4.145995       0.12156
   2     792.3       10.8564        0.0161       14.0291       14.0452       3.188756       0.10978
   1     891.5        6.0168        7.8539        0.4803        8.3342       2.317414       0.07415
   0    1013.0        6.2285        7.4448        0.4420        7.8868       1.658225       0.04577



 Wavenumbers:  6150. -  7700. cm-1, ATM      1
 LEVEL PRESSURE   UPWARD FLUX   DIFDOWN FLUX  DIRDOWN FLUX  DOWNWARD FLUX   NET FLUX    HEATING RATE
          mb          W/m2          W/m2          W/m2        W/m2          W/m2       degree/day
  51    .06700       16.1893        0.0000       47.3109       47.3109      31.121592       0.00000
  50    .07753       16.1893        0.0000       47.3108       47.3108      31.121536       0.04553
  49    .09103       16.1893        0.0000       47.3107       47.3107      31.121462       0.04583
  48    0.1069       16.1893        0.0000       47.3106       47.3106      31.121376       0.04614
  47    0.1255       16.1893        0.0000       47.3105       47.3105      31.121273       0.04645
  46    0.1487       16.1893        0.0000       47.3104       47.3104      31.121140       0.04852
  45    0.1794       16.1893        0.0000       47.3102       47.3102      31.120953       0.05127
  44    0.2165       16.1893        0.0000       47.3100       47.3100      31.120726       0.05167
  43    0.2613       16.1893        0.0000       47.3097       47.3097      31.120450       0.05210
  42    0.3336       16.1892        0.0000       47.3092       47.3092      31.119981       0.05471
  41    0.4307       16.1892        0.0000       47.3085       47.3086      31.119346       0.05521
  40    0.5894       16.1892        0.0001       47.3074       47.3075      31.118286       0.05633
  39     1.339       16.1892        0.0002       47.3022       47.3024      31.113194       0.05733
  38     1.782       16.1891        0.0002       47.2991       47.2994      31.110224       0.05655
  37     2.292       16.1891        0.0003       47.2956       47.2959      31.106848       0.05591
  36     2.964       16.1890        0.0004       47.2912       47.2916      31.102530       0.05421
  35     3.853       16.1890        0.0005       47.2855       47.2860      31.096995       0.05252
  34     5.035       16.1889        0.0006       47.2780       47.2787      31.089815       0.05129
  33     6.613       16.1887        0.0009       47.2683       47.2692      31.080427       0.05019
  32     8.786       16.1886        0.0011       47.2556       47.2567      31.068127       0.04777
  31     11.80       16.1883        0.0015       47.2380       47.2396      31.051223       0.04733
  30     15.07       16.1881        0.0019       47.2201       47.2220      31.033936       0.04463
  29     18.79       16.1878        0.0024       47.2008       47.2032      31.015456       0.04190
  28     23.16       16.1874        0.0030       47.1795       47.1825      30.995065       0.03943
  27     28.12       16.1870        0.0036       47.1565       47.1601      30.973070       0.03739
  26     33.73       16.1866        0.0043       47.1324       47.1368      30.950148       0.03446
  25     40.54       16.1861        0.0052       47.1054       47.1106      30.924510       0.03181
  24     48.69       16.1854        0.0063       47.0754       47.0817      30.896255       0.02924
  23     57.69       16.1847        0.0074       47.0449       47.0524      30.867630       0.02683
  22     68.43       16.1839        0.0088       47.0110       47.0198      30.835890       0.02495
  21     81.20       16.1829        0.0104       46.9729       46.9833      30.800392       0.02346
  20     96.49       16.1817        0.0124       46.9294       46.9418      30.760046       0.02227
  19     114.6       16.1803        0.0147       46.8790       46.8937      30.713404       0.02178
  18     136.5       16.1787        0.0175       46.8200       46.8374      30.658770       0.02101
  17     162.9       16.1767        0.0207       46.7361       46.7569      30.580128       0.02514
  16     196.4       16.1744        0.0250       46.5703       46.5952      30.420878       0.04008
  15     218.7       16.1729        0.0277       46.3473       46.3750      30.202055       0.08308
  14     243.0       16.1717        0.0306       45.9299       45.9604      29.788696       0.14337
  13     269.0       16.1711        0.0335       45.1708       45.2042      29.033134       0.24510
  12     297.5       16.1717        0.0363       44.0115       44.0477      27.876093       0.34317
  11     328.5       16.1738        0.0391       42.7242       42.7634      26.589567       0.34980
  10     361.9       16.1784        0.0421       41.3539       41.3960      25.217617       0.34712
   9     398.1       16.1868        0.0450       39.7953       39.8402      23.653432       0.36442
   8     437.6       16.2013        0.0477       37.9948       38.0424      21.841110       0.38749
   7     480.5       16.2248        0.0502       36.0647       36.1150      19.890124       0.38317
   6     533.0       16.2694        0.0530       33.7773       33.8303      17.560901       0.37470
   5     589.8       16.3475        0.0556       31.4082       31.4638      15.116257       0.36287
   4     651.6       16.4984        0.0577       28.8834       28.9411      12.442723       0.36561
   3     718.7       16.7856        0.0596       26.4104       26.4699       9.684367       0.34665
   2     792.3       17.3885        0.0611       24.0056       24.0667       6.678263       0.34477
   1     891.5        8.8075       12.1922        0.7799       12.9722       4.164701       0.21389
   0    1013.0        9.3513       11.1591        0.6837       11.8428       2.491503       0.11618



 Wavenumbers:  7700. -  8050. cm-1, ATM      1
 LEVEL PRESSURE   UPWARD FLUX   DIFDOWN FLUX  DIRDOWN FLUX  DOWNWARD FLUX   NET FLUX    HEATING RATE
          mb          W/m2          W/m2          W/m2        W/m2          W/m2       degree/day
  51    .06700        7.7692        0.0000       11.1810       11.1810       3.411802       0.00000
  50    .07753        7.7692        0.0000       11.1809       11.1809       3.411779       0.01853
  49    .09103        7.7692        0.0000       11.1809       11.1809       3.411750       0.01816
  48    0.1069        7.7692        0.0000       11.1809       11.1809       3.411716       0.01778
  47    0.1255        7.7692        0.0000       11.1809       11.1809       3.411678       0.01740
  46    0.1487        7.7692        0.0000       11.1808       11.1808       3.411629       0.01766
  45    0.1794        7.7692        0.0000       11.1808       11.1808       3.411563       0.01817
  44    0.2165        7.7692        0.0000       11.1807       11.1807       3.411485       0.01782
  43    0.2613        7.7693        0.0000       11.1806       11.1806       3.411392       0.01749
  42    0.3336        7.7693        0.0000       11.1805       11.1805       3.411239       0.01789
  41    0.4307        7.7693        0.0000       11.1803       11.1804       3.411035       0.01770
  40    0.5894        7.7694        0.0000       11.1801       11.1801       3.410703       0.01768
  39     1.339        7.7698        0.0001       11.1788       11.1789       3.409130       0.01771
  38     1.782        7.7700        0.0001       11.1781       11.1782       3.408206       0.01759
  37     2.292        7.7702        0.0001       11.1772       11.1773       3.407136       0.01771
  36     2.964        7.7705        0.0002       11.1761       11.1763       3.405732       0.01763
  35     3.853        7.7709        0.0002       11.1746       11.1748       3.403877       0.01761
  34     5.035        7.7715        0.0003       11.1726       11.1729       3.401412       0.01761
  33     6.613        7.7722        0.0004       11.1700       11.1703       3.398120       0.01760
  32     8.786        7.7732        0.0005       11.1664       11.1669       3.393685       0.01723
  31     11.80        7.7747        0.0007       11.1613       11.1620       3.387342       0.01776
  30     15.07        7.7762        0.0009       11.1558       11.1567       3.380537       0.01757
  29     18.79        7.7779        0.0011       11.1497       11.1508       3.372856       0.01742
  28     23.16        7.7800        0.0014       11.1425       11.1439       3.363893       0.01733
  27     28.12        7.7823        0.0017       11.1343       11.1360       3.353656       0.01740
  26     33.73        7.7850        0.0020       11.1252       11.1272       3.342218       0.01720
  25     40.54        7.7882        0.0024       11.1142       11.1166       3.328426       0.01711
  24     48.69        7.7921        0.0029       11.1010       11.1039       3.311837       0.01717
  23     57.69        7.7964        0.0034       11.0866       11.0900       3.293667       0.01703
  22     68.43        7.8015        0.0041       11.0695       11.0736       3.272099       0.01696
  21     81.20        7.8077        0.0048       11.0494       11.0542       3.246506       0.01691
  20     96.49        7.8151        0.0057       11.0255       11.0312       3.216156       0.01675
  19     114.6        7.8240        0.0068       10.9975       11.0043       3.180323       0.01673
  18     136.5        7.8347        0.0080       10.9648       10.9728       3.138129       0.01622
  17     162.9        7.8476        0.0095       10.9263       10.9358       3.088251       0.01594
  16     196.4        7.8646        0.0115       10.8773       10.8887       3.024122       0.01614
  15     218.7        7.8760        0.0128       10.8455       10.8583       2.982291       0.01588
  14     243.0        7.8886        0.0141       10.8114       10.8256       2.937007       0.01571
  13     269.0        7.9025        0.0156       10.7749       10.7905       2.888062       0.01588
  12     297.5        7.9178        0.0173       10.7357       10.7530       2.835174       0.01569
  11     328.5        7.9348        0.0190       10.6937       10.7127       2.777964       0.01556
  10     361.9        7.9536        0.0209       10.6489       10.6698       2.716133       0.01564
   9     398.1        7.9746        0.0229       10.6008       10.6237       2.649081       0.01562
   8     437.6        7.9981        0.0251       10.5491       10.5742       2.576055       0.01561
   7     480.5        8.0245        0.0274       10.4934       10.5209       2.496348       0.01565
   6     533.0        8.0589        0.0303       10.4243       10.4546       2.395636       0.01620
   5     589.8        8.0991        0.0334       10.3479       10.3813       2.282186       0.01684
   4     651.6        8.1473        0.0367       10.2613       10.2980       2.150760       0.01797
   3     718.7        8.2063        0.0402       10.1618       10.2019       1.995633       0.01950
   2     792.3        8.2814        0.0439       10.0439       10.0878       1.806417       0.02170
   1     891.5        4.9400        6.1664        0.3621        6.5285       1.588542       0.01854
   0    1013.0        5.0445        6.0341        0.3528        6.3869       1.342492       0.01708



 Wavenumbers:  8050. - 12850. cm-1, ATM      1
 LEVEL PRESSURE   UPWARD FLUX   DIFDOWN FLUX  DIRDOWN FLUX  DOWNWARD FLUX   NET FLUX    HEATING RATE
          mb          W/m2          W/m2          W/m2        W/m2          W/m2       degree/day
  51    .06700       99.2289        0.0000      156.5418      156.5418      57.312876       0.00000
  50    .07753       99.2289        0.0000      156.5417      156.5417      57.312876      -0.00000
  49    .09103       99.2288        0.0001      156.5417      156.5417      57.312876       0.00000
  48    0.1069       99.2288        0.0001      156.5416      156.5417      57.312876       0.00000
  47    0.1255       99.2288        0.0002      156.5415      156.5417      57.312876      -0.00000
  46    0.1487       99.2288        0.0002      156.5414      156.5417      57.312876       0.00000
  45    0.1794       99.2288        0.0003      156.5413      156.5416      57.312876       0.00000
  44    0.2165       99.2287        0.0004      156.5412      156.5416      57.312876      -0.00000
  43    0.2613       99.2287        0.0006      156.5410      156.5415      57.312876       0.00000
  42    0.3336       99.2286        0.0008      156.5407      156.5415      57.312876      -0.00000
  41    0.4307       99.2285        0.0011      156.5403      156.5414      57.312876       0.00000
  40    0.5894       99.2283        0.0015      156.5397      156.5412      57.312876       0.00000
  39     1.339       99.2275        0.0037      156.5367      156.5404      57.312876      -0.00000
  38     1.782       99.2270        0.0049      156.5350      156.5399      57.312876      -0.00000
  37     2.292       99.2265        0.0064      156.5330      156.5394      57.312876       0.00000
  36     2.964       99.2258        0.0083      156.5303      156.5387      57.312876       0.00000
  35     3.853       99.2248        0.0109      156.5268      156.5377      57.312876       0.00000
  34     5.035       99.2236        0.0143      156.5222      156.5365      57.312876       0.00000
  33     6.613       99.2219        0.0188      156.5160      156.5348      57.312876       0.00000
  32     8.786       99.2197        0.0249      156.5076      156.5325      57.312876      -0.00000
  31     11.80       99.2164        0.0336      156.4957      156.5293      57.312876      -0.00000
  30     15.07       99.2129        0.0430      156.4828      156.5258      57.312876       0.00000
  29     18.79       99.2090        0.0537      156.4682      156.5219      57.312876      -0.00000
  28     23.16       99.2044        0.0661      156.4512      156.5173      57.312876      -0.00000
  27     28.12       99.1991        0.0803      156.4317      156.5120      57.312876      -0.00000
  26     33.73       99.1932        0.0962      156.4099      156.5061      57.312876       0.00000
  25     40.54       99.1861        0.1155      156.3834      156.4989      57.312876       0.00000
  24     48.69       99.1774        0.1388      156.3515      156.4903      57.312876      -0.00000
  23     57.69       99.1679        0.1644      156.3164      156.4808      57.312876       0.00000
  22     68.43       99.1566        0.1949      156.2746      156.4695      57.312876       0.00000
  21     81.20       99.1431        0.2314      156.2246      156.4560      57.312876      -0.00000
  20     96.49       99.1270        0.2749      156.1649      156.4398      57.312876       0.00000
  19     114.6       99.1080        0.3267      156.0879      156.4146      57.306628       0.00292
  18     136.5       99.0854        0.3881      155.9962      156.3843      57.298879       0.00298
  17     162.9       99.0585        0.4615      155.8831      156.3446      57.286026       0.00411
  16     196.4       99.0237        0.5569      155.7199      156.2769      57.253112       0.00828
  15     218.7       99.0012        0.6197      155.5733      156.1930      57.191747       0.02330
  14     243.0       98.9777        0.6879      155.3367      156.0245      57.046869       0.05025
  13     269.0       98.9544        0.7616      154.9514      155.7130      56.758633       0.09350
  12     297.5       98.9337        0.8410      154.3896      155.2307      56.296975       0.13692
  11     328.5       98.9169        0.9267      153.7151      154.6418      55.724860       0.15556
  10     361.9       98.9072        1.0186      152.9087      153.9273      55.020175       0.17829
   9     398.1       98.9095        1.1169      151.8986      153.0155      54.106050       0.21297
   8     437.6       98.9326        1.2215      150.6031      151.8246      52.892056       0.25956
   7     480.5       98.9871        1.3320      149.0014      150.3334      51.346370       0.30357
   6     533.0       99.1106        1.4658      146.7375      148.2033      49.092759       0.36253
   5     589.8       99.3487        1.6059      143.8730      145.4789      46.130197       0.43974
   4     651.6       99.8299        1.7496      140.0955      141.8451      42.015204       0.56274
   3     718.7      100.7425        1.8953      135.5278      137.4231      36.680568       0.67042
   2     792.3      102.5568        2.0395      130.0690      132.1085      29.551635       0.81761
   1     891.5       57.0372       74.6745        4.4860       79.1605      22.123331       0.63211
   0    1013.0       59.2773       70.9042        4.1489       75.0532      15.775856       0.44074



 Wavenumbers: 12850. - 16000. cm-1, ATM      1
 LEVEL PRESSURE   UPWARD FLUX   DIFDOWN FLUX  DIRDOWN FLUX  DOWNWARD FLUX   NET FLUX    HEATING RATE
          mb          W/m2          W/m2          W/m2        W/m2          W/m2       degree/day
  51    .06700       77.5282        0.0000       98.0872       98.0872      20.559067       0.00000
  50    .07753       77.5282        0.0001       98.0864       98.0864      20.558275       0.63458
  49    .09103       77.5282        0.0002       98.0853       98.0854      20.557280       0.62152
  48    0.1069       77.5282        0.0003       98.0841       98.0843      20.556138       0.60821
  47    0.1255       77.5282        0.0004       98.0826       98.0830      20.554825       0.59520
  46    0.1487       77.5282        0.0005       98.0809       98.0814      20.553168       0.60401
  45    0.1794       77.5283        0.0007       98.0784       98.0792      20.550914       0.61888
  44    0.2165       77.5283        0.0010       98.0756       98.0766      20.548261       0.60331
  43    0.2613       77.5284        0.0012       98.0723       98.0736      20.545142       0.58796
  42    0.3336       77.5287        0.0017       98.0670       98.0687      20.540050       0.59364
  41    0.4307       77.5291        0.0023       98.0602       98.0625      20.533465       0.57259
  40    0.5894       77.5298        0.0033       98.0496       98.0529      20.523086       0.55196
  39     1.339       77.5364        0.0081       98.0043       98.0125      20.476022       0.52985
  38     1.782       77.5425        0.0109       97.9793       97.9902      20.447747       0.53831
  37     2.292       77.5514        0.0142       97.9498       97.9639      20.412518       0.58350
  36     2.964       77.5663        0.0184       97.9088       97.9272      20.360973       0.64704
  35     3.853       77.5902        0.0241       97.8503       97.8744      20.284197       0.72862
  34     5.035       77.6262        0.0315       97.7680       97.7995      20.173289       0.79228
  33     6.613       77.6765        0.0415       97.6562       97.6977      20.021164       0.81326
  32     8.786       77.7420        0.0549       97.5107       97.5656      19.823584       0.76733
  31     11.80       77.8273        0.0741       97.3179       97.3920      19.564679       0.72485
  30     15.07       77.9091        0.0947       97.1283       97.2230      19.313974       0.64727
  29     18.79       77.9926        0.1180       96.9300       97.0480      19.055363       0.58635
  28     23.16       78.0800        0.1451       96.7166       96.8616      18.781622       0.52933
  27     28.12       78.1681        0.1761       96.4935       96.6695      18.501461       0.47626
  26     33.73       78.2497        0.2108       96.2731       96.4838      18.234183       0.40186
  25     40.54       78.3285        0.2527       96.0408       96.2934      17.964907       0.33407
  24     48.69       78.4045        0.3032       95.7946       96.0978      17.693258       0.28111
  23     57.69       78.4695        0.3587       95.5573       95.9160      17.446519       0.23128
  22     68.43       78.5268        0.4248       95.3106       95.7355      17.208665       0.18699
  21     81.20       78.5677        0.5038       95.0643       95.5681      17.000436       0.13759
  20     96.49       78.5910        0.5979       94.8153       95.4132      16.822160       0.09840
  19     114.6       78.6181        0.7108       94.5411       95.2518      16.633721       0.08799
  18     136.5       78.6392        0.8446       94.2320       95.0766      16.437428       0.07548
  17     162.9       78.6542        1.0039       93.8753       94.8792      16.225000       0.06790
  16     196.4       78.6522        1.2105       93.4347       94.6451      15.992934       0.05841
  15     218.7       78.6433        1.3462       93.1513       94.4974      15.854120       0.05270
  14     243.0       78.6306        1.4936       92.8439       94.3376      15.706992       0.05103
  13     269.0       78.6140        1.6534       92.5111       94.1645      15.550532       0.05076
  12     297.5       78.5943        1.8261       92.1495       93.9756      15.381247       0.05021
  11     328.5       78.5736        2.0126       91.7554       93.7680      15.194443       0.05079
  10     361.9       78.5529        2.2135       91.3262       93.5397      14.986762       0.05255
   9     398.1       78.5340        2.4296       90.8575       93.2871      14.753101       0.05444
   8     437.6       78.5202        2.6615       90.3418       93.0033      14.483134       0.05772
   7     480.5       78.5147        2.9099       89.7728       92.6827      14.167964       0.06190
   6     533.0       78.5262        3.2153       89.0428       92.2581      13.731931       0.07014
   5     589.8       78.5719        3.5434       88.2038       91.7472      13.175236       0.08263
   4     651.6       78.6892        3.8938       87.1979       91.0917      12.402584       0.10566
   3     718.7       78.9061        4.2651       86.0161       90.2812      11.375112       0.12912
   2     792.3       79.3078        4.6533       84.5970       89.2504       9.942588       0.16429
   1     891.5       56.9832       62.1174        3.0281       65.1456       8.162343       0.15149
   0    1013.0       57.8679       61.0147        2.9246       63.9393       6.071403       0.14518



 Wavenumbers: 16000. - 22650. cm-1, ATM      1
 LEVEL PRESSURE   UPWARD FLUX   DIFDOWN FLUX  DIRDOWN FLUX  DOWNWARD FLUX   NET FLUX    HEATING RATE
          mb          W/m2          W/m2          W/m2        W/m2          W/m2       degree/day
  51    .06700      140.5329        0.0000      156.3892      156.3892      15.856359       0.00000
  50    .07753      140.5329        0.0004      156.3887      156.3891      15.856212       0.11812
  49    .09103      140.5328        0.0009      156.3879      156.3888      15.855998       0.13398
  48    0.1069      140.5328        0.0015      156.3871      156.3885      15.855711       0.15278
  47    0.1255      140.5329        0.0021      156.3861      156.3882      15.855327       0.17415
  46    0.1487      140.5329        0.0030      156.3847      156.3877      15.854760       0.20636
  45    0.1794      140.5330        0.0041      156.3828      156.3869      15.853875       0.24298
  44    0.2165      140.5332        0.0054      156.3805      156.3859      15.852675       0.27308
  43    0.2613      140.5336        0.0070      156.3776      156.3846      15.851046       0.30701
  42    0.3336      140.5343        0.0096      156.3726      156.3823      15.847950       0.36104
  41    0.4307      140.5356        0.0131      156.3657      156.3788      15.843282       0.40584
  40    0.5894      140.5381        0.0188      156.3537      156.3725      15.834380       0.47340
  39     1.339      140.5606        0.0458      156.2834      156.3292      15.768611       0.74044
  38     1.782      140.5814        0.0616      156.2324      156.2940      15.712583       1.06667
  37     2.292      140.6125        0.0799      156.1641      156.2440      15.631483       1.34323
  36     2.964      140.6644        0.1040      156.0605      156.1645      15.500101       1.64925
  35     3.853      140.7482        0.1357      155.9041      156.0398      15.291629       1.97844
  34     5.035      140.8746        0.1778      155.6774      155.8552      14.980606       2.22182
  33     6.613      141.0513        0.2340      155.3656      155.5996      14.548376       2.31070
  32     8.786      141.2814        0.3097      154.9577      155.2673      13.985952       2.18425
  31     11.80      141.5809        0.4177      154.4153      154.8330      13.252139       2.05444
  30     15.07      141.8677        0.5336      153.8804      154.4140      12.546242       1.82249
  29     18.79      142.1606        0.6642      153.3191      153.9833      11.822770       1.64033
  28     23.16      142.4666        0.8166      152.7126      153.5292      11.062595       1.46993
  27     28.12      142.7745        0.9906      152.0755      153.0661      10.291660       1.31054
  26     33.73      143.0586        1.1852      151.4409      152.6261       9.567528       1.08875
  25     40.54      143.3318        1.4200      150.7637      152.1837       8.851833       0.88790
  24     48.69      143.5933        1.7028      150.0338      151.7366       8.143293       0.73323
  23     57.69      143.8148        2.0130      149.3151      151.3282       7.513337       0.59049
  22     68.43      144.0078        2.3822      148.5476      150.9298       6.921981       0.46488
  21     81.20      144.1405        2.8217      147.7517      150.5733       6.432797       0.32325
  20     96.49      144.2085        3.3448      146.9127      150.2575       6.048916       0.21188
  19     114.6      144.2430        3.9642      145.9763      149.9405       5.697481       0.16410
  18     136.5      144.2525        4.6955      144.9088      149.6043       5.351764       0.13294
  17     162.9      144.2354        5.5623      143.6785      149.2409       5.005460       0.11069
  16     196.4      144.1518        6.6807      142.1651      148.8458       4.693999       0.07840
  15     218.7      144.0744        7.4116      141.2033      148.6149       4.540558       0.05826
  14     243.0      143.9799        8.2026      140.1753      148.3780       4.398039       0.04943
  13     269.0      143.8668        9.0560      139.0797      148.1357       4.268847       0.04191
  12     297.5      143.7345        9.9738      137.9141      147.8878       4.153350       0.03426
  11     328.5      143.5869       10.9602      136.6676      147.6278       4.040920       0.03057
  10     361.9      143.4237       12.0162      135.3392      147.3554       3.931687       0.02764
   9     398.1      143.2446       13.1459      133.9235      147.0694       3.824742       0.02492
   8     437.6      143.0505       14.3512      132.4163      146.7674       3.716918       0.02305
   7     480.5      142.8410       15.6342      130.8147      146.4489       3.607896       0.02141
   6     533.0      142.5834       17.2013      128.8599      146.0612       3.477778       0.02093
   5     589.8      142.3101       18.8756      126.7679      145.6436       3.333471       0.02142
   4     651.6      142.0276       20.6588      124.5274      145.1862       3.158598       0.02391
   3     718.7      141.7426       22.5525      122.1285      144.6810       2.938405       0.02767
   2     792.3      141.4725       24.5547      119.5548      144.1095       2.637041       0.03456
   1     891.5      120.5866      118.5084        4.2615      122.7699       2.183287       0.03861
   0    1013.0      120.8511      118.2914        4.1067      122.3981       1.547064       0.04418



 Wavenumbers: 22650. - 29000. cm-1, ATM      1
 LEVEL PRESSURE   UPWARD FLUX   DIFDOWN FLUX  DIRDOWN FLUX  DOWNWARD FLUX   NET FLUX    HEATING RATE
          mb          W/m2          W/m2          W/m2        W/m2          W/m2       degree/day
  51    .06700       58.3963        0.0000       59.0156       59.0156       0.619341       0.00000
  50    .07753       58.3962        0.0005       59.0151       59.0155       0.619341      -0.00000
  49    .09103       58.3961        0.0010       59.0144       59.0154       0.619341       0.00000
  48    0.1069       58.3959        0.0017       59.0136       59.0153       0.619341       0.00000
  47    0.1255       58.3958        0.0025       59.0127       59.0151       0.619341       0.00000
  46    0.1487       58.3956        0.0034       59.0115       59.0149       0.619341       0.00000
  45    0.1794       58.3953        0.0048       59.0099       59.0147       0.619341      -0.00000
  44    0.2165       58.3950        0.0063       59.0080       59.0144       0.619341       0.00000
  43    0.2613       58.3947        0.0082       59.0058       59.0140       0.619341      -0.00000
  42    0.3336       58.3941        0.0113       59.0022       59.0134       0.619341       0.00000
  41    0.4307       58.3933        0.0153       58.9973       59.0126       0.619341       0.00000
  40    0.5894       58.3920        0.0220       58.9894       59.0113       0.619341      -0.00000
  39     1.339       58.3859        0.0534       58.9518       59.0052       0.619341       0.00000
  38     1.782       58.3823        0.0719       58.9297       59.0016       0.619341      -0.00000
  37     2.292       58.3781        0.0933       58.9042       58.9974       0.619341       0.00000
  36     2.964       58.3726        0.1213       58.8706       58.9920       0.619341       0.00000
  35     3.853       58.3654        0.1584       58.8264       58.9847       0.619341      -0.00000
  34     5.035       58.3558        0.2076       58.7676       58.9752       0.619341       0.00000
  33     6.613       58.3430        0.2733       58.6891       58.9624       0.619341       0.00000
  32     8.786       58.3258        0.3617       58.5834       58.9451       0.619341      -0.00000
  31     11.80       58.3012        0.4880       58.4324       58.9205       0.619341       0.00000
  30     15.07       58.2748        0.6235       58.2706       58.8941       0.619341      -0.00000
  29     18.79       58.2450        0.7761       58.0882       58.8643       0.619341       0.00000
  28     23.16       58.2103        0.9540       57.8757       58.8297       0.619341      -0.00000
  27     28.12       58.1708        1.1568       57.6333       58.7901       0.619341       0.00000
  26     33.73       58.1267        1.3830       57.3631       58.7460       0.619341       0.00000
  25     40.54       58.0736        1.6551       57.0379       58.6930       0.619341       0.00000
  24     48.69       58.0100        1.9814       56.6479       58.6293       0.619341      -0.00000
  23     57.69       57.9404        2.3377       56.2221       58.5598       0.619341       0.00000
  22     68.43       57.8582        2.7590       55.7186       58.4776       0.619341      -0.00000
  21     81.20       57.7611        3.2565       55.1239       58.3804       0.619341      -0.00000
  20     96.49       57.6465        3.8431       54.4228       58.2659       0.619341       0.00000
  19     114.6       57.5122        4.5306       53.6010       58.1316       0.619341       0.00000
  18     136.5       57.3554        5.3330       52.6418       57.9747       0.619341       0.00000
  17     162.9       57.1719        6.2709       51.5203       57.7913       0.619341      -0.00000
  16     196.4       56.9393        7.4592       50.0994       57.5586       0.619341       0.00000
  15     218.7       56.7897        8.2228       49.1863       57.4090       0.619341       0.00000
  14     243.0       56.6299        9.0380       48.2113       57.2492       0.619341       0.00000
  13     269.0       56.4599        9.9043       47.1749       57.0793       0.619341      -0.00000
  12     297.5       56.2799       10.8210       46.0783       56.8993       0.619341       0.00000
  11     328.5       56.0896       11.7894       44.9195       56.7090       0.619341      -0.00000
  10     361.9       55.8894       12.8069       43.7018       56.5088       0.619341       0.00000
   9     398.1       55.6794       13.8737       42.4250       56.2987       0.619341      -0.00000
   8     437.6       55.4597       14.9874       41.0916       56.0791       0.619341       0.00000
   7     480.5       55.2310       16.1459       39.7045       55.8503       0.619341      -0.00000
   6     533.0       54.9585       17.5236       38.0543       55.5778       0.619341       0.00000
   5     589.8       54.6754       18.9517       36.3431       55.2948       0.619341       0.00000
   4     651.6       54.3832       20.4230       34.5795       55.0025       0.619341      -0.00000
   3     718.7       54.0827       21.9318       32.7702       54.7020       0.619341      -0.00000
   2     792.3       53.7756       23.4693       30.9256       54.3949       0.619341       0.00000
   1     891.5       48.2961       47.8652        1.0500       48.9152       0.619037       0.00003
   0    1013.0       48.2592       47.9243        0.9540       48.8783       0.619037       0.00000



 Wavenumbers: 29000. - 38000. cm-1, ATM      1
 LEVEL PRESSURE   UPWARD FLUX   DIFDOWN FLUX  DIRDOWN FLUX  DOWNWARD FLUX   NET FLUX    HEATING RATE
          mb          W/m2          W/m2          W/m2        W/m2          W/m2       degree/day
  51    .06700        8.7407        0.0000       20.8114       20.8114      12.070683       0.00000
  50    .07753        8.7405        0.0003       20.8070       20.8074      12.066876       3.05153
  49    .09103        8.7403        0.0007       20.8009       20.8016      12.061339       3.46082
  48    0.1069        8.7400        0.0012       20.7928       20.7939      12.053929       3.94426
  47    0.1255        8.7397        0.0017       20.7820       20.7837      12.044024       4.49030
  46    0.1487        8.7394        0.0024       20.7665       20.7688      12.029461       5.30840
  45    0.1794        8.7389        0.0033       20.7424       20.7457      12.006796       6.22199
  44    0.2165        8.7384        0.0044       20.7103       20.7147      11.976274       6.94334
  43    0.2613        8.7378        0.0056       20.6675       20.6731      11.935279       7.72726
  42    0.3336        8.7369        0.0077       20.5880       20.5956      11.858719       8.92617
  41    0.4307        8.7358        0.0104       20.4722       20.4826      11.746768       9.73393
  40    0.5894        8.7343        0.0147       20.2637       20.2784      11.544086      10.77836
  39     1.339        8.7309        0.0331       19.0984       19.1315      10.400624      12.87330
  38     1.782        8.7313        0.0427       18.4394       18.4820       9.750713      12.37327
  37     2.292        8.7340        0.0530       17.7714       17.8244       9.090386      10.93673
  36     2.964        8.7405        0.0657       17.0421       17.1078       8.367291       9.07703
  35     3.853        8.7533        0.0816       16.2678       16.3494       7.596157       7.31821
  34     5.035        8.7743        0.1017       15.4803       15.5820       6.807728       5.63221
  33     6.613        8.8049        0.1275       14.7157       14.8432       6.038236       4.11371
  32     8.786        8.8454        0.1612       13.9936       14.1548       5.309404       2.83052
  31     11.80        8.8982        0.2083       13.2835       13.4918       4.593593       2.00405
  30     15.07        8.9491        0.2570       12.7394       12.9964       4.047264       1.41052
  29     18.79        9.0017        0.3111       12.2666       12.5777       3.575964       1.06858
  28     23.16        9.0576        0.3726       11.8300       12.2026       3.144978       0.83339
  27     28.12        9.1148        0.4414       11.4279       11.8693       2.754439       0.66389
  26     33.73        9.1676        0.5173       11.0695       11.5867       2.419076       0.50423
  25     40.54        9.2177        0.6079       10.7209       11.3288       2.111047       0.38214
  24     48.69        9.2650        0.7154       10.3742       11.0896       1.824627       0.29640
  23     57.69        9.3038        0.8318       10.0549       10.8867       1.582985       0.22650
  22     68.43        9.3351        0.9684        9.7327       10.7011       1.366056       0.17054
  21     81.20        9.3500        1.1296        9.4134       10.5431       1.193078       0.11430
  20     96.49        9.3465        1.3192        9.0887       10.4079       1.061402       0.07268
  19     114.6        9.3327        1.5382        8.7388       10.2769       0.944194       0.05473
  18     136.5        9.3117        1.7885        8.3549       10.1434       0.831731       0.04324
  17     162.9        9.2834        2.0739        7.9311       10.0050       0.721617       0.03520
  16     196.4        9.2359        2.4273        7.4333        9.8606       0.624696       0.02440
  15     218.7        9.2018        2.6497        7.1295        9.7792       0.577426       0.01795
  14     243.0        9.1643        2.8820        6.8161        9.6981       0.533777       0.01514
  13     269.0        9.1234        3.1237        6.4943        9.6180       0.494584       0.01271
  12     297.5        9.0791        3.3734        6.1657        9.5392       0.460035       0.01025
  11     328.5        9.0329        3.6304        5.8295        9.4598       0.426957       0.00899
  10     361.9        8.9851        3.8920        5.4886        9.3806       0.395499       0.00796
   9     398.1        8.9359        4.1576        5.1440        9.3016       0.365687       0.00695
   8     437.6        8.8859        4.4260        4.7969        9.2229       0.336948       0.00614
   7     480.5        8.8354        4.6947        4.4504        9.1451       0.309670       0.00536
   6     533.0        8.7774        5.0011        4.0563        9.0574       0.279933       0.00478
   5     589.8        8.7202        5.3032        3.6682        8.9714       0.251142       0.00427
   4     651.6        8.6647        5.5972        3.2905        8.8877       0.222974       0.00385
   3     718.7        8.6114        5.8816        2.9252        8.8068       0.195386       0.00347
   2     792.3        8.5611        6.1530        2.5764        8.7294       0.168382       0.00310
   1     891.5        7.9977        8.0549        0.0795        8.1345       0.136815       0.00269
   0    1013.0        8.0032        8.0417        0.0644        8.1060       0.102831       0.00236



 Wavenumbers: 38000. - 50000. cm-1, ATM      1
 LEVEL PRESSURE   UPWARD FLUX   DIFDOWN FLUX  DIRDOWN FLUX  DOWNWARD FLUX   NET FLUX    HEATING RATE
          mb          W/m2          W/m2          W/m2        W/m2          W/m2       degree/day
  51    .06700        0.0061        0.0000        1.2836        1.2836       1.277518       0.00000
  50    .07753        0.0061        0.0001        1.2812        1.2812       1.275183       1.87150
  49    .09103        0.0060        0.0002        1.2777        1.2778       1.271851       2.08247
  48    0.1069        0.0059        0.0002        1.2731        1.2734       1.267473       2.33059
  47    0.1255        0.0058        0.0004        1.2672        1.2675       1.261717       2.60908
  46    0.1487        0.0057        0.0005        1.2586        1.2591       1.253391       3.03499
  45    0.1794        0.0055        0.0007        1.2455        1.2462       1.240623       3.50520
  44    0.2165        0.0054        0.0009        1.2282        1.2291       1.223697       3.85037
  43    0.2613        0.0052        0.0011        1.2054        1.2065       1.201348       4.21261
  42    0.3336        0.0049        0.0015        1.1639        1.1654       1.160524       4.75970
  41    0.4307        0.0045        0.0020        1.1051        1.1070       1.102565       5.03943
  40    0.5894        0.0039        0.0026        1.0039        1.0064       1.002524       5.32007
  39     1.339        0.0022        0.0035        0.5438        0.5473       0.545104       5.14971
  38     1.782        0.0016        0.0032        0.3635        0.3666       0.365006       3.42879
  37     2.292        0.0012        0.0027        0.2356        0.2383       0.237058       2.11916
  36     2.964        0.0009        0.0022        0.1455        0.1477       0.146786       1.13318
  35     3.853        0.0006        0.0017        0.0858        0.0875       0.086906       0.56828
  34     5.035        0.0004        0.0013        0.0488        0.0501       0.049701       0.26578
  33     6.613        0.0003        0.0010        0.0273        0.0282       0.027974       0.11615
  32     8.786        0.0002        0.0007        0.0144        0.0151       0.014928       0.05067
  31     11.80        0.0001        0.0004        0.0065        0.0070       0.006903       0.02247
  30     15.07        0.0000        0.0003        0.0031        0.0034       0.003329       0.00923
  29     18.79        0.0000        0.0002        0.0014        0.0016       0.001583       0.00396
  28     23.16        0.0000        0.0001        0.0006        0.0007       0.000720       0.00167
  27     28.12        0.0000        0.0001        0.0003        0.0003       0.000317       0.00069
  26     33.73        0.0000        0.0000        0.0001        0.0001       0.000140       0.00027
  25     40.54        0.0000        0.0000        0.0000        0.0001       0.000057       0.00010
  24     48.69        0.0000        0.0000        0.0000        0.0000       0.000021       0.00004
  23     57.69        0.0000        0.0000        0.0000        0.0000       0.000008       0.00001
  22     68.43        0.0000        0.0000        0.0000        0.0000       0.000003       0.00000
  21     81.20        0.0000        0.0000        0.0000        0.0000       0.000001       0.00000
  20     96.49        0.0000        0.0000        0.0000        0.0000       0.000000       0.00000
  19     114.6        0.0000        0.0000        0.0000        0.0000       0.000000       0.00000
  18     136.5        0.0000        0.0000        0.0000        0.0000       0.000000       0.00000
  17     162.9        0.0000        0.0000        0.0000        0.0000       0.000000       0.00000
  16     196.4        0.0000        0.0000        0.0000        0.0000       0.000000       0.00000
  15     218.7        0.0000        0.0000        0.0000        0.0000       0.000000       0.00000
  14     243.0        0.0000        0.0000        0.0000        0.0000       0.000000       0.00000
  13     269.0        0.0000        0.0000        0.0000        0.0000       0.000000       0.00000
  12     297.5        0.0000        0.0000        0.0000        0.0000       0.000000       0.00000
  11     328.5        0.0000        0.0000        0.0000        0.0000       0.000000       0.00000
  10     361.9        0.0000        0.0000        0.0000        0.0000       0.000000       0.00000
   9     398.1        0.0000        0.0000        0.0000        0.0000       0.000000       0.00000
   8     437.6        0.0000        0.0000        0.0000        0.0000       0.000000       0.00000
   7     480.5        0.0000        0.0000        0.0000        0.0000       0.000000       0.00000
   6     533.0        0.0000        0.0000        0.0000        0.0000       0.000000       0.00000
   5     589.8        0.0000        0.0000        0.0000        0.0000       0.000000       0.00000
   4     651.6        0.0000        0.0000        0.0000        0.0000       0.000000       0.00000
   3     718.7        0.0000        0.0000        0.0000        0.0000       0.000000       0.00000
   2     792.3        0.0000        0.0000        0.0000        0.0000       0.000000       0.00000
   1     891.5        0.0000        0.0000        0.0000        0.0000       0.000000       0.00000
   0    1013.0        0.0000        0.0000        0.0000        0.0000       0.000000       0.00000



 Wavenumbers:   820. -  2600. cm-1, ATM      1
 LEVEL PRESSURE   UPWARD FLUX   DIFDOWN FLUX  DIRDOWN FLUX  DOWNWARD FLUX   NET FLUX    HEATING RATE
          mb          W/m2          W/m2          W/m2        W/m2          W/m2       degree/day
  51    .06700        1.2959        0.0000        6.0047        6.0047       4.708798       0.00000
  50    .07753        1.2959        0.0000        6.0008        6.0008       4.704945       3.08823
  49    .09103        1.2959        0.0000        5.9999        5.9999       4.704060       0.55360
  48    0.1069        1.2959        0.0000        5.9989        5.9989       4.703070       0.52655
  47    0.1255        1.2959        0.0000        5.9978        5.9978       4.701953       0.50652
  46    0.1487        1.2959        0.0000        5.9964        5.9964       4.700596       0.49459
  45    0.1794        1.2959        0.0000        5.9947        5.9947       4.698877       0.47203
  44    0.2165        1.2959        0.0000        5.9929        5.9929       4.697034       0.41913
  43    0.2613        1.2959        0.0000        5.9909        5.9909       4.695075       0.36936
  42    0.3336        1.2959        0.0000        5.9880        5.9880       4.692196       0.33559
  41    0.4307        1.2959        0.0000        5.9846        5.9846       4.688727       0.30168
  40    0.5894        1.2959        0.0000        5.9791        5.9791       4.683221       0.29279
  39     1.339        1.2959        0.0000        5.9536        5.9536       4.657731       0.28697
  38     1.782        1.2959        0.0000        5.9395        5.9395       4.643591       0.26921
  37     2.292        1.2959        0.0000        5.9237        5.9237       4.627837       0.26092
  36     2.964        1.2959        0.0000        5.9039        5.9039       4.608060       0.24826
  35     3.853        1.2959        0.0000        5.8793        5.8793       4.583401       0.23403
  34     5.035        1.2959        0.0000        5.8487        5.8487       4.552833       0.21836
  33     6.613        1.2959        0.0000        5.8108        5.8108       4.514862       0.20299
  32     8.786        1.2959        0.0000        5.7631        5.7631       4.467229       0.18499
  31     11.80        1.2959        0.0000        5.7039        5.7039       4.407959       0.16594
  30     15.07        1.2960        0.0000        5.6539        5.6539       4.357905       0.12923
  29     18.79        1.2960        0.0000        5.6127        5.6127       4.316752       0.09331
  28     23.16        1.2960        0.0000        5.5794        5.5794       4.283354       0.06458
  27     28.12        1.2961        0.0000        5.5518        5.5518       4.255762       0.04691
  26     33.73        1.2961        0.0000        5.5268        5.5268       4.230678       0.03771
  25     40.54        1.2961        0.0000        5.4993        5.4993       4.203197       0.03409
  24     48.69        1.2962        0.0000        5.4678        5.4678       4.171608       0.03269
  23     57.69        1.2963        0.0000        5.4340        5.4340       4.137766       0.03172
  22     68.43        1.2963        0.0000        5.3947        5.3948       4.098426       0.03093
  21     81.20        1.2964        0.0000        5.3497        5.3497       4.053310       0.02981
  20     96.49        1.2965        0.0000        5.2982        5.2982       4.001694       0.02849
  19     114.6        1.2967        0.0000        5.2389        5.2389       3.942244       0.02776
  18     136.5        1.2968        0.0000        5.1716        5.1717       3.874826       0.02592
  17     162.9        1.2971        0.0000        5.0890        5.0891       3.791965       0.02649
  16     196.4        1.2975        0.0000        4.9668        4.9668       3.669325       0.03087
  15     218.7        1.2979        0.0000        4.8585        4.8585       3.560553       0.04130
  14     243.0        1.2986        0.0000        4.7078        4.7079       3.409273       0.05247
  13     269.0        1.2996        0.0000        4.5343        4.5343       3.234706       0.05663
  12     297.5        1.3012        0.0000        4.3419        4.3420       3.040801       0.05751
  11     328.5        1.3033        0.0000        4.1281        4.1281       2.824848       0.05872
  10     361.9        1.3061        0.0000        3.8786        3.8787       2.572545       0.06384
   9     398.1        1.3098        0.0000        3.6159        3.6160       2.306138       0.06207
   8     437.6        1.3146        0.0000        3.3759        3.3759       2.061301       0.05235
   7     480.5        1.3205        0.0000        3.1957        3.1958       1.875335       0.03652
   6     533.0        1.3294        0.0000        3.0467        3.0467       1.717331       0.02542
   5     589.8        1.3426        0.0000        2.9023        2.9023       1.559754       0.02339
   4     651.6        1.3656        0.0001        2.7183        2.7184       1.352770       0.02831
   3     718.7        1.4054        0.0001        2.5058        2.5059       1.100422       0.03171
   2     792.3        1.4816        0.0001        2.2756        2.2757       0.794068       0.03514
   1     891.5        0.5620        0.9749        0.0721        1.0470       0.485041       0.02630
   0    1013.0        0.6740        0.7975        0.0568        0.8544       0.180312       0.02116

  Modules and versions used in this calculation:

       rrtmg_sw.1col.f90:  $Revision$                    rrtmg_sw_init.f90:  $Revision$        
     rrtmgsw_cldprop.f90:  $Revision$                  rrtmgsw_cldprmc.f90:  NOT USED          
     rrtmg_sw_reftra.f90:  $Revision$                  rrtmg_sw_spcvrt.f90:  NOT USED          
     rrtmg_sw_spcvmc.f90:  NOT USED                    rrtmgsw_setcoef.f90:  NOT USED          
     rrtmg_sw_taumol.f90:  $Revision$                  rrtmg_sw_vrtqdr.f90:  NOT USED          
                rrtatm.f:  NOT USED                             util_xxx.f:  NOT USED          
                 extra.f:  NOT USED                       rrtmg_sw_k_g.f90:  $Revision$        

