

 Wavenumbers:   820. - 50000. cm-1, ATM      1
 LEVEL PRESSURE   UPWARD FLUX   DIFDOWN FLUX  DIRDOWN FLUX  DOWNWARD FLUX   NET FLUX    HEATING RATE
          mb          W/m2          W/m2          W/m2        W/m2          W/m2       degree/day
  51    .06700      471.0575        0.0000      617.8126      617.8126     146.755090       0.00000
  50    .07753      471.0571        0.0014      617.7947      617.7961     146.738945      12.94063
  49    .09103      471.0567        0.0031      617.7778      617.7808     146.724129       9.26088
  48    0.1069      471.0562        0.0050      617.7581      617.7631     146.706858       9.19309
  47    0.1255      471.0557        0.0073      617.7340      617.7412     146.685502       9.68178
  46    0.1487      471.0552        0.0101      617.7009      617.7110     146.655801      10.82652
  45    0.1794      471.0545        0.0140      617.6521      617.6660     146.611546      12.14900
  44    0.2165      471.0538        0.0185      617.5895      617.6080     146.554193      13.04672
  43    0.2613      471.0532        0.0239      617.5089      617.5328     146.479639      14.05310
  42    0.3336      471.0524        0.0328      617.3641      617.3969     146.344478      15.75847
  41    0.4307      471.0518        0.0444      617.1591      617.2036     146.151742      16.75793
  40    0.5894      471.0519        0.0633      616.8005      616.8638     145.811842      18.07546
  39     1.339      471.0710        0.1485      614.9443      615.0928     144.021774      20.15292
  38     1.782      471.0952        0.1965      613.9670      614.1635     143.068317      18.15229
  37     2.292      471.1350        0.2511      613.0059      613.2570     142.121999      15.67348
  36     2.964      471.2049        0.3221      611.9577      612.2797     141.074794      13.14560
  35     3.853      471.3221        0.4151      610.8024      611.2175     139.895483      11.19188
  34     5.035      471.5020        0.5380      609.5327      610.0707     138.568703       9.47797
  33     6.613      471.7552        0.7010      608.1464      608.8474     137.092175       7.89352
  32     8.786      472.0852        0.9197      606.6250      607.5447     135.459487       6.34077
  31     11.80      472.5129        1.2311      604.8486      606.0797     133.566840       5.29882
  30     15.07      472.9203        1.5634      603.2440      604.8073     131.887000       4.33702
  29     18.79      473.3344        1.9373      601.6511      603.5884     130.254032       3.70244
  28     23.16      473.7648        2.3718      599.9927      602.3645     128.599689       3.19896
  27     28.12      474.1946        2.8664      598.2881      601.1544     126.959770       2.78775
  26     33.73      474.5845        3.4177      596.5951      600.0128     125.428314       2.30259
  25     40.54      474.9493        4.0816      594.7727      598.8543     123.904951       1.88990
  24     48.69      475.2863        4.8782      592.7865      597.6647     122.378374       1.57977
  23     57.69      475.5568        5.7491      590.7959      596.5450     120.988172       1.30311
  22     68.43      475.7708        6.7808      588.6191      595.3999     119.629168       1.06836
  21     81.20      475.8754        8.0042      586.2690      594.2731     118.397780       0.81368
  20     96.49      475.8607        9.4527      583.6961      593.1488     117.288075       0.61248
  19     114.6      475.7857       11.1569      580.7708      591.9277     116.141996       0.53514
  18     136.5      475.6518       13.1526      577.4359      590.5885     114.936656       0.46348
  17     162.9      475.4545       15.4949      573.5624      589.0574     113.602896       0.42632
  16     196.4      475.1107       18.4824      568.5907      587.0731     111.962408       0.41293
  15     218.7      474.8574       20.4143      565.0572      585.4715     110.614064       0.51192
  14     243.0      474.5760       22.4865      560.7495      583.2360     108.660046       0.67772
  13     269.0      474.2695       24.7007      555.3947      580.0954     105.825874       0.91939
  12     297.5      473.9461       27.0574      548.9964      576.0538     102.107630       1.10279
  11     328.5      473.6179       29.5633      542.0895      571.6529      98.034956       1.10735
  10     361.9      473.2959       32.2146      534.6242      566.8389      93.542984       1.13651
   9     398.1      472.9962       35.0160      526.4204      561.4364      88.440208       1.18883
   8     437.6      472.7496       37.9662      517.3907      555.3568      82.607212       1.24713
   7     480.5      472.5898       41.0632      507.7216      548.7847      76.194891       1.25936
   6     533.0      472.5900       44.7871      495.9006      540.6878      68.097815       1.30256
   5     589.8      472.9525       48.6955      483.0788      531.7743      58.821825       1.37686
   4     651.6      474.1056       52.7750      468.6907      521.4656      47.360016       1.56743
   3     718.7      476.6815       57.0175      453.2257      510.2433      33.561770       1.73406
   2     792.3      482.4173       61.4007      436.4928      497.8936      15.476257       2.07421
   1     891.5      155.6823      163.6739        0.0000      163.6739       7.991543       0.63691
   0    1013.0      156.1701      162.9527        0.0000      162.9527       6.782527       0.08395



 Wavenumbers:  2600. -  3250. cm-1, ATM      1
 LEVEL PRESSURE   UPWARD FLUX   DIFDOWN FLUX  DIRDOWN FLUX  DOWNWARD FLUX   NET FLUX    HEATING RATE
          mb          W/m2          W/m2          W/m2        W/m2          W/m2       degree/day
  51    .06700        2.3142        0.0000        5.4450        5.4450       3.130845       0.00000
  50    .07753        2.3142        0.0000        5.4450        5.4450       3.130837       0.00640
  49    .09103        2.3142        0.0000        5.4450        5.4450       3.130827       0.00627
  48    0.1069        2.3142        0.0000        5.4450        5.4450       3.130816       0.00613
  47    0.1255        2.3142        0.0000        5.4450        5.4450       3.130802       0.00599
  46    0.1487        2.3142        0.0000        5.4450        5.4450       3.130786       0.00608
  45    0.1794        2.3142        0.0000        5.4450        5.4450       3.130763       0.00625
  44    0.2165        2.3142        0.0000        5.4449        5.4449       3.130736       0.00612
  43    0.2613        2.3142        0.0000        5.4449        5.4449       3.130704       0.00600
  42    0.3336        2.3142        0.0000        5.4448        5.4448       3.130651       0.00617
  41    0.4307        2.3142        0.0000        5.4448        5.4448       3.130580       0.00620
  40    0.5894        2.3142        0.0000        5.4446        5.4446       3.130460       0.00637
  39     1.339        2.3142        0.0000        5.4439        5.4439       3.129753       0.00797
  38     1.782        2.3142        0.0000        5.4434        5.4434       3.129210       0.01034
  37     2.292        2.3142        0.0000        5.4427        5.4427       3.128494       0.01186
  36     2.964        2.3142        0.0000        5.4416        5.4416       3.127455       0.01304
  35     3.853        2.3142        0.0000        5.4402        5.4402       3.125977       0.01402
  34     5.035        2.3142        0.0000        5.4381        5.4381       3.123922       0.01469
  33     6.613        2.3142        0.0000        5.4353        5.4353       3.121140       0.01487
  32     8.786        2.3142        0.0000        5.4317        5.4317       3.117506       0.01411
  31     11.80        2.3142        0.0000        5.4269        5.4269       3.112724       0.01339
  30     15.07        2.3142        0.0000        5.4224        5.4224       3.108193       0.01170
  29     18.79        2.3142        0.0000        5.4180        5.4180       3.103776       0.01002
  28     23.16        2.3142        0.0000        5.4135        5.4135       3.099282       0.00869
  27     28.12        2.3142        0.0000        5.4088        5.4088       3.094623       0.00792
  26     33.73        2.3142        0.0000        5.4036        5.4036       3.089366       0.00790
  25     40.54        2.3143        0.0000        5.3966        5.3967       3.082400       0.00864
  24     48.69        2.3143        0.0000        5.3872        5.3872       3.072884       0.00985
  23     57.69        2.3144        0.0000        5.3754        5.3754       3.061047       0.01110
  22     68.43        2.3144        0.0000        5.3599        5.3599       3.045483       0.01224
  21     81.20        2.3146        0.0000        5.3401        5.3401       3.025541       0.01318
  20     96.49        2.3147        0.0000        5.3155        5.3155       3.000820       0.01364
  19     114.6        2.3149        0.0001        5.2853        5.2854       2.970412       0.01420
  18     136.5        2.3153        0.0001        5.2504        5.2505       2.935207       0.01354
  17     162.9        2.3157        0.0001        5.2111        5.2112       2.895435       0.01271
  16     196.4        2.3165        0.0001        5.1640        5.1641       2.847634       0.01203
  15     218.7        2.3172        0.0001        5.1331        5.1332       2.815966       0.01202
  14     243.0        2.3185        0.0001        5.0962        5.0963       2.777837       0.01322
  13     269.0        2.3204        0.0001        5.0511        5.0512       2.730799       0.01526
  12     297.5        2.3233        0.0001        4.9956        4.9957       2.672398       0.01732
  11     328.5        2.3274        0.0001        4.9304        4.9305       2.603075       0.01885
  10     361.9        2.3331        0.0002        4.8511        4.8513       2.518153       0.02149
   9     398.1        2.3410        0.0002        4.7507        4.7509       2.409894       0.02522
   8     437.6        2.3519        0.0002        4.6220        4.6222       2.270279       0.02985
   7     480.5        2.3673        0.0002        4.4625        4.4627       2.095403       0.03435
   6     533.0        2.3925        0.0002        4.2460        4.2463       1.853799       0.03887
   5     589.8        2.4313        0.0002        3.9954        3.9956       1.564368       0.04296
   4     651.6        2.4962        0.0002        3.7089        3.7091       1.212859       0.04807
   3     718.7        2.6058        0.0002        3.4018        3.4021       0.796278       0.05235
   2     792.3        2.8110        0.0002        3.0564        3.0567       0.245661       0.06315
   1     891.5        0.0855        0.1263        0.0000        0.1263       0.040799       0.01743
   0    1013.0        0.0922        0.1162        0.0000        0.1162       0.023934       0.00117



 Wavenumbers:  3250. -  4000. cm-1, ATM      1
 LEVEL PRESSURE   UPWARD FLUX   DIFDOWN FLUX  DIRDOWN FLUX  DOWNWARD FLUX   NET FLUX    HEATING RATE
          mb          W/m2          W/m2          W/m2        W/m2          W/m2       degree/day
  51    .06700        0.1004        0.0000        9.1795        9.1795       9.079101       0.00000
  50    .07753        0.1004        0.0000        9.1747        9.1747       9.074258       3.88148
  49    .09103        0.1004        0.0000        9.1713        9.1713       9.070870       2.11747
  48    0.1069        0.1004        0.0000        9.1688        9.1688       9.068345       1.34402
  47    0.1255        0.1004        0.0000        9.1665        9.1665       9.066086       1.02422
  46    0.1487        0.1004        0.0000        9.1641        9.1641       9.063645       0.88991
  45    0.1794        0.1004        0.0000        9.1612        9.1612       9.060767       0.79008
  44    0.2165        0.1004        0.0000        9.1583        9.1583       9.057847       0.66430
  43    0.2613        0.1004        0.0000        9.1553        9.1553       9.054874       0.56041
  42    0.3336        0.1004        0.0000        9.1511        9.1511       9.050695       0.48723
  41    0.4307        0.1004        0.0000        9.1464        9.1464       9.045926       0.41459
  40    0.5894        0.1004        0.0000        9.1393        9.1394       9.038921       0.37255
  39     1.339        0.1004        0.0000        9.1127        9.1127       9.012307       0.29962
  38     1.782        0.1004        0.0000        9.1011        9.1011       9.000719       0.22062
  37     2.292        0.1004        0.0000        9.0901        9.0901       8.989652       0.18329
  36     2.964        0.1004        0.0000        9.0776        9.0776       8.977222       0.15603
  35     3.853        0.1004        0.0000        9.0629        9.0629       8.962432       0.14036
  34     5.035        0.1004        0.0000        9.0441        9.0441       8.943693       0.13386
  33     6.613        0.1004        0.0000        9.0191        9.0191       8.918692       0.13366
  32     8.786        0.1004        0.0000        8.9843        8.9843       8.883908       0.13509
  31     11.80        0.1004        0.0000        8.9327        8.9327       8.832292       0.14451
  30     15.07        0.1004        0.0000        8.8758        8.8759       8.775447       0.14676
  29     18.79        0.1004        0.0000        8.8110        8.8110       8.710620       0.14698
  28     23.16        0.1004        0.0000        8.7365        8.7366       8.636175       0.14395
  27     28.12        0.1004        0.0000        8.6554        8.6555       8.555062       0.13789
  26     33.73        0.1004        0.0000        8.5719        8.5719       8.471562       0.12554
  25     40.54        0.1004        0.0001        8.4812        8.4812       8.380838       0.11255
  24     48.69        0.1004        0.0001        8.3838        8.3839       8.283537       0.10069
  23     57.69        0.1004        0.0001        8.2861        8.2862       8.185801       0.09161
  22     68.43        0.1003        0.0001        8.1751        8.1751       8.074804       0.08726
  21     81.20        0.1003        0.0001        8.0457        8.0458       7.945446       0.08548
  20     96.49        0.1003        0.0001        7.8949        7.8951       7.794742       0.08318
  19     114.6        0.1003        0.0001        7.7162        7.7163       7.616032       0.08345
  18     136.5        0.1003        0.0002        7.5193        7.5195       7.419187       0.07569
  17     162.9        0.1002        0.0002        7.2913        7.2915       7.191293       0.07284
  16     196.4        0.1002        0.0002        6.9660        6.9662       6.866012       0.08188
  15     218.7        0.1002        0.0002        6.6648        6.6650       6.564807       0.11436
  14     243.0        0.1002        0.0002        6.2619        6.2622       6.161970       0.13972
  13     269.0        0.1003        0.0003        5.7576        5.7579       5.657568       0.16363
  12     297.5        0.1005        0.0003        5.1719        5.1722       5.071657       0.17377
  11     328.5        0.1009        0.0003        4.5757        4.5760       4.475116       0.16220
  10     361.9        0.1015        0.0002        3.9995        3.9998       3.898308       0.14594
   9     398.1        0.1025        0.0002        3.4655        3.4657       3.363213       0.12466
   8     437.6        0.1042        0.0002        2.9740        2.9743       2.870040       0.10544
   7     480.5        0.1070        0.0002        2.5307        2.5309       2.423875       0.08763
   6     533.0        0.1124        0.0002        2.0614        2.0616       1.949190       0.07636
   5     589.8        0.1222        0.0002        1.6150        1.6151       1.492914       0.06773
   4     651.6        0.1428        0.0001        1.1565        1.1566       1.013786       0.06552
   3     718.7        0.1883        0.0001        0.7390        0.7391       0.550843       0.05818
   2     792.3        0.3106        0.0001        0.3985        0.3985       0.087897       0.05309
   1     891.5        0.0000        0.0001        0.0000        0.0001       0.000062       0.00747
   0    1013.0        0.0000        0.0000        0.0000        0.0000       0.000001       0.00000



 Wavenumbers:  4000. -  4650. cm-1, ATM      1
 LEVEL PRESSURE   UPWARD FLUX   DIFDOWN FLUX  DIRDOWN FLUX  DOWNWARD FLUX   NET FLUX    HEATING RATE
          mb          W/m2          W/m2          W/m2        W/m2          W/m2       degree/day
  51    .06700        7.3248        0.0000       10.7795       10.7795       3.454759       0.00000
  50    .07753        7.3248        0.0000       10.7795       10.7795       3.454758       0.00080
  49    .09103        7.3248        0.0000       10.7795       10.7795       3.454756       0.00078
  48    0.1069        7.3248        0.0000       10.7795       10.7795       3.454755       0.00077
  47    0.1255        7.3248        0.0000       10.7795       10.7795       3.454753       0.00075
  46    0.1487        7.3248        0.0000       10.7795       10.7795       3.454751       0.00076
  45    0.1794        7.3248        0.0000       10.7795       10.7795       3.454748       0.00078
  44    0.2165        7.3248        0.0000       10.7795       10.7795       3.454745       0.00076
  43    0.2613        7.3248        0.0000       10.7795       10.7795       3.454741       0.00075
  42    0.3336        7.3248        0.0000       10.7795       10.7795       3.454734       0.00077
  41    0.4307        7.3248        0.0000       10.7795       10.7795       3.454726       0.00078
  40    0.5894        7.3248        0.0000       10.7795       10.7795       3.454711       0.00080
  39     1.339        7.3248        0.0000       10.7794       10.7794       3.454621       0.00101
  38     1.782        7.3248        0.0000       10.7793       10.7793       3.454551       0.00133
  37     2.292        7.3248        0.0000       10.7792       10.7792       3.454456       0.00156
  36     2.964        7.3248        0.0000       10.7791       10.7791       3.454316       0.00177
  35     3.853        7.3248        0.0000       10.7789       10.7789       3.454107       0.00198
  34     5.035        7.3248        0.0000       10.7786       10.7786       3.453799       0.00220
  33     6.613        7.3248        0.0000       10.7781       10.7781       3.453345       0.00243
  32     8.786        7.3248        0.0000       10.7774       10.7775       3.452675       0.00260
  31     11.80        7.3248        0.0001       10.7763       10.7764       3.451621       0.00295
  30     15.07        7.3248        0.0001       10.7751       10.7752       3.450384       0.00319
  29     18.79        7.3248        0.0001       10.7736       10.7737       3.448886       0.00340
  28     23.16        7.3248        0.0001       10.7717       10.7718       3.447024       0.00360
  27     28.12        7.3248        0.0001       10.7695       10.7696       3.444767       0.00384
  26     33.73        7.3249        0.0002       10.7667       10.7668       3.441980       0.00419
  25     40.54        7.3249        0.0002       10.7629       10.7631       3.438194       0.00470
  24     48.69        7.3250        0.0003       10.7579       10.7582       3.433139       0.00523
  23     57.69        7.3252        0.0003       10.7520       10.7523       3.427134       0.00563
  22     68.43        7.3254        0.0004       10.7446       10.7450       3.419588       0.00593
  21     81.20        7.3257        0.0004       10.7355       10.7359       3.410269       0.00616
  20     96.49        7.3261        0.0005       10.7245       10.7250       3.398892       0.00628
  19     114.6        7.3267        0.0006       10.7107       10.7113       3.384611       0.00667
  18     136.5        7.3276        0.0007       10.6942       10.6949       3.367332       0.00664
  17     162.9        7.3288        0.0008       10.6740       10.6748       3.346038       0.00681
  16     196.4        7.3309        0.0010       10.6464       10.6474       3.316461       0.00744
  15     218.7        7.3327        0.0011       10.6255       10.6266       3.293830       0.00859
  14     243.0        7.3354        0.0012       10.5980       10.5993       3.263889       0.01038
  13     269.0        7.3393        0.0014       10.5611       10.5624       3.223157       0.01321
  12     297.5        7.3450        0.0015       10.5119       10.5134       3.168471       0.01622
  11     328.5        7.3528        0.0017       10.4499       10.4515       3.098776       0.01895
  10     361.9        7.3630        0.0018       10.3702       10.3720       3.009032       0.02271
   9     398.1        7.3758        0.0020       10.2678       10.2698       2.893916       0.02682
   8     437.6        7.3924        0.0022       10.1390       10.1412       2.748724       0.03104
   7     480.5        7.4139        0.0023        9.9877        9.9900       2.576160       0.03389
   6     533.0        7.4473        0.0026        9.7937        9.7962       2.348927       0.03655
   5     589.8        7.4964        0.0028        9.5752        9.5780       2.081513       0.03969
   4     651.6        7.5774        0.0030        9.2958        9.2988       1.721435       0.04924
   3     718.7        7.7175        0.0032        8.9267        8.9300       1.212457       0.06396
   2     792.3        7.9930        0.0034        8.4542        8.4577       0.464688       0.08576
   1     891.5        0.5032        0.6696        0.0000        0.6696       0.166389       0.02538
   0    1013.0        0.5164        0.6504        0.0000        0.6504       0.133989       0.00225



 Wavenumbers:  4650. -  5150. cm-1, ATM      1
 LEVEL PRESSURE   UPWARD FLUX   DIFDOWN FLUX  DIRDOWN FLUX  DOWNWARD FLUX   NET FLUX    HEATING RATE
          mb          W/m2          W/m2          W/m2        W/m2          W/m2       degree/day
  51    .06700        5.3067        0.0000       10.2033       10.2033       4.896688       0.00000
  50    .07753        5.3067        0.0000       10.2031       10.2031       4.896452       0.18901
  49    .09103        5.3067        0.0000       10.2028       10.2028       4.896158       0.18428
  48    0.1069        5.3067        0.0000       10.2025       10.2025       4.895821       0.17931
  47    0.1255        5.3067        0.0000       10.2021       10.2021       4.895436       0.17426
  46    0.1487        5.3067        0.0000       10.2016       10.2016       4.894955       0.17536
  45    0.1794        5.3067        0.0000       10.2010       10.2010       4.894305       0.17850
  44    0.2165        5.3067        0.0000       10.2002       10.2002       4.893545       0.17277
  43    0.2613        5.3067        0.0000       10.1993       10.1993       4.892660       0.16690
  42    0.3336        5.3067        0.0000       10.1979       10.1979       4.891228       0.16702
  41    0.4307        5.3067        0.0000       10.1960       10.1960       4.889387       0.16003
  40    0.5894        5.3067        0.0000       10.1932       10.1932       4.886513       0.15283
  39     1.339        5.3067        0.0000       10.1816       10.1816       4.874921       0.13051
  38     1.782        5.3067        0.0000       10.1760       10.1760       4.869391       0.10527
  37     2.292        5.3067        0.0000       10.1706       10.1706       4.863934       0.09039
  36     2.964        5.3067        0.0000       10.1646       10.1647       4.858009       0.07438
  35     3.853        5.3067        0.0000       10.1584       10.1584       4.851791       0.05900
  34     5.035        5.3067        0.0000       10.1521       10.1521       4.845451       0.04530
  33     6.613        5.3067        0.0000       10.1456       10.1456       4.838985       0.03457
  32     8.786        5.3067        0.0001       10.1386       10.1386       4.831959       0.02729
  31     11.80        5.3067        0.0001       10.1295       10.1296       4.822890       0.02539
  30     15.07        5.3067        0.0001       10.1196       10.1197       4.812973       0.02560
  29     18.79        5.3068        0.0001       10.1076       10.1077       4.800911       0.02735
  28     23.16        5.3069        0.0002       10.0923       10.0924       4.785530       0.02974
  27     28.12        5.3070        0.0002       10.0731       10.0734       4.766331       0.03264
  26     33.73        5.3072        0.0002       10.0500       10.0503       4.743096       0.03493
  25     40.54        5.3074        0.0003       10.0201       10.0204       4.712994       0.03735
  24     48.69        5.3078        0.0004        9.9820        9.9823       4.674539       0.03979
  23     57.69        5.3082        0.0004        9.9384        9.9389       4.630638       0.04115
  22     68.43        5.3088        0.0005        9.8858        9.8863       4.577404       0.04185
  21     81.20        5.3097        0.0006        9.8234        9.8240       4.514320       0.04169
  20     96.49        5.3109        0.0007        9.7518        9.7525       4.441544       0.04017
  19     114.6        5.3126        0.0008        9.6719        9.6727       4.360176       0.03799
  18     136.5        5.3148        0.0010        9.5858        9.5868       4.271924       0.03394
  17     162.9        5.3180        0.0011        9.4940        9.4952       4.177177       0.03028
  16     196.4        5.3229        0.0014        9.3883        9.3897       4.066779       0.02779
  15     218.7        5.3267        0.0015        9.3229        9.3244       3.997754       0.02621
  14     243.0        5.3316        0.0017        9.2520        9.2537       3.922052       0.02626
  13     269.0        5.3382        0.0019        9.1717        9.1735       3.835332       0.02813
  12     297.5        5.3473        0.0020        9.0763        9.0783       3.730995       0.03095
  11     328.5        5.3592        0.0022        8.9650        8.9672       3.607987       0.03345
  10     361.9        5.3745        0.0024        8.8349        8.8373       3.462803       0.03673
   9     398.1        5.3945        0.0026        8.6820        8.6847       3.290184       0.04022
   8     437.6        5.4204        0.0029        8.5028        8.5057       3.085233       0.04382
   7     480.5        5.4543        0.0031        8.2948        8.2979       2.843629       0.04745
   6     533.0        5.5061        0.0033        8.0209        8.0242       2.518154       0.05236
   5     589.8        5.5785        0.0036        7.7063        7.7099       2.131460       0.05740
   4     651.6        5.6864        0.0038        7.3412        7.3451       1.658629       0.06466
   3     718.7        5.8519        0.0041        6.9387        6.9427       1.090783       0.07136
   2     792.3        6.1230        0.0043        6.5066        6.5109       0.387825       0.08062
   1     891.5        0.3282        0.4443        0.0000        0.4443       0.116112       0.02312
   0    1013.0        0.3397        0.4278        0.0000        0.4278       0.088130       0.00194



 Wavenumbers:  5150. -  6150. cm-1, ATM      1
 LEVEL PRESSURE   UPWARD FLUX   DIFDOWN FLUX  DIRDOWN FLUX  DOWNWARD FLUX   NET FLUX    HEATING RATE
          mb          W/m2          W/m2          W/m2        W/m2          W/m2       degree/day
  51    .06700       12.5155        0.0000       25.5798       25.5798      13.064288       0.00000
  50    .07753       12.5155        0.0000       25.5798       25.5798      13.064249       0.03164
  49    .09103       12.5155        0.0000       25.5797       25.5797      13.064197       0.03212
  48    0.1069       12.5155        0.0000       25.5797       25.5797      13.064136       0.03263
  47    0.1255       12.5155        0.0000       25.5796       25.5796      13.064063       0.03313
  46    0.1487       12.5155        0.0000       25.5795       25.5795      13.063967       0.03490
  45    0.1794       12.5155        0.0000       25.5794       25.5794      13.063832       0.03715
  44    0.2165       12.5155        0.0000       25.5792       25.5792      13.063666       0.03771
  43    0.2613       12.5155        0.0000       25.5790       25.5790      13.063463       0.03828
  42    0.3336       12.5155        0.0000       25.5786       25.5786      13.063116       0.04045
  41    0.4307       12.5155        0.0000       25.5782       25.5782      13.062645       0.04099
  40    0.5894       12.5155        0.0000       25.5774       25.5774      13.061855       0.04200
  39     1.339       12.5155        0.0000       25.5735       25.5736      13.058049       0.04285
  38     1.782       12.5155        0.0001       25.5713       25.5714      13.055832       0.04220
  37     2.292       12.5155        0.0001       25.5688       25.5689      13.053322       0.04157
  36     2.964       12.5155        0.0001       25.5656       25.5657      13.050132       0.04004
  35     3.853       12.5155        0.0001       25.5615       25.5616      13.046077       0.03849
  34     5.035       12.5156        0.0002       25.5562       25.5564      13.040852       0.03733
  33     6.613       12.5156        0.0002       25.5494       25.5496      13.034070       0.03625
  32     8.786       12.5156        0.0003       25.5406       25.5409      13.025278       0.03415
  31     11.80       12.5157        0.0004       25.5287       25.5291      13.013378       0.03332
  30     15.07       12.5158        0.0005       25.5167       25.5172      13.001434       0.03084
  29     18.79       12.5159        0.0006       25.5042       25.5048      12.988935       0.02834
  28     23.16       12.5160        0.0008       25.4907       25.4914      12.975456       0.02606
  27     28.12       12.5161        0.0009       25.4764       25.4774      12.961224       0.02419
  26     33.73       12.5164        0.0011       25.4620       25.4631      12.946770       0.02173
  25     40.54       12.5167        0.0013       25.4463       25.4476      12.930918       0.01967
  24     48.69       12.5171        0.0016       25.4294       25.4310      12.913877       0.01764
  23     57.69       12.5176        0.0019       25.4126       25.4145      12.896891       0.01592
  22     68.43       12.5183        0.0022       25.3944       25.3967      12.878378       0.01455
  21     81.20       12.5192        0.0027       25.3744       25.3771      12.857932       0.01351
  20     96.49       12.5202        0.0032       25.3519       25.3551      12.834885       0.01272
  19     114.6       12.5215        0.0038       25.3262       25.3299      12.808393       0.01237
  18     136.5       12.5232        0.0045       25.2962       25.3007      12.777500       0.01188
  17     162.9       12.5252        0.0053       25.2521       25.2574      12.732229       0.01447
  16     196.4       12.5280        0.0064       25.1593       25.1657      12.637735       0.02379
  15     218.7       12.5299        0.0071       25.0159       25.0230      12.493071       0.05492
  14     243.0       12.5324        0.0078       24.7089       24.7167      12.184321       0.10708
  13     269.0       12.5355        0.0085       24.1619       24.1704      11.634831       0.17825
  12     297.5       12.5398        0.0092       23.4544       23.4636      10.923807       0.21088
  11     328.5       12.5454        0.0100       22.7355       22.7454      10.200041       0.19679
  10     361.9       12.5528        0.0107       21.9224       21.9331       9.380350       0.20739
   9     398.1       12.5627        0.0114       20.9939       21.0053       8.442594       0.21848
   8     437.6       12.5766        0.0121       19.9833       19.9955       7.418812       0.21889
   7     480.5       12.5960        0.0128       18.9483       18.9611       6.365132       0.20694
   6     533.0       12.6290        0.0136       17.7796       17.7932       5.164231       0.19319
   5     589.8       12.6828        0.0144       16.6726       16.6870       4.004231       0.17218
   4     651.6       12.7819        0.0152       15.6343       15.6495       2.867609       0.15544
   3     718.7       12.9658        0.0161       14.7738       14.7899       1.824155       0.13113
   2     792.3       13.3438        0.0171       14.0291       14.0462       0.702498       0.12864
   1     891.5        0.9914        1.2915        0.0000        1.2915       0.300011       0.03425
   0    1013.0        1.0074        1.2688        0.0000        1.2688       0.261369       0.00268



 Wavenumbers:  6150. -  7700. cm-1, ATM      1
 LEVEL PRESSURE   UPWARD FLUX   DIFDOWN FLUX  DIRDOWN FLUX  DOWNWARD FLUX   NET FLUX    HEATING RATE
          mb          W/m2          W/m2          W/m2        W/m2          W/m2       degree/day
  51    .06700       20.2595        0.0000       47.3109       47.3109      27.051381       0.00000
  50    .07753       20.2595        0.0000       47.3108       47.3108      27.051324       0.04553
  49    .09103       20.2595        0.0000       47.3107       47.3107      27.051250       0.04583
  48    0.1069       20.2595        0.0000       47.3106       47.3106      27.051164       0.04614
  47    0.1255       20.2595        0.0000       47.3105       47.3105      27.051061       0.04645
  46    0.1487       20.2595        0.0000       47.3104       47.3104      27.050928       0.04852
  45    0.1794       20.2595        0.0000       47.3102       47.3102      27.050741       0.05127
  44    0.2165       20.2595        0.0000       47.3100       47.3100      27.050514       0.05167
  43    0.2613       20.2595        0.0000       47.3097       47.3097      27.050238       0.05210
  42    0.3336       20.2595        0.0000       47.3092       47.3092      27.049769       0.05471
  41    0.4307       20.2595        0.0000       47.3085       47.3086      27.049134       0.05521
  40    0.5894       20.2594        0.0001       47.3074       47.3075      27.048074       0.05634
  39     1.339       20.2594        0.0002       47.3022       47.3024      27.042982       0.05733
  38     1.782       20.2594        0.0002       47.2991       47.2994      27.040012       0.05655
  37     2.292       20.2593        0.0003       47.2956       47.2960      27.036636       0.05591
  36     2.964       20.2593        0.0004       47.2912       47.2916      27.032318       0.05421
  35     3.853       20.2592        0.0005       47.2855       47.2860      27.026783       0.05252
  34     5.035       20.2591        0.0007       47.2780       47.2787      27.019603       0.05130
  33     6.613       20.2590        0.0009       47.2683       47.2692      27.010214       0.05019
  32     8.786       20.2588        0.0012       47.2556       47.2568      26.997915       0.04777
  31     11.80       20.2586        0.0016       47.2380       47.2396      26.981010       0.04733
  30     15.07       20.2584        0.0020       47.2201       47.2221      26.963721       0.04464
  29     18.79       20.2581        0.0025       47.2008       47.2034      26.945240       0.04190
  28     23.16       20.2578        0.0031       47.1795       47.1826      26.924848       0.03943
  27     28.12       20.2574        0.0038       47.1565       47.1603      26.902851       0.03739
  26     33.73       20.2570        0.0046       47.1324       47.1370      26.879926       0.03447
  25     40.54       20.2565        0.0055       47.1054       47.1108      26.854285       0.03181
  24     48.69       20.2560        0.0066       47.0754       47.0820      26.826025       0.02924
  23     57.69       20.2553        0.0078       47.0449       47.0527      26.797395       0.02684
  22     68.43       20.2546        0.0092       47.0110       47.0202      26.765647       0.02496
  21     81.20       20.2537        0.0109       46.9729       46.9838      26.730138       0.02346
  20     96.49       20.2526        0.0130       46.9294       46.9424      26.689777       0.02228
  19     114.6       20.2513        0.0154       46.8790       46.8944      26.643113       0.02179
  18     136.5       20.2498        0.0183       46.8200       46.8383      26.588445       0.02102
  17     162.9       20.2481        0.0217       46.7361       46.7579      26.509744       0.02516
  16     196.4       20.2461        0.0262       46.5703       46.5964      26.350345       0.04012
  15     218.7       20.2450        0.0290       46.3473       46.3763      26.131329       0.08315
  14     243.0       20.2443        0.0321       45.9299       45.9619      25.717572       0.14350
  13     269.0       20.2447        0.0351       45.1708       45.2059      24.961160       0.24538
  12     297.5       20.2472        0.0381       44.0115       44.0496      23.802395       0.34368
  11     328.5       20.2524        0.0412       42.7242       42.7654      22.512967       0.35059
  10     361.9       20.2619        0.0443       41.3539       41.3982      21.136337       0.34830
   9     398.1       20.2780        0.0474       39.7953       39.8426      19.564694       0.36616
   8     437.6       20.3047        0.0503       37.9948       38.0451      17.740386       0.39005
   7     480.5       20.3472        0.0532       36.0647       36.1179      15.770691       0.38684
   6     533.0       20.4268        0.0563       33.7773       33.8335      13.406754       0.38028
   5     589.8       20.5656        0.0591       31.4082       31.4673      10.901754       0.37182
   4     651.6       20.8347        0.0615       28.8834       28.9449       8.110210       0.38175
   3     718.7       21.3571        0.0637       26.4104       26.4741       5.116936       0.37617
   2     792.3       22.5072        0.0655       24.0056       24.0711       1.563987       0.40748
   1     891.5        1.3650        1.8043        0.0000        1.8043       0.439310       0.09570
   0    1013.0        1.3956        1.7577        0.0000        1.7577       0.362090       0.00536



 Wavenumbers:  7700. -  8050. cm-1, ATM      1
 LEVEL PRESSURE   UPWARD FLUX   DIFDOWN FLUX  DIRDOWN FLUX  DOWNWARD FLUX   NET FLUX    HEATING RATE
          mb          W/m2          W/m2          W/m2        W/m2          W/m2       degree/day
  51    .06700        9.0921        0.0000       11.1810       11.1810       2.088865       0.00000
  50    .07753        9.0921        0.0000       11.1809       11.1809       2.088840       0.01944
  49    .09103        9.0921        0.0000       11.1809       11.1809       2.088810       0.01905
  48    0.1069        9.0921        0.0000       11.1809       11.1809       2.088775       0.01865
  47    0.1255        9.0921        0.0000       11.1809       11.1809       2.088735       0.01825
  46    0.1487        9.0921        0.0000       11.1808       11.1808       2.088684       0.01852
  45    0.1794        9.0922        0.0000       11.1808       11.1808       2.088614       0.01906
  44    0.2165        9.0922        0.0000       11.1807       11.1807       2.088532       0.01870
  43    0.2613        9.0922        0.0000       11.1806       11.1806       2.088435       0.01835
  42    0.3336        9.0923        0.0000       11.1805       11.1805       2.088274       0.01877
  41    0.4307        9.0923        0.0000       11.1803       11.1804       2.088060       0.01857
  40    0.5894        9.0924        0.0000       11.1801       11.1801       2.087712       0.01855
  39     1.339        9.0928        0.0001       11.1788       11.1789       2.086061       0.01858
  38     1.782        9.0931        0.0001       11.1781       11.1782       2.085092       0.01846
  37     2.292        9.0934        0.0001       11.1772       11.1773       2.083970       0.01859
  36     2.964        9.0938        0.0002       11.1761       11.1763       2.082496       0.01850
  35     3.853        9.0943        0.0002       11.1746       11.1748       2.080549       0.01847
  34     5.035        9.0950        0.0003       11.1726       11.1729       2.077963       0.01848
  33     6.613        9.0959        0.0004       11.1700       11.1704       2.074508       0.01847
  32     8.786        9.0971        0.0005       11.1664       11.1669       2.069853       0.01808
  31     11.80        9.0988        0.0007       11.1613       11.1620       2.063196       0.01864
  30     15.07        9.1007        0.0009       11.1558       11.1568       2.056051       0.01845
  29     18.79        9.1029        0.0012       11.1497       11.1509       2.047985       0.01829
  28     23.16        9.1054        0.0015       11.1425       11.1440       2.038571       0.01820
  27     28.12        9.1083        0.0018       11.1343       11.1361       2.027816       0.01828
  26     33.73        9.1115        0.0021       11.1252       11.1273       2.015796       0.01807
  25     40.54        9.1154        0.0025       11.1142       11.1167       2.001296       0.01799
  24     48.69        9.1202        0.0031       11.1010       11.1041       1.983849       0.01805
  23     57.69        9.1255        0.0036       11.0866       11.0902       1.964731       0.01792
  22     68.43        9.1318        0.0043       11.0695       11.0738       1.942024       0.01785
  21     81.20        9.1394        0.0051       11.0494       11.0544       1.915062       0.01782
  20     96.49        9.1485        0.0060       11.0255       11.0316       1.883064       0.01766
  19     114.6        9.1594        0.0071       10.9975       11.0047       1.845250       0.01766
  18     136.5        9.1726        0.0085       10.9648       10.9732       1.800673       0.01714
  17     162.9        9.1885        0.0101       10.9263       10.9364       1.747909       0.01687
  16     196.4        9.2094        0.0121       10.8773       10.8894       1.679957       0.01710
  15     218.7        9.2234        0.0135       10.8455       10.8590       1.635562       0.01685
  14     243.0        9.2389        0.0149       10.8114       10.8264       1.587442       0.01669
  13     269.0        9.2560        0.0165       10.7749       10.7914       1.535359       0.01690
  12     297.5        9.2749        0.0182       10.7357       10.7539       1.478995       0.01672
  11     328.5        9.2959        0.0201       10.6937       10.7138       1.417924       0.01661
  10     361.9        9.3191        0.0221       10.6489       10.6709       1.351805       0.01673
   9     398.1        9.3450        0.0242       10.6008       10.6250       1.279967       0.01674
   8     437.6        9.3740        0.0265       10.5491       10.5756       1.201575       0.01676
   7     480.5        9.4066        0.0290       10.4934       10.5224       1.115830       0.01684
   6     533.0        9.4491        0.0320       10.4243       10.4563       1.007219       0.01747
   5     589.8        9.4986        0.0353       10.3479       10.3832       0.884531       0.01821
   4     651.6        9.5582        0.0388       10.2613       10.3001       0.741951       0.01950
   3     718.7        9.6312        0.0425       10.1618       10.2043       0.573029       0.02123
   2     792.3        9.7244        0.0465       10.0439       10.0904       0.365976       0.02375
   1     891.5        0.7725        1.0112        0.0000        1.0112       0.238713       0.01083
   0    1013.0        0.7874        0.9917        0.0000        0.9917       0.204290       0.00239



 Wavenumbers:  8050. - 12850. cm-1, ATM      1
 LEVEL PRESSURE   UPWARD FLUX   DIFDOWN FLUX  DIRDOWN FLUX  DOWNWARD FLUX   NET FLUX    HEATING RATE
          mb          W/m2          W/m2          W/m2        W/m2          W/m2       degree/day
  51    .06700      119.7187        0.0000      156.5418      156.5418      36.823055       0.00000
  50    .07753      119.7187        0.0000      156.5417      156.5417      36.823055      -0.00000
  49    .09103      119.7187        0.0001      156.5417      156.5417      36.823055      -0.00000
  48    0.1069      119.7187        0.0001      156.5416      156.5417      36.823055      -0.00000
  47    0.1255      119.7186        0.0002      156.5415      156.5417      36.823055       0.00000
  46    0.1487      119.7186        0.0003      156.5414      156.5417      36.823055       0.00000
  45    0.1794      119.7186        0.0003      156.5413      156.5416      36.823055       0.00000
  44    0.2165      119.7186        0.0005      156.5412      156.5416      36.823055      -0.00000
  43    0.2613      119.7185        0.0006      156.5410      156.5416      36.823055      -0.00000
  42    0.3336      119.7185        0.0008      156.5407      156.5415      36.823055       0.00000
  41    0.4307      119.7184        0.0011      156.5403      156.5414      36.823055       0.00000
  40    0.5894      119.7182        0.0016      156.5397      156.5413      36.823055       0.00000
  39     1.339      119.7176        0.0039      156.5367      156.5406      36.823055      -0.00000
  38     1.782      119.7172        0.0052      156.5350      156.5402      36.823055      -0.00000
  37     2.292      119.7167        0.0068      156.5330      156.5398      36.823055       0.00000
  36     2.964      119.7161        0.0088      156.5303      156.5392      36.823055       0.00000
  35     3.853      119.7153        0.0115      156.5268      156.5384      36.823055       0.00000
  34     5.035      119.7143        0.0151      156.5222      156.5373      36.823055      -0.00000
  33     6.613      119.7129        0.0199      156.5160      156.5359      36.823055      -0.00000
  32     8.786      119.7110        0.0264      156.5076      156.5341      36.823055       0.00000
  31     11.80      119.7083        0.0357      156.4957      156.5314      36.823055       0.00000
  30     15.07      119.7054        0.0457      156.4828      156.5285      36.823055       0.00000
  29     18.79      119.7021        0.0570      156.4682      156.5252      36.823055      -0.00000
  28     23.16      119.6983        0.0702      156.4512      156.5213      36.823055       0.00000
  27     28.12      119.6939        0.0853      156.4317      156.5170      36.823055       0.00000
  26     33.73      119.6890        0.1022      156.4099      156.5120      36.823055       0.00000
  25     40.54      119.6830        0.1226      156.3834      156.5061      36.823055       0.00000
  24     48.69      119.6758        0.1474      156.3515      156.4989      36.823055      -0.00000
  23     57.69      119.6679        0.1746      156.3164      156.4910      36.823055       0.00000
  22     68.43      119.6585        0.2070      156.2746      156.4815      36.823055      -0.00000
  21     81.20      119.6472        0.2457      156.2246      156.4703      36.823055      -0.00000
  20     96.49      119.6338        0.2919      156.1649      156.4568      36.823055      -0.00000
  19     114.6      119.6181        0.3469      156.0879      156.4348      36.816740       0.00295
  18     136.5      119.5994        0.4121      155.9962      156.4083      36.808913       0.00301
  17     162.9      119.5772        0.4901      155.8831      156.3731      36.795948       0.00414
  16     196.4      119.5485        0.5914      155.7199      156.3113      36.762818       0.00834
  15     218.7      119.5303        0.6580      155.5733      156.2313      36.701080       0.02344
  14     243.0      119.5119        0.7305      155.3367      156.0672      36.555216       0.05059
  13     269.0      119.4957        0.8089      154.9514      155.7603      36.264553       0.09429
  12     297.5      119.4852        0.8933      154.3896      155.2829      35.797675       0.13847
  11     328.5      119.4828        0.9844      153.7151      154.6995      35.216618       0.15799
  10     361.9      119.4935        1.0821      152.9087      153.9909      34.497415       0.18197
   9     398.1      119.5253        1.1868      151.8986      153.0854      33.560085       0.21838
   8     437.6      119.5924        1.2981      150.6031      151.9013      32.308875       0.26752
   7     480.5      119.7120        1.4160      149.0014      150.4174      30.705397       0.31492
   6     533.0      119.9498        1.5587      146.7375      148.2962      28.346402       0.37949
   5     589.8      120.3759        1.7083      143.8730      145.5813      25.205403       0.46623
   4     651.6      121.2016        1.8619      140.0955      141.9574      20.755814       0.60849
   3     718.7      122.7501        2.0179      135.5278      137.5457      14.795588       0.74904
   2     792.3      125.8652        2.1722      130.0690      132.2412       6.375981       0.96563
   1     891.5        9.2298       12.0643        0.0000       12.0643       2.834478       0.30136
   0    1013.0        9.3904       11.8267        0.0000       11.8267       2.436304       0.02765



 Wavenumbers: 12850. - 16000. cm-1, ATM      1
 LEVEL PRESSURE   UPWARD FLUX   DIFDOWN FLUX  DIRDOWN FLUX  DOWNWARD FLUX   NET FLUX    HEATING RATE
          mb          W/m2          W/m2          W/m2        W/m2          W/m2       degree/day
  51    .06700       83.9044        0.0000       98.0872       98.0872      14.182800       0.00000
  50    .07753       83.9044        0.0001       98.0864       98.0864      14.182006       0.63631
  49    .09103       83.9044        0.0002       98.0853       98.0855      14.181009       0.62348
  48    0.1069       83.9045        0.0003       98.0841       98.0843      14.179862       0.61044
  47    0.1255       83.9045        0.0004       98.0826       98.0830      14.178544       0.59774
  46    0.1487       83.9045        0.0005       98.0809       98.0814      14.176878       0.60703
  45    0.1794       83.9046        0.0007       98.0784       98.0792      14.174611       0.62243
  44    0.2165       83.9047        0.0010       98.0756       98.0766      14.171941       0.60730
  43    0.2613       83.9048        0.0013       98.0723       98.0736      14.168798       0.59245
  42    0.3336       83.9051        0.0018       98.0670       98.0688      14.163661       0.59892
  41    0.4307       83.9056        0.0024       98.0602       98.0626      14.157008       0.57852
  40    0.5894       83.9065        0.0034       98.0496       98.0530      14.146498       0.55889
  39     1.339       83.9142        0.0084       98.0043       98.0127      14.098472       0.54069
  38     1.782       83.9212        0.0113       97.9793       97.9905      14.069377       0.55392
  37     2.292       83.9314        0.0146       97.9498       97.9644      14.032960       0.60316
  36     2.964       83.9483        0.0190       97.9088       97.9278      13.979491       0.67120
  35     3.853       83.9755        0.0248       97.8503       97.8751      13.899659       0.75762
  34     5.035       84.0163        0.0325       97.7680       97.8005      13.784185       0.82490
  33     6.613       84.0733        0.0428       97.6562       97.6990      13.625702       0.84725
  32     8.786       84.1475        0.0567       97.5107       97.5673      13.419823       0.79956
  31     11.80       84.2443        0.0765       97.3179       97.3943      13.150047       0.75529
  30     15.07       84.3372        0.0977       97.1283       97.2260      12.888837       0.67439
  29     18.79       84.4323        0.1217       96.9300       97.0517      12.619409       0.61088
  28     23.16       84.5320        0.1497       96.7166       96.8662      12.334244       0.55142
  27     28.12       84.6327        0.1816       96.4935       96.6751      12.042432       0.49606
  26     33.73       84.7264        0.2174       96.2731       96.4905      11.764145       0.41841
  25     40.54       84.8176        0.2607       96.0408       96.3015      11.483911       0.34766
  24     48.69       84.9061        0.3128       95.7946       96.1074      11.201312       0.29245
  23     57.69       84.9827        0.3701       95.5573       95.9274      10.944704       0.24053
  22     68.43       85.0516        0.4384       95.3106       95.7491      10.697411       0.19440
  21     81.20       85.1032        0.5199       95.0643       95.5843      10.481127       0.14292
  20     96.49       85.1363        0.6172       94.8153       95.4324      10.296168       0.10208
  19     114.6       85.1723        0.7336       94.5411       95.2747      10.102433       0.09046
  18     136.5       85.2033        0.8717       94.2320       95.1037       9.900470       0.07766
  17     162.9       85.2297        1.0361       93.8753       94.9114       9.681734       0.06992
  16     196.4       85.2415        1.2494       93.4347       94.6840       9.442593       0.06019
  15     218.7       85.2414        1.3894       93.1513       94.5407       9.299364       0.05438
  14     243.0       85.2383        1.5417       92.8439       94.3856       9.147304       0.05274
  13     269.0       85.2326        1.7067       92.5111       94.2178       8.985204       0.05258
  12     297.5       85.2252        1.8850       92.1495       94.0344       8.809218       0.05220
  11     328.5       85.2187        2.0776       91.7554       93.8330       8.614245       0.05301
  10     361.9       85.2147        2.2850       91.3262       93.6112       8.396448       0.05510
   9     398.1       85.2156        2.5081       90.8575       93.3656       8.150034       0.05741
   8     437.6       85.2258        2.7476       90.3418       93.0894       7.863524       0.06126
   7     480.5       85.2501        3.0040       89.7728       92.7768       7.526730       0.06615
   6     533.0       85.3049        3.3192       89.0428       92.3620       7.057107       0.07555
   5     589.8       85.4096        3.6578       88.2038       91.8616       6.452033       0.08981
   4     651.6       85.6134        4.0191       87.1979       91.2171       5.603636       0.11602
   3     718.7       85.9572        4.4020       86.0161       90.4181       4.460907       0.14361
   2     792.3       86.5588        4.8024       84.5970       89.3994       2.840633       0.18583
   1     891.5       15.7169       17.6268        0.0000       17.6268       1.909904       0.07920
   0    1013.0       15.8396       17.4695        0.0000       17.4695       1.629903       0.01944



 Wavenumbers: 16000. - 22650. cm-1, ATM      1
 LEVEL PRESSURE   UPWARD FLUX   DIFDOWN FLUX  DIRDOWN FLUX  DOWNWARD FLUX   NET FLUX    HEATING RATE
          mb          W/m2          W/m2          W/m2        W/m2          W/m2       degree/day
  51    .06700      141.4070        0.0000      156.3892      156.3892      14.982262       0.00000
  50    .07753      141.4070        0.0004      156.3887      156.3891      14.982113       0.11866
  49    .09103      141.4069        0.0009      156.3879      156.3888      14.981898       0.13458
  48    0.1069      141.4069        0.0015      156.3871      156.3885      14.981610       0.15347
  47    0.1255      141.4070        0.0021      156.3861      156.3882      14.981224       0.17494
  46    0.1487      141.4070        0.0030      156.3847      156.3877      14.980655       0.20730
  45    0.1794      141.4071        0.0041      156.3828      156.3869      14.979766       0.24408
  44    0.2165      141.4074        0.0054      156.3805      156.3859      14.978560       0.27431
  43    0.2613      141.4077        0.0070      156.3776      156.3846      14.976924       0.30839
  42    0.3336      141.4085        0.0097      156.3726      156.3823      14.973814       0.36267
  41    0.4307      141.4097        0.0132      156.3657      156.3789      14.969125       0.40768
  40    0.5894      141.4124        0.0189      156.3537      156.3725      14.960183       0.47554
  39     1.339      141.4352        0.0459      156.2834      156.3293      14.894116       0.74379
  38     1.782      141.4562        0.0617      156.2324      156.2941      14.837836       1.07149
  37     2.292      141.4878        0.0801      156.1641      156.2442      14.756369       1.34931
  36     2.964      141.5403        0.1042      156.0605      156.1647      14.624391       1.65672
  35     3.853      141.6251        0.1360      155.9041      156.0400      14.414973       1.98741
  34     5.035      141.7530        0.1782      155.6774      155.8555      14.102537       2.23191
  33     6.613      141.9318        0.2345      155.3656      155.6001      13.668338       2.32123
  32     8.786      142.1646        0.3103      154.9577      155.2679      13.103340       2.19425
  31     11.80      142.4676        0.4185      154.4153      154.8338      12.366153       2.06389
  30     15.07      142.7580        0.5346      153.8804      154.4150      11.656991       1.83092
  29     18.79      143.0545        0.6655      153.3191      153.9846      10.930153       1.64796
  28     23.16      143.3644        0.8182      152.7126      153.5308      10.166420       1.47681
  27     28.12      143.6762        0.9926      152.0755      153.0681       9.391853       1.31671
  26     33.73      143.9641        1.1875      151.4409      152.6284       8.664289       1.09391
  25     40.54      144.2413        1.4228      150.7637      152.1865       7.945181       0.89214
  24     48.69      144.5067        1.7061      150.0338      151.7400       7.233239       0.73675
  23     57.69      144.7319        2.0170      149.3151      151.3322       6.600240       0.59334
  22     68.43      144.9285        2.3869      148.5476      150.9345       6.006010       0.46714
  21     81.20      145.0645        2.8273      147.7517      150.5790       5.514435       0.32483
  20     96.49      145.1355        3.3515      146.9127      150.2642       5.128666       0.21292
  19     114.6      145.1728        3.9722      145.9763      149.9485       4.775731       0.16480
  18     136.5      145.1853        4.7051      144.9088      149.6139       4.428531       0.13351
  17     162.9      145.1716        5.5738      143.6785      149.2523       4.080731       0.11117
  16     196.4      145.0917        6.6946      142.1651      148.8596       3.767913       0.07874
  15     218.7      145.0166        7.4270      141.2033      148.6304       3.613792       0.05851
  14     243.0      144.9245        8.2198      140.1753      148.3951       3.470619       0.04966
  13     269.0      144.8139        9.0751      139.0797      148.1547       3.340782       0.04212
  12     297.5      144.6843        9.9948      137.9141      147.9089       3.224617       0.03445
  11     328.5      144.5397       10.9835      136.6676      147.6511       3.111434       0.03077
  10     361.9      144.3798       12.0419      135.3392      147.3811       3.001334       0.02786
   9     398.1      144.2043       13.1742      133.9235      147.0977       2.893353       0.02516
   8     437.6      144.0143       14.3823      132.4163      146.7985       2.784227       0.02333
   7     480.5      143.8095       15.6683      130.8147      146.4830       2.673553       0.02174
   6     533.0      143.5581       17.2391      128.8599      146.0991       2.540937       0.02133
   5     589.8      143.2924       18.9175      126.7679      145.6855       2.393093       0.02194
   4     651.6      143.0198       20.7050      124.5274      145.2325       2.212700       0.02467
   3     718.7      142.7478       22.6034      122.1285      144.7319       1.984046       0.02874
   2     792.3      142.4960       24.6105      119.5548      144.1653       1.669322       0.03610
   1     891.5       84.5197       85.8760        0.0000       85.8760       1.356312       0.02664
   0    1013.0       84.6373       85.7261        0.0000       85.7261       1.088721       0.01858



 Wavenumbers: 22650. - 29000. cm-1, ATM      1
 LEVEL PRESSURE   UPWARD FLUX   DIFDOWN FLUX  DIRDOWN FLUX  DOWNWARD FLUX   NET FLUX    HEATING RATE
          mb          W/m2          W/m2          W/m2        W/m2          W/m2       degree/day
  51    .06700       58.5393        0.0000       59.0156       59.0156       0.476302       0.00000
  50    .07753       58.5392        0.0005       59.0151       59.0155       0.476302      -0.00000
  49    .09103       58.5391        0.0010       59.0144       59.0154       0.476302       0.00000
  48    0.1069       58.5390        0.0017       59.0136       59.0153       0.476302      -0.00000
  47    0.1255       58.5388        0.0025       59.0127       59.0151       0.476302       0.00000
  46    0.1487       58.5386        0.0034       59.0115       59.0149       0.476302       0.00000
  45    0.1794       58.5384        0.0048       59.0099       59.0147       0.476302      -0.00000
  44    0.2165       58.5381        0.0063       59.0080       59.0144       0.476302       0.00000
  43    0.2613       58.5377        0.0082       59.0058       59.0140       0.476302       0.00000
  42    0.3336       58.5371        0.0113       59.0022       59.0134       0.476302      -0.00000
  41    0.4307       58.5363        0.0153       58.9973       59.0126       0.476302       0.00000
  40    0.5894       58.5350        0.0220       58.9894       59.0113       0.476302       0.00000
  39     1.339       58.5290        0.0535       58.9518       59.0053       0.476302      -0.00000
  38     1.782       58.5254        0.0720       58.9297       59.0017       0.476302       0.00000
  37     2.292       58.5212        0.0934       58.9042       58.9975       0.476302       0.00000
  36     2.964       58.5158        0.1214       58.8706       58.9921       0.476302      -0.00000
  35     3.853       58.5086        0.1585       58.8264       58.9849       0.476302       0.00000
  34     5.035       58.4991        0.2078       58.7676       58.9754       0.476302      -0.00000
  33     6.613       58.4863        0.2735       58.6891       58.9626       0.476302       0.00000
  32     8.786       58.4692        0.3621       58.5834       58.9455       0.476302      -0.00000
  31     11.80       58.4447        0.4885       58.4324       58.9210       0.476302       0.00000
  30     15.07       58.4184        0.6241       58.2706       58.8947       0.476302      -0.00000
  29     18.79       58.3888        0.7769       58.0882       58.8651       0.476302       0.00000
  28     23.16       58.3543        0.9549       57.8757       58.8306       0.476302       0.00000
  27     28.12       58.3150        1.1579       57.6333       58.7913       0.476302       0.00000
  26     33.73       58.2711        1.3843       57.3631       58.7474       0.476302       0.00000
  25     40.54       58.2183        1.6567       57.0379       58.6946       0.476302      -0.00000
  24     48.69       58.1550        1.9834       56.6479       58.6313       0.476302       0.00000
  23     57.69       58.0858        2.3401       56.2221       58.5621       0.476302       0.00000
  22     68.43       58.0041        2.7618       55.7186       58.4804       0.476302      -0.00000
  21     81.20       57.9075        3.2598       55.1239       58.3838       0.476302       0.00000
  20     96.49       57.7935        3.8470       54.4228       58.2698       0.476302       0.00000
  19     114.6       57.6600        4.5353       53.6010       58.1363       0.476302       0.00000
  18     136.5       57.5040        5.3385       52.6418       57.9803       0.476302      -0.00000
  17     162.9       57.3216        6.2776       51.5203       57.7979       0.476302       0.00000
  16     196.4       57.0904        7.4672       50.0994       57.5667       0.476302      -0.00000
  15     218.7       56.9417        8.2317       49.1863       57.4180       0.476302       0.00000
  14     243.0       56.7829        9.0479       48.2113       57.2592       0.476302       0.00000
  13     269.0       56.6140        9.9153       47.1749       57.0903       0.476302      -0.00000
  12     297.5       56.4351       10.8332       46.0783       56.9114       0.476302       0.00000
  11     328.5       56.2461       11.8029       44.9195       56.7224       0.476302      -0.00000
  10     361.9       56.0473       12.8217       43.7018       56.5236       0.476302       0.00000
   9     398.1       55.8387       13.8900       42.4250       56.3150       0.476302       0.00000
   8     437.6       55.6207       15.0053       41.0916       56.0970       0.476302      -0.00000
   7     480.5       55.3937       16.1655       39.7045       55.8700       0.476302       0.00000
   6     533.0       55.1233       17.5453       38.0543       55.5996       0.476302       0.00000
   5     589.8       54.8426       18.9758       36.3431       55.3189       0.476302      -0.00000
   4     651.6       54.5529       20.4496       34.5795       55.0292       0.476302       0.00000
   3     718.7       54.2551       21.9612       32.7702       54.7314       0.476302      -0.00000
   2     792.3       53.9510       23.5017       30.9256       54.4273       0.476302       0.00000
   1     891.5       36.5746       37.0448        0.0000       37.0448       0.470261       0.00051
   0    1013.0       36.5582       37.0284        0.0000       37.0284       0.470261      -0.00000



 Wavenumbers: 29000. - 38000. cm-1, ATM      1
 LEVEL PRESSURE   UPWARD FLUX   DIFDOWN FLUX  DIRDOWN FLUX  DOWNWARD FLUX   NET FLUX    HEATING RATE
          mb          W/m2          W/m2          W/m2        W/m2          W/m2       degree/day
  51    .06700        8.7755        0.0000       20.8114       20.8114      12.035825       0.00000
  50    .07753        8.7753        0.0003       20.8070       20.8074      12.032018       3.05160
  49    .09103        8.7751        0.0007       20.8009       20.8016      12.026480       3.46091
  48    0.1069        8.7749        0.0012       20.7928       20.7939      12.019070       3.94436
  47    0.1255        8.7746        0.0017       20.7820       20.7837      12.009165       4.49042
  46    0.1487        8.7742        0.0024       20.7665       20.7688      11.994602       5.30854
  45    0.1794        8.7738        0.0033       20.7424       20.7457      11.971937       6.22215
  44    0.2165        8.7733        0.0044       20.7103       20.7147      11.941413       6.94353
  43    0.2613        8.7727        0.0056       20.6675       20.6731      11.900418       7.72747
  42    0.3336        8.7718        0.0077       20.5880       20.5957      11.823855       8.92643
  41    0.4307        8.7707        0.0104       20.4722       20.4826      11.711900       9.73423
  40    0.5894        8.7692        0.0147       20.2637       20.2784      11.509212      10.77870
  39     1.339        8.7658        0.0331       19.0984       19.1315      10.365701      12.87386
  38     1.782        8.7663        0.0427       18.4394       18.4821       9.715747      12.37407
  37     2.292        8.7691        0.0530       17.7714       17.8244       9.055361      10.93773
  36     2.964        8.7757        0.0657       17.0421       17.1079       8.332169       9.07824
  35     3.853        8.7886        0.0816       16.2678       16.3495       7.560883       7.31965
  34     5.035        8.8099        0.1018       15.4803       15.5821       6.772226       5.63384
  33     6.613        8.8409        0.1276       14.7157       14.8433       6.002412       4.11543
  32     8.786        8.8818        0.1614       13.9936       14.1550       5.273151       2.83219
  31     11.80        8.9353        0.2085       13.2835       13.4920       4.556758       2.00567
  30     15.07        8.9869        0.2574       12.7394       12.9967       4.009840       1.41204
  29     18.79        9.0402        0.3115       12.2666       12.5781       3.537904       1.07002
  28     23.16        9.0969        0.3731       11.8300       12.2031       3.106206       0.83476
  27     28.12        9.1550        0.4420       11.4279       11.8699       2.714894       0.66520
  26     33.73        9.2087        0.5180       11.0695       11.5875       2.378752       0.50540
  25     40.54        9.2598        0.6088       10.7209       11.3297       2.069897       0.38317
  24     48.69        9.3081        0.7165       10.3742       11.0907       1.782594       0.29731
  23     57.69        9.3480        0.8332       10.0549       10.8881       1.540107       0.22730
  22     68.43        9.3804        0.9700        9.7327       10.7027       1.322326       0.17121
  21     81.20        9.3964        1.1316        9.4134       10.5450       1.148593       0.11480
  20     96.49        9.3940        1.3215        9.0887       10.4102       1.016286       0.07302
  19     114.6        9.3813        1.5410        8.7388       10.2798       0.898467       0.05501
  18     136.5        9.3615        1.7919        8.3549       10.1468       0.785365       0.04349
  17     162.9        9.3346        2.0780        7.9311       10.0092       0.674564       0.03542
  16     196.4        9.2888        2.4325        7.4333        9.8658       0.576979       0.02456
  15     218.7        9.2556        2.6554        7.1295        9.7850       0.529359       0.01808
  14     243.0        9.2193        2.8886        6.8161        9.7046       0.485370       0.01526
  13     269.0        9.1794        3.1310        6.4943        9.6253       0.445854       0.01282
  12     297.5        9.1363        3.3816        6.1657        9.5473       0.411003       0.01034
  11     328.5        9.0913        3.6395        5.8295        9.4689       0.377621       0.00908
  10     361.9        9.0449        3.9021        5.4886        9.3907       0.345856       0.00804
   9     398.1        8.9971        4.1689        5.1440        9.3129       0.315737       0.00702
   8     437.6        8.9487        4.4384        4.7969        9.2354       0.286685       0.00621
   7     480.5        8.8998        4.7085        4.4504        9.1589       0.259090       0.00542
   6     533.0        8.8438        5.0166        4.0563        9.0728       0.228986       0.00484
   5     589.8        8.7888        5.3204        3.6682        8.9886       0.199814       0.00433
   4     651.6        8.7357        5.6164        3.2905        8.9069       0.171246       0.00391
   3     718.7        8.6850        5.9030        2.9252        8.8282       0.143237       0.00352
   2     792.3        8.6374        6.1768        2.5764        8.7532       0.115791       0.00315
   1     891.5        5.5558        5.6466        0.0000        5.6466       0.090754       0.00213
   0    1013.0        5.5595        5.6310        0.0000        5.6310       0.071513       0.00134



 Wavenumbers: 38000. - 50000. cm-1, ATM      1
 LEVEL PRESSURE   UPWARD FLUX   DIFDOWN FLUX  DIRDOWN FLUX  DOWNWARD FLUX   NET FLUX    HEATING RATE
          mb          W/m2          W/m2          W/m2        W/m2          W/m2       degree/day
  51    .06700        0.0061        0.0000        1.2836        1.2836       1.277518       0.00000
  50    .07753        0.0061        0.0001        1.2812        1.2812       1.275183       1.87150
  49    .09103        0.0060        0.0002        1.2777        1.2778       1.271851       2.08247
  48    0.1069        0.0059        0.0002        1.2731        1.2734       1.267473       2.33059
  47    0.1255        0.0058        0.0004        1.2672        1.2675       1.261717       2.60908
  46    0.1487        0.0057        0.0005        1.2586        1.2591       1.253391       3.03499
  45    0.1794        0.0055        0.0007        1.2455        1.2462       1.240623       3.50520
  44    0.2165        0.0054        0.0009        1.2282        1.2291       1.223697       3.85037
  43    0.2613        0.0052        0.0011        1.2054        1.2065       1.201348       4.21261
  42    0.3336        0.0049        0.0015        1.1639        1.1654       1.160524       4.75970
  41    0.4307        0.0045        0.0020        1.1051        1.1070       1.102565       5.03943
  40    0.5894        0.0039        0.0026        1.0039        1.0064       1.002524       5.32007
  39     1.339        0.0022        0.0035        0.5438        0.5473       0.545104       5.14971
  38     1.782        0.0016        0.0032        0.3635        0.3666       0.365006       3.42879
  37     2.292        0.0012        0.0027        0.2356        0.2383       0.237058       2.11916
  36     2.964        0.0009        0.0022        0.1455        0.1477       0.146786       1.13318
  35     3.853        0.0006        0.0017        0.0858        0.0875       0.086906       0.56828
  34     5.035        0.0004        0.0013        0.0488        0.0501       0.049701       0.26578
  33     6.613        0.0003        0.0010        0.0273        0.0282       0.027974       0.11615
  32     8.786        0.0002        0.0007        0.0144        0.0151       0.014928       0.05067
  31     11.80        0.0001        0.0004        0.0065        0.0070       0.006903       0.02247
  30     15.07        0.0000        0.0003        0.0031        0.0034       0.003329       0.00923
  29     18.79        0.0000        0.0002        0.0014        0.0016       0.001583       0.00396
  28     23.16        0.0000        0.0001        0.0006        0.0007       0.000720       0.00167
  27     28.12        0.0000        0.0001        0.0003        0.0003       0.000317       0.00069
  26     33.73        0.0000        0.0000        0.0001        0.0001       0.000140       0.00027
  25     40.54        0.0000        0.0000        0.0000        0.0001       0.000057       0.00010
  24     48.69        0.0000        0.0000        0.0000        0.0000       0.000021       0.00004
  23     57.69        0.0000        0.0000        0.0000        0.0000       0.000008       0.00001
  22     68.43        0.0000        0.0000        0.0000        0.0000       0.000003       0.00000
  21     81.20        0.0000        0.0000        0.0000        0.0000       0.000001       0.00000
  20     96.49        0.0000        0.0000        0.0000        0.0000       0.000000       0.00000
  19     114.6        0.0000        0.0000        0.0000        0.0000       0.000000       0.00000
  18     136.5        0.0000        0.0000        0.0000        0.0000       0.000000       0.00000
  17     162.9        0.0000        0.0000        0.0000        0.0000       0.000000       0.00000
  16     196.4        0.0000        0.0000        0.0000        0.0000       0.000000       0.00000
  15     218.7        0.0000        0.0000        0.0000        0.0000       0.000000       0.00000
  14     243.0        0.0000        0.0000        0.0000        0.0000       0.000000       0.00000
  13     269.0        0.0000        0.0000        0.0000        0.0000       0.000000       0.00000
  12     297.5        0.0000        0.0000        0.0000        0.0000       0.000000       0.00000
  11     328.5        0.0000        0.0000        0.0000        0.0000       0.000000       0.00000
  10     361.9        0.0000        0.0000        0.0000        0.0000       0.000000       0.00000
   9     398.1        0.0000        0.0000        0.0000        0.0000       0.000000       0.00000
   8     437.6        0.0000        0.0000        0.0000        0.0000       0.000000       0.00000
   7     480.5        0.0000        0.0000        0.0000        0.0000       0.000000       0.00000
   6     533.0        0.0000        0.0000        0.0000        0.0000       0.000000       0.00000
   5     589.8        0.0000        0.0000        0.0000        0.0000       0.000000       0.00000
   4     651.6        0.0000        0.0000        0.0000        0.0000       0.000000       0.00000
   3     718.7        0.0000        0.0000        0.0000        0.0000       0.000000       0.00000
   2     792.3        0.0000        0.0000        0.0000        0.0000       0.000000       0.00000
   1     891.5        0.0000        0.0000        0.0000        0.0000       0.000000       0.00000
   0    1013.0        0.0000        0.0000        0.0000        0.0000       0.000000       0.00000



 Wavenumbers:   820. -  2600. cm-1, ATM      1
 LEVEL PRESSURE   UPWARD FLUX   DIFDOWN FLUX  DIRDOWN FLUX  DOWNWARD FLUX   NET FLUX    HEATING RATE
          mb          W/m2          W/m2          W/m2        W/m2          W/m2       degree/day
  51    .06700        1.7932        0.0000        6.0047        6.0047       4.211403       0.00000
  50    .07753        1.7932        0.0000        6.0008        6.0008       4.207550       3.08826
  49    .09103        1.7932        0.0000        5.9999        5.9999       4.206665       0.55363
  48    0.1069        1.7932        0.0000        5.9989        5.9989       4.205675       0.52658
  47    0.1255        1.7932        0.0000        5.9978        5.9978       4.204558       0.50655
  46    0.1487        1.7932        0.0000        5.9964        5.9964       4.203201       0.49463
  45    0.1794        1.7932        0.0000        5.9947        5.9947       4.201481       0.47206
  44    0.2165        1.7932        0.0000        5.9929        5.9929       4.199639       0.41916
  43    0.2613        1.7932        0.0000        5.9909        5.9909       4.197679       0.36939
  42    0.3336        1.7932        0.0000        5.9880        5.9880       4.194800       0.33563
  41    0.4307        1.7933        0.0000        5.9846        5.9846       4.191330       0.30172
  40    0.5894        1.7933        0.0000        5.9791        5.9791       4.185824       0.29283
  39     1.339        1.7933        0.0000        5.9536        5.9536       4.160330       0.28701
  38     1.782        1.7933        0.0000        5.9395        5.9395       4.146188       0.26925
  37     2.292        1.7933        0.0000        5.9237        5.9237       4.130432       0.26095
  36     2.964        1.7933        0.0000        5.9039        5.9039       4.110652       0.24830
  35     3.853        1.7933        0.0000        5.8793        5.8793       4.085988       0.23406
  34     5.035        1.7933        0.0000        5.8487        5.8487       4.055415       0.21840
  33     6.613        1.7933        0.0000        5.8108        5.8108       4.017437       0.20303
  32     8.786        1.7933        0.0000        5.7631        5.7631       3.969795       0.18502
  31     11.80        1.7934        0.0000        5.7039        5.7039       3.910511       0.16598
  30     15.07        1.7934        0.0000        5.6539        5.6539       3.860443       0.12927
  29     18.79        1.7935        0.0000        5.6127        5.6127       3.819273       0.09334
  28     23.16        1.7935        0.0000        5.5794        5.5794       3.785856       0.06462
  27     28.12        1.7936        0.0000        5.5518        5.5518       3.758242       0.04694
  26     33.73        1.7936        0.0000        5.5268        5.5268       3.733134       0.03775
  25     40.54        1.7937        0.0000        5.4993        5.4993       3.705624       0.03413
  24     48.69        1.7938        0.0000        5.4678        5.4678       3.674000       0.03273
  23     57.69        1.7939        0.0000        5.4340        5.4340       3.640120       0.03176
  22     68.43        1.7940        0.0000        5.3947        5.3948       3.600733       0.03096
  21     81.20        1.7942        0.0000        5.3497        5.3497       3.555561       0.02985
  20     96.49        1.7944        0.0000        5.2982        5.2982       3.503873       0.02853
  19     114.6        1.7946        0.0000        5.2389        5.2389       3.444337       0.02780
  18     136.5        1.7949        0.0000        5.1716        5.1717       3.376809       0.02597
  17     162.9        1.7953        0.0000        5.0890        5.0891       3.293792       0.02654
  16     196.4        1.7960        0.0000        4.9668        4.9668       3.170880       0.03094
  15     218.7        1.7966        0.0000        4.8585        4.8585       3.061848       0.04140
  14     243.0        1.7977        0.0000        4.7078        4.7079       2.910152       0.05261
  13     269.0        1.7993        0.0000        4.5343        4.5343       2.734973       0.05683
  12     297.5        1.8019        0.0000        4.3419        4.3420       2.540097       0.05780
  11     328.5        1.8053        0.0000        4.1281        4.1281       2.322851       0.05907
  10     361.9        1.8098        0.0000        3.8786        3.8787       2.068840       0.06427
   9     398.1        1.8157        0.0000        3.6159        3.6160       1.800235       0.06258
   8     437.6        1.8233        0.0000        3.3759        3.3759       1.552552       0.05296
   7     480.5        1.8327        0.0000        3.1957        3.1958       1.363098       0.03721
   6     533.0        1.8469        0.0000        3.0467        3.0467       1.199806       0.02627
   5     589.8        1.8679        0.0001        2.9023        2.9023       1.034409       0.02455
   4     651.6        1.9045        0.0001        2.7183        2.7184       0.813838       0.03016
   3     718.7        1.9687        0.0001        2.5058        2.5059       0.537209       0.03476
   2     792.3        2.0960        0.0001        2.2756        2.2757       0.179695       0.04100
   1     891.5        0.0399        0.0683        0.0000        0.0683       0.028438       0.01287
   0    1013.0        0.0463        0.0584        0.0000        0.0584       0.012023       0.00114

  Modules and versions used in this calculation:

       rrtmg_sw.1col.f90:  $Revision$                    rrtmg_sw_init.f90:  $Revision$        
     rrtmgsw_cldprop.f90:  $Revision$                  rrtmgsw_cldprmc.f90:  NOT USED          
     rrtmg_sw_reftra.f90:  $Revision$                  rrtmg_sw_spcvrt.f90:  NOT USED          
     rrtmg_sw_spcvmc.f90:  NOT USED                    rrtmgsw_setcoef.f90:  NOT USED          
     rrtmg_sw_taumol.f90:  $Revision$                  rrtmg_sw_vrtqdr.f90:  NOT USED          
                rrtatm.f:  NOT USED                             util_xxx.f:  NOT USED          
                 extra.f:  NOT USED                       rrtmg_sw_k_g.f90:  $Revision$        

