

 Wavenumbers:   820. - 50000. cm-1, ATM      1
 LEVEL PRESSURE   UPWARD FLUX   DIFDOWN FLUX  DIRDOWN FLUX  DOWNWARD FLUX   NET FLUX    HEATING RATE
          mb          W/m2          W/m2          W/m2        W/m2          W/m2       degree/day
  51    .06700      439.1691        0.0000      617.8126      617.8126     178.643442       0.00000
  50    .07753      439.1688        0.0014      617.7947      617.7961     178.627300      12.93813
  49    .09103      439.1683        0.0031      617.7778      617.7808     178.612487       9.25820
  48    0.1069      439.1679        0.0050      617.7581      617.7631     178.595223       9.19021
  47    0.1255      439.1674        0.0072      617.7340      617.7412     178.573873       9.67866
  46    0.1487      439.1668        0.0101      617.7009      617.7110     178.544182      10.82300
  45    0.1794      439.1661        0.0139      617.6521      617.6660     178.499941      12.14500
  44    0.2165      439.1654        0.0185      617.5895      617.6080     178.442608      13.04238
  43    0.2613      439.1647        0.0239      617.5089      617.5328     178.368079      14.04837
  42    0.3336      439.1639        0.0327      617.3641      617.3968     178.232964      15.75306
  41    0.4307      439.1632        0.0444      617.1591      617.2035     178.040297      16.75199
  40    0.5894      439.1631        0.0632      616.8005      616.8637     177.700524      18.06870
  39     1.339      439.1812        0.1482      614.9443      615.0925     175.911344      20.14292
  38     1.782      439.2045        0.1961      613.9670      614.1631     174.958619      18.13833
  37     2.292      439.2431        0.2506      613.0059      613.2565     174.013347      15.65617
  36     2.964      439.3113        0.3214      611.9577      612.2791     172.967816      13.12458
  35     3.853      439.4255        0.4143      610.8024      611.2167     171.791142      11.16685
  34     5.035      439.6012        0.5368      609.5327      610.0695     170.468288       9.44992
  33     6.613      439.8487        0.6995      608.1464      608.8459     168.997226       7.86430
  32     8.786      440.1710        0.9177      606.6250      607.5427     167.371699       6.31296
  31     11.80      440.5885        1.2284      604.8486      606.0770     165.488494       5.27238
  30     15.07      440.9860        1.5600      603.2440      604.8039     163.817861       4.31325
  29     18.79      441.3897        1.9330      601.6511      603.5841     162.194458       3.68075
  28     23.16      441.8089        2.3665      599.9927      602.3592     160.550327       3.17922
  27     28.12      442.2270        2.8599      598.2881      601.1480     158.920959       2.76982
  26     33.73      442.6054        3.4100      596.5951      600.0051     157.399672       2.28730
  25     40.54      442.9583        4.0723      594.7727      598.8450     155.886693       1.87702
  24     48.69      443.2827        4.8670      592.7865      597.6535     154.370815       1.56870
  23     57.69      443.5411        5.7358      590.7959      596.5317     152.990622       1.29372
  22     68.43      443.7425        6.7651      588.6191      595.3841     151.641663       1.06046
  21     81.20      443.8348        7.9854      586.2690      594.2544     150.419605       0.80752
  20     96.49      443.8078        9.4303      583.6961      593.1264     149.318612       0.60767
  19     114.6      443.7211       11.1303      580.7708      591.9011     148.179983       0.53166
  18     136.5      443.5736       13.1210      577.4359      590.5569     146.983325       0.46014
  17     162.9      443.3598       15.4573      573.5624      589.0198     145.660019       0.42298
  16     196.4      442.9946       18.4370      568.5907      587.0277     144.033116       0.40951
  15     218.7      442.7265       20.3637      565.0572      585.4209     142.694423       0.50825
  14     243.0      442.4274       22.4303      560.7495      583.1799     140.752486       0.67353
  13     269.0      442.0987       24.6384      555.3947      580.0331     137.934348       0.91419
  12     297.5      441.7462       26.9885      548.9964      575.9849     134.238676       1.09610
  11     328.5      441.3801       29.4873      542.0895      571.5768     130.196730       1.09899
  10     361.9      441.0084       32.1309      534.6242      566.7551     125.746744       1.12589
   9     398.1      440.6423       34.9240      526.4204      561.3444     120.702161       1.17527
   8     437.6      440.3040       37.8653      517.3907      555.2560     114.951992       1.22942
   7     480.5      440.0172       40.9529      507.7216      548.6744     108.657266       1.23626
   6     533.0      439.8061       44.6654      495.9006      540.5660     100.759890       1.27044
   5     589.8      439.8378       48.5616      483.0788      531.6404      91.802682       1.32954
   4     651.6      440.4096       52.6288      468.6907      521.3194      80.909803       1.48963
   3     718.7      441.9394       56.8587      453.2257      510.0844      68.145013       1.60418
   2     792.3      445.5333       61.2293      436.4928      497.7221      52.188803       1.83000
   1     891.5      300.0591      336.5865        1.6804      338.2669      38.207842       1.18971
   0    1013.0      303.4261      330.3234        1.5768      331.9002      28.474100       0.67586



 Wavenumbers:  2600. -  3250. cm-1, ATM      1
 LEVEL PRESSURE   UPWARD FLUX   DIFDOWN FLUX  DIRDOWN FLUX  DOWNWARD FLUX   NET FLUX    HEATING RATE
          mb          W/m2          W/m2          W/m2        W/m2          W/m2       degree/day
  51    .06700        1.6389        0.0000        5.4450        5.4450       3.806163       0.00000
  50    .07753        1.6389        0.0000        5.4450        5.4450       3.806155       0.00640
  49    .09103        1.6389        0.0000        5.4450        5.4450       3.806145       0.00627
  48    0.1069        1.6389        0.0000        5.4450        5.4450       3.806133       0.00613
  47    0.1255        1.6389        0.0000        5.4450        5.4450       3.806120       0.00599
  46    0.1487        1.6389        0.0000        5.4450        5.4450       3.806103       0.00608
  45    0.1794        1.6389        0.0000        5.4450        5.4450       3.806081       0.00625
  44    0.2165        1.6389        0.0000        5.4449        5.4449       3.806054       0.00612
  43    0.2613        1.6389        0.0000        5.4449        5.4449       3.806022       0.00600
  42    0.3336        1.6389        0.0000        5.4448        5.4448       3.805969       0.00617
  41    0.4307        1.6389        0.0000        5.4448        5.4448       3.805898       0.00620
  40    0.5894        1.6389        0.0000        5.4446        5.4446       3.805778       0.00637
  39     1.339        1.6389        0.0000        5.4439        5.4439       3.805070       0.00797
  38     1.782        1.6389        0.0000        5.4434        5.4434       3.804527       0.01034
  37     2.292        1.6389        0.0000        5.4427        5.4427       3.803811       0.01186
  36     2.964        1.6389        0.0000        5.4416        5.4416       3.802773       0.01304
  35     3.853        1.6389        0.0000        5.4402        5.4402       3.801295       0.01402
  34     5.035        1.6389        0.0000        5.4381        5.4381       3.799240       0.01469
  33     6.613        1.6389        0.0000        5.4353        5.4353       3.796458       0.01487
  32     8.786        1.6389        0.0000        5.4317        5.4317       3.792825       0.01411
  31     11.80        1.6389        0.0000        5.4269        5.4269       3.788043       0.01339
  30     15.07        1.6389        0.0000        5.4224        5.4224       3.783515       0.01169
  29     18.79        1.6389        0.0000        5.4180        5.4180       3.779099       0.01001
  28     23.16        1.6389        0.0000        5.4135        5.4135       3.774609       0.00868
  27     28.12        1.6389        0.0000        5.4088        5.4088       3.769954       0.00791
  26     33.73        1.6389        0.0000        5.4036        5.4036       3.764703       0.00789
  25     40.54        1.6389        0.0000        5.3966        5.3967       3.757746       0.00863
  24     48.69        1.6389        0.0000        5.3872        5.3872       3.748245       0.00983
  23     57.69        1.6390        0.0000        5.3754        5.3754       3.736428       0.01108
  22     68.43        1.6390        0.0000        5.3599        5.3599       3.720892       0.01221
  21     81.20        1.6391        0.0000        5.3401        5.3401       3.700990       0.01315
  20     96.49        1.6392        0.0000        5.3155        5.3155       3.676326       0.01361
  19     114.6        1.6394        0.0001        5.2853        5.2854       3.645995       0.01416
  18     136.5        1.6396        0.0001        5.2504        5.2505       3.610899       0.01350
  17     162.9        1.6399        0.0001        5.2111        5.2112       3.571283       0.01266
  16     196.4        1.6404        0.0001        5.1640        5.1641       3.523737       0.01197
  15     218.7        1.6409        0.0001        5.1331        5.1332       3.492316       0.01193
  14     243.0        1.6417        0.0001        5.0962        5.0963       3.454595       0.01308
  13     269.0        1.6430        0.0001        5.0511        5.0512       3.408187       0.01505
  12     297.5        1.6450        0.0001        4.9956        4.9957       3.350747       0.01704
  11     328.5        1.6477        0.0001        4.9304        4.9305       3.282774       0.01848
  10     361.9        1.6515        0.0001        4.8511        4.8512       3.199721       0.02101
   9     398.1        1.6568        0.0002        4.7507        4.7508       3.094068       0.02461
   8     437.6        1.6641        0.0002        4.6220        4.6222       2.958116       0.02907
   7     480.5        1.6743        0.0002        4.4625        4.4627       2.788386       0.03333
   6     533.0        1.6909        0.0002        4.2460        4.2462       2.555293       0.03750
   5     589.8        1.7165        0.0002        3.9954        3.9956       2.279095       0.04100
   4     651.6        1.7591        0.0002        3.7089        3.7091       1.950016       0.04500
   3     718.7        1.8301        0.0002        3.4018        3.4020       1.571927       0.04752
   2     792.3        1.9612        0.0002        3.0564        3.0566       1.095420       0.05465
   1     891.5        0.0054        0.7211        0.0105        0.7316       0.726218       0.03142
   0    1013.0        0.0062        0.5976        0.0085        0.6061       0.599831       0.00878



 Wavenumbers:  3250. -  4000. cm-1, ATM      1
 LEVEL PRESSURE   UPWARD FLUX   DIFDOWN FLUX  DIRDOWN FLUX  DOWNWARD FLUX   NET FLUX    HEATING RATE
          mb          W/m2          W/m2          W/m2        W/m2          W/m2       degree/day
  51    .06700        0.0525        0.0000        9.1795        9.1795       9.127011       0.00000
  50    .07753        0.0525        0.0000        9.1747        9.1747       9.122168       3.88148
  49    .09103        0.0525        0.0000        9.1713        9.1713       9.118780       2.11747
  48    0.1069        0.0525        0.0000        9.1688        9.1688       9.116256       1.34402
  47    0.1255        0.0525        0.0000        9.1665        9.1665       9.113996       1.02422
  46    0.1487        0.0525        0.0000        9.1641        9.1641       9.111555       0.88991
  45    0.1794        0.0525        0.0000        9.1612        9.1612       9.108677       0.79008
  44    0.2165        0.0525        0.0000        9.1583        9.1583       9.105757       0.66430
  43    0.2613        0.0525        0.0000        9.1553        9.1553       9.102784       0.56041
  42    0.3336        0.0525        0.0000        9.1511        9.1511       9.098605       0.48723
  41    0.4307        0.0525        0.0000        9.1464        9.1464       9.093836       0.41459
  40    0.5894        0.0525        0.0000        9.1393        9.1394       9.086831       0.37255
  39     1.339        0.0525        0.0000        9.1127        9.1127       9.060217       0.29962
  38     1.782        0.0525        0.0000        9.1011        9.1011       9.048629       0.22062
  37     2.292        0.0525        0.0000        9.0901        9.0901       9.037562       0.18329
  36     2.964        0.0525        0.0000        9.0776        9.0776       9.025133       0.15603
  35     3.853        0.0525        0.0000        9.0629        9.0629       9.010342       0.14036
  34     5.035        0.0525        0.0000        9.0441        9.0441       8.991604       0.13386
  33     6.613        0.0525        0.0000        9.0191        9.0191       8.966602       0.13366
  32     8.786        0.0525        0.0000        8.9843        8.9843       8.931818       0.13509
  31     11.80        0.0525        0.0000        8.9327        8.9327       8.880202       0.14451
  30     15.07        0.0525        0.0000        8.8758        8.8759       8.823357       0.14676
  29     18.79        0.0525        0.0000        8.8110        8.8110       8.758530       0.14698
  28     23.16        0.0525        0.0000        8.7365        8.7366       8.684085       0.14395
  27     28.12        0.0525        0.0000        8.6554        8.6555       8.602972       0.13789
  26     33.73        0.0525        0.0000        8.5719        8.5719       8.519472       0.12554
  25     40.54        0.0525        0.0001        8.4812        8.4812       8.428748       0.11255
  24     48.69        0.0525        0.0001        8.3838        8.3839       8.331447       0.10069
  23     57.69        0.0524        0.0001        8.2861        8.2862       8.233712       0.09161
  22     68.43        0.0524        0.0001        8.1751        8.1751       8.122715       0.08726
  21     81.20        0.0524        0.0001        8.0457        8.0458       7.993357       0.08548
  20     96.49        0.0524        0.0001        7.8949        7.8951       7.842653       0.08318
  19     114.6        0.0524        0.0001        7.7162        7.7163       7.663943       0.08344
  18     136.5        0.0524        0.0002        7.5193        7.5195       7.467099       0.07569
  17     162.9        0.0523        0.0002        7.2913        7.2915       7.239206       0.07284
  16     196.4        0.0523        0.0002        6.9660        6.9662       6.913929       0.08188
  15     218.7        0.0523        0.0002        6.6648        6.6650       6.612732       0.11435
  14     243.0        0.0523        0.0002        6.2619        6.2622       6.209915       0.13971
  13     269.0        0.0523        0.0003        5.7576        5.7579       5.705563       0.16361
  12     297.5        0.0524        0.0003        5.1719        5.1722       5.119758       0.17374
  11     328.5        0.0526        0.0002        4.5757        4.5760       4.523400       0.16215
  10     361.9        0.0529        0.0002        3.9995        3.9998       3.946895       0.14586
   9     398.1        0.0534        0.0002        3.4655        3.4657       3.412299       0.12455
   8     437.6        0.0543        0.0002        2.9740        2.9743       2.919954       0.10527
   7     480.5        0.0557        0.0002        2.5307        2.5309       2.475129       0.08736
   6     533.0        0.0585        0.0002        2.0614        2.0616       2.003030       0.07595
   5     589.8        0.0636        0.0002        1.6150        1.6151       1.551481       0.06702
   4     651.6        0.0743        0.0001        1.1565        1.1566       1.082238       0.06417
   3     718.7        0.0979        0.0001        0.7390        0.7391       0.641158       0.05543
   2     792.3        0.1609        0.0001        0.3985        0.3985       0.237605       0.04628
   1     891.5        0.0000        0.0262        0.0005        0.0266       0.026620       0.01795
   0    1013.0        0.0002        0.0027        0.0000        0.0028       0.002564       0.00167



 Wavenumbers:  4000. -  4650. cm-1, ATM      1
 LEVEL PRESSURE   UPWARD FLUX   DIFDOWN FLUX  DIRDOWN FLUX  DOWNWARD FLUX   NET FLUX    HEATING RATE
          mb          W/m2          W/m2          W/m2        W/m2          W/m2       degree/day
  51    .06700        5.3687        0.0000       10.7795       10.7795       5.410858       0.00000
  50    .07753        5.3687        0.0000       10.7795       10.7795       5.410857       0.00080
  49    .09103        5.3687        0.0000       10.7795       10.7795       5.410856       0.00078
  48    0.1069        5.3687        0.0000       10.7795       10.7795       5.410855       0.00077
  47    0.1255        5.3687        0.0000       10.7795       10.7795       5.410853       0.00075
  46    0.1487        5.3687        0.0000       10.7795       10.7795       5.410851       0.00076
  45    0.1794        5.3687        0.0000       10.7795       10.7795       5.410848       0.00078
  44    0.2165        5.3687        0.0000       10.7795       10.7795       5.410845       0.00076
  43    0.2613        5.3687        0.0000       10.7795       10.7795       5.410841       0.00075
  42    0.3336        5.3687        0.0000       10.7795       10.7795       5.410834       0.00077
  41    0.4307        5.3687        0.0000       10.7795       10.7795       5.410825       0.00077
  40    0.5894        5.3687        0.0000       10.7795       10.7795       5.410810       0.00080
  39     1.339        5.3687        0.0000       10.7794       10.7794       5.410721       0.00101
  38     1.782        5.3687        0.0000       10.7793       10.7793       5.410651       0.00133
  37     2.292        5.3687        0.0000       10.7792       10.7792       5.410557       0.00156
  36     2.964        5.3687        0.0000       10.7791       10.7791       5.410416       0.00176
  35     3.853        5.3687        0.0000       10.7789       10.7789       5.410207       0.00198
  34     5.035        5.3687        0.0000       10.7786       10.7786       5.409900       0.00220
  33     6.613        5.3687        0.0000       10.7781       10.7781       5.409447       0.00242
  32     8.786        5.3687        0.0000       10.7774       10.7774       5.408779       0.00260
  31     11.80        5.3687        0.0001       10.7763       10.7764       5.407728       0.00294
  30     15.07        5.3687        0.0001       10.7751       10.7752       5.406495       0.00318
  29     18.79        5.3687        0.0001       10.7736       10.7737       5.405003       0.00338
  28     23.16        5.3687        0.0001       10.7717       10.7718       5.403149       0.00358
  27     28.12        5.3687        0.0001       10.7695       10.7696       5.400904       0.00382
  26     33.73        5.3687        0.0002       10.7667       10.7668       5.398133       0.00417
  25     40.54        5.3687        0.0002       10.7629       10.7631       5.394372       0.00467
  24     48.69        5.3688        0.0002       10.7579       10.7581       5.389356       0.00519
  23     57.69        5.3689        0.0003       10.7520       10.7523       5.383403       0.00558
  22     68.43        5.3690        0.0003       10.7446       10.7449       5.375932       0.00587
  21     81.20        5.3692        0.0004       10.7355       10.7359       5.366720       0.00609
  20     96.49        5.3694        0.0005       10.7245       10.7249       5.355492       0.00620
  19     114.6        5.3698        0.0005       10.7107       10.7113       5.341425       0.00657
  18     136.5        5.3704        0.0006       10.6942       10.6948       5.324443       0.00653
  17     162.9        5.3712        0.0008       10.6740       10.6748       5.303569       0.00667
  16     196.4        5.3726        0.0009       10.6464       10.6473       5.274678       0.00727
  15     218.7        5.3738        0.0010       10.6255       10.6265       5.252638       0.00837
  14     243.0        5.3756        0.0011       10.5980       10.5992       5.223536       0.01009
  13     269.0        5.3783        0.0012       10.5611       10.5623       5.184021       0.01282
  12     297.5        5.3822        0.0014       10.5119       10.5133       5.131090       0.01570
  11     328.5        5.3876        0.0015       10.4499       10.4514       5.063787       0.01830
  10     361.9        5.3947        0.0017       10.3702       10.3718       4.977182       0.02191
   9     398.1        5.4035        0.0018       10.2678       10.2696       4.866051       0.02589
   8     437.6        5.4149        0.0020       10.1390       10.1410       4.726036       0.02994
   7     480.5        5.4296        0.0021        9.9877        9.9898       4.560255       0.03256
   6     533.0        5.4523        0.0023        9.7937        9.7960       4.343748       0.03483
   5     589.8        5.4853        0.0025        9.5752        9.5777       4.092388       0.03731
   4     651.6        5.5391        0.0028        9.2958        9.2985       3.759460       0.04553
   3     718.7        5.6306        0.0029        8.9267        8.9297       3.299108       0.05785
   2     792.3        5.8055        0.0031        8.4542        8.4573       2.651877       0.07423
   1     891.5        0.3178        2.4153        0.0316        2.4469       2.129131       0.04448
   0    1013.0        0.3378        2.2264        0.0287        2.2551       1.917291       0.01471



 Wavenumbers:  4650. -  5150. cm-1, ATM      1
 LEVEL PRESSURE   UPWARD FLUX   DIFDOWN FLUX  DIRDOWN FLUX  DOWNWARD FLUX   NET FLUX    HEATING RATE
          mb          W/m2          W/m2          W/m2        W/m2          W/m2       degree/day
  51    .06700        3.8345        0.0000       10.2033       10.2033       6.368860       0.00000
  50    .07753        3.8345        0.0000       10.2031       10.2031       6.368624       0.18901
  49    .09103        3.8345        0.0000       10.2028       10.2028       6.368329       0.18428
  48    0.1069        3.8345        0.0000       10.2025       10.2025       6.367992       0.17931
  47    0.1255        3.8345        0.0000       10.2021       10.2021       6.367608       0.17426
  46    0.1487        3.8345        0.0000       10.2016       10.2016       6.367127       0.17536
  45    0.1794        3.8345        0.0000       10.2010       10.2010       6.366476       0.17850
  44    0.2165        3.8345        0.0000       10.2002       10.2002       6.365717       0.17277
  43    0.2613        3.8345        0.0000       10.1993       10.1993       6.364831       0.16690
  42    0.3336        3.8345        0.0000       10.1979       10.1979       6.363399       0.16702
  41    0.4307        3.8345        0.0000       10.1960       10.1960       6.361559       0.16002
  40    0.5894        3.8345        0.0000       10.1932       10.1932       6.358685       0.15283
  39     1.339        3.8345        0.0000       10.1816       10.1816       6.347093       0.13051
  38     1.782        3.8345        0.0000       10.1760       10.1760       6.341563       0.10527
  37     2.292        3.8345        0.0000       10.1706       10.1706       6.336106       0.09038
  36     2.964        3.8345        0.0000       10.1646       10.1647       6.330182       0.07436
  35     3.853        3.8345        0.0000       10.1584       10.1584       6.323966       0.05899
  34     5.035        3.8345        0.0000       10.1521       10.1521       6.317628       0.04528
  33     6.613        3.8345        0.0000       10.1456       10.1456       6.311166       0.03455
  32     8.786        3.8345        0.0001       10.1386       10.1386       6.304147       0.02726
  31     11.80        3.8345        0.0001       10.1295       10.1296       6.295091       0.02535
  30     15.07        3.8345        0.0001       10.1196       10.1197       6.285190       0.02556
  29     18.79        3.8346        0.0001       10.1076       10.1077       6.273152       0.02729
  28     23.16        3.8346        0.0002       10.0923       10.0924       6.257804       0.02968
  27     28.12        3.8347        0.0002       10.0731       10.0733       6.238649       0.03256
  26     33.73        3.8348        0.0002       10.0500       10.0503       6.215474       0.03484
  25     40.54        3.8349        0.0003       10.0201       10.0204       6.185456       0.03724
  24     48.69        3.8352        0.0003        9.9820        9.9823       6.147120       0.03967
  23     57.69        3.8355        0.0004        9.9384        9.9388       6.103370       0.04101
  22     68.43        3.8359        0.0005        9.8858        9.8862       6.050345       0.04168
  21     81.20        3.8364        0.0005        9.8234        9.8240       5.987547       0.04150
  20     96.49        3.8372        0.0006        9.7518        9.7524       5.915167       0.03995
  19     114.6        3.8383        0.0008        9.6719        9.6727       5.834340       0.03774
  18     136.5        3.8399        0.0009        9.5858        9.5867       5.746831       0.03365
  17     162.9        3.8420        0.0011        9.4940        9.4951       5.653112       0.02996
  16     196.4        3.8453        0.0013        9.3883        9.3895       5.544283       0.02739
  15     218.7        3.8478        0.0014        9.3229        9.3243       5.476484       0.02574
  14     243.0        3.8512        0.0016        9.2520        9.2535       5.402354       0.02571
  13     269.0        3.8556        0.0017        9.1717        9.1734       5.317722       0.02745
  12     297.5        3.8619        0.0019        9.0763        9.0782       5.216268       0.03009
  11     328.5        3.8700        0.0020        8.9650        8.9670       5.097004       0.03243
  10     361.9        3.8805        0.0022        8.8349        8.8371       4.956644       0.03551
   9     398.1        3.8941        0.0024        8.6820        8.6844       4.790292       0.03876
   8     437.6        3.9119        0.0026        8.5028        8.5054       4.593509       0.04207
   7     480.5        3.9351        0.0028        8.2948        8.2976       4.362573       0.04535
   6     533.0        3.9705        0.0031        8.0209        8.0239       4.053477       0.04972
   5     589.8        4.0198        0.0033        7.7063        7.7096       3.689775       0.05399
   4     651.6        4.0932        0.0035        7.3412        7.3447       3.251513       0.05993
   3     718.7        4.2049        0.0037        6.9387        6.9424       2.737439       0.06460
   2     792.3        4.3852        0.0039        6.5066        6.5105       2.125257       0.07021
   1     891.5        0.0788        1.7262        0.0241        1.7503       1.671505       0.03861
   0    1013.0        0.0852        1.5650        0.0215        1.5865       1.501349       0.01181



 Wavenumbers:  5150. -  6150. cm-1, ATM      1
 LEVEL PRESSURE   UPWARD FLUX   DIFDOWN FLUX  DIRDOWN FLUX  DOWNWARD FLUX   NET FLUX    HEATING RATE
          mb          W/m2          W/m2          W/m2        W/m2          W/m2       degree/day
  51    .06700        9.2238        0.0000       25.5798       25.5798      16.356011       0.00000
  50    .07753        9.2238        0.0000       25.5798       25.5798      16.355971       0.03161
  49    .09103        9.2238        0.0000       25.5797       25.5797      16.355920       0.03210
  48    0.1069        9.2238        0.0000       25.5797       25.5797      16.355859       0.03261
  47    0.1255        9.2238        0.0000       25.5796       25.5796      16.355786       0.03311
  46    0.1487        9.2238        0.0000       25.5795       25.5795      16.355690       0.03488
  45    0.1794        9.2238        0.0000       25.5794       25.5794      16.355555       0.03712
  44    0.2165        9.2238        0.0000       25.5792       25.5792      16.355389       0.03768
  43    0.2613        9.2238        0.0000       25.5790       25.5790      16.355186       0.03826
  42    0.3336        9.2238        0.0000       25.5786       25.5786      16.354839       0.04042
  41    0.4307        9.2238        0.0000       25.5782       25.5782      16.354368       0.04097
  40    0.5894        9.2238        0.0000       25.5774       25.5774      16.353579       0.04198
  39     1.339        9.2238        0.0000       25.5735       25.5736      16.349776       0.04282
  38     1.782        9.2238        0.0001       25.5713       25.5714      16.347561       0.04216
  37     2.292        9.2238        0.0001       25.5688       25.5688      16.345054       0.04152
  36     2.964        9.2238        0.0001       25.5656       25.5657      16.341869       0.03999
  35     3.853        9.2238        0.0001       25.5615       25.5616      16.337820       0.03843
  34     5.035        9.2238        0.0002       25.5562       25.5564      16.332604       0.03726
  33     6.613        9.2238        0.0002       25.5494       25.5496      16.325837       0.03618
  32     8.786        9.2238        0.0003       25.5406       25.5409      16.317066       0.03406
  31     11.80        9.2238        0.0004       25.5287       25.5290      16.305199       0.03322
  30     15.07        9.2239        0.0005       25.5167       25.5172      16.293294       0.03074
  29     18.79        9.2239        0.0006       25.5042       25.5047      16.280842       0.02823
  28     23.16        9.2240        0.0007       25.4907       25.4914      16.267422       0.02595
  27     28.12        9.2240        0.0009       25.4764       25.4773      16.253263       0.02407
  26     33.73        9.2242        0.0010       25.4620       25.4631      16.238899       0.02160
  25     40.54        9.2243        0.0012       25.4463       25.4475      16.223168       0.01951
  24     48.69        9.2246        0.0015       25.4294       25.4309      16.206292       0.01746
  23     57.69        9.2249        0.0018       25.4126       25.4144      16.189504       0.01574
  22     68.43        9.2253        0.0021       25.3944       25.3965      16.171242       0.01436
  21     81.20        9.2258        0.0025       25.3744       25.3769      16.151109       0.01330
  20     96.49        9.2264        0.0030       25.3519       25.3549      16.128450       0.01251
  19     114.6        9.2273        0.0035       25.3262       25.3297      16.102433       0.01215
  18     136.5        9.2282        0.0042       25.2962       25.3004      16.072121       0.01166
  17     162.9        9.2295        0.0050       25.2521       25.2571      16.027568       0.01424
  16     196.4        9.2312        0.0060       25.1593       25.1653      15.934052       0.02354
  15     218.7        9.2325        0.0066       25.0159       25.0225      15.790082       0.05466
  14     243.0        9.2340        0.0073       24.7089       24.7162      15.482178       0.10679
  13     269.0        9.2360        0.0079       24.1619       24.1698      14.933755       0.17791
  12     297.5        9.2388        0.0086       23.4544       23.4630      14.224161       0.21046
  11     328.5        9.2425        0.0093       22.7355       22.7447      13.502257       0.19628
  10     361.9        9.2473        0.0099       21.9224       21.9323      12.685025       0.20677
   9     398.1        9.2539        0.0106       20.9939       21.0045      11.750586       0.21770
   8     437.6        9.2631        0.0112       19.9833       19.9945      10.731440       0.21790
   7     480.5        9.2758        0.0118       18.9483       18.9601       9.684237       0.20567
   6     533.0        9.2976        0.0125       17.7796       17.7921       8.494447       0.19140
   5     589.8        9.3330        0.0132       16.6726       16.6857       7.352687       0.16947
   4     651.6        9.3982        0.0138       15.6343       15.6481       6.249994       0.15080
   3     718.7        9.5181        0.0146       14.7738       14.7884       5.270296       0.12312
   2     792.3        9.7595        0.0155       14.0291       14.0446       4.285084       0.11299
   1     891.5        0.6755        4.1601        0.0531        4.2132       3.537792       0.06359
   0    1013.0        0.7031        3.8925        0.0489        3.9414       3.238278       0.02080



 Wavenumbers:  6150. -  7700. cm-1, ATM      1
 LEVEL PRESSURE   UPWARD FLUX   DIFDOWN FLUX  DIRDOWN FLUX  DOWNWARD FLUX   NET FLUX    HEATING RATE
          mb          W/m2          W/m2          W/m2        W/m2          W/m2       degree/day
  51    .06700       14.9204        0.0000       47.3109       47.3109      32.390461       0.00000
  50    .07753       14.9204        0.0000       47.3108       47.3108      32.390404       0.04553
  49    .09103       14.9204        0.0000       47.3107       47.3107      32.390331       0.04583
  48    0.1069       14.9204        0.0000       47.3106       47.3106      32.390244       0.04614
  47    0.1255       14.9204        0.0000       47.3105       47.3105      32.390141       0.04645
  46    0.1487       14.9204        0.0000       47.3104       47.3104      32.390008       0.04852
  45    0.1794       14.9204        0.0000       47.3102       47.3102      32.389822       0.05127
  44    0.2165       14.9204        0.0000       47.3100       47.3100      32.389594       0.05167
  43    0.2613       14.9204        0.0000       47.3097       47.3097      32.389318       0.05210
  42    0.3336       14.9204        0.0000       47.3092       47.3092      32.388849       0.05471
  41    0.4307       14.9204        0.0000       47.3085       47.3086      32.388214       0.05521
  40    0.5894       14.9204        0.0001       47.3074       47.3075      32.387154       0.05633
  39     1.339       14.9203        0.0002       47.3022       47.3024      32.382062       0.05733
  38     1.782       14.9203        0.0002       47.2991       47.2994      32.379092       0.05655
  37     2.292       14.9202        0.0003       47.2956       47.2959      32.375716       0.05591
  36     2.964       14.9202        0.0004       47.2912       47.2916      32.371398       0.05421
  35     3.853       14.9201        0.0005       47.2855       47.2860      32.365863       0.05252
  34     5.035       14.9200        0.0006       47.2780       47.2787      32.358683       0.05129
  33     6.613       14.9199        0.0008       47.2683       47.2692      32.349295       0.05019
  32     8.786       14.9197        0.0011       47.2556       47.2567      32.336995       0.04777
  31     11.80       14.9194        0.0015       47.2380       47.2395      32.320092       0.04733
  30     15.07       14.9192        0.0019       47.2201       47.2220      32.302803       0.04463
  29     18.79       14.9189        0.0024       47.2008       47.2032      32.284323       0.04190
  28     23.16       14.9185        0.0029       47.1795       47.1825      32.263932       0.03943
  27     28.12       14.9181        0.0036       47.1565       47.1601      32.241937       0.03739
  26     33.73       14.9177        0.0043       47.1324       47.1367      32.219015       0.03447
  25     40.54       14.9171        0.0051       47.1054       47.1105      32.193376       0.03181
  24     48.69       14.9165        0.0062       47.0754       47.0816      32.165121       0.02924
  23     57.69       14.9158        0.0073       47.0449       47.0523      32.136496       0.02683
  22     68.43       14.9149        0.0087       47.0110       47.0197      32.104755       0.02495
  21     81.20       14.9139        0.0103       46.9729       46.9831      32.069255       0.02346
  20     96.49       14.9127        0.0122       46.9294       46.9416      32.028907       0.02227
  19     114.6       14.9112        0.0145       46.8790       46.8935      31.982262       0.02178
  18     136.5       14.9096        0.0172       46.8200       46.8372      31.927624       0.02101
  17     162.9       14.9076        0.0204       46.7361       46.7566      31.848975       0.02514
  16     196.4       14.9051        0.0246       46.5703       46.5949      31.689707       0.04009
  15     218.7       14.9037        0.0273       46.3473       46.3746      31.470858       0.08309
  14     243.0       14.9025        0.0301       45.9299       45.9600      31.057445       0.14339
  13     269.0       14.9020        0.0329       45.1708       45.2037      30.301761       0.24514
  12     297.5       14.9027        0.0357       44.0115       44.0472      29.144465       0.34324
  11     328.5       14.9052        0.0385       42.7242       42.7627      27.857502       0.34992
  10     361.9       14.9105        0.0414       41.3539       41.3953      26.484834       0.34730
   9     398.1       14.9200        0.0442       39.7953       39.8395      24.919488       0.36469
   8     437.6       14.9363        0.0468       37.9948       38.0416      23.105270       0.38789
   7     480.5       14.9628        0.0493       36.0647       36.1140      21.151280       0.38376
   6     533.0       15.0129        0.0520       33.7773       33.8293      18.816429       0.37560
   5     589.8       15.1007        0.0545       31.4082       31.4626      16.361917       0.36433
   4     651.6       15.2710        0.0564       28.8834       28.9398      13.668846       0.36828
   3     718.7       15.5976        0.0582       26.4104       26.4685      10.870940       0.35162
   2     792.3       16.2943        0.0595       24.0056       24.0652       7.770871       0.35554
   1     891.5        1.3837        6.8931        0.0862        6.9793       5.595526       0.18511
   0    1013.0        1.4810        6.2079        0.0756        6.2835       4.802466       0.05507



 Wavenumbers:  7700. -  8050. cm-1, ATM      1
 LEVEL PRESSURE   UPWARD FLUX   DIFDOWN FLUX  DIRDOWN FLUX  DOWNWARD FLUX   NET FLUX    HEATING RATE
          mb          W/m2          W/m2          W/m2        W/m2          W/m2       degree/day
  51    .06700        7.4145        0.0000       11.1810       11.1810       3.766479       0.00000
  50    .07753        7.4145        0.0000       11.1809       11.1809       3.766456       0.01840
  49    .09103        7.4145        0.0000       11.1809       11.1809       3.766427       0.01804
  48    0.1069        7.4145        0.0000       11.1809       11.1809       3.766394       0.01766
  47    0.1255        7.4145        0.0000       11.1809       11.1809       3.766356       0.01728
  46    0.1487        7.4145        0.0000       11.1808       11.1808       3.766308       0.01753
  45    0.1794        7.4145        0.0000       11.1808       11.1808       3.766242       0.01804
  44    0.2165        7.4146        0.0000       11.1807       11.1807       3.766164       0.01770
  43    0.2613        7.4146        0.0000       11.1806       11.1806       3.766072       0.01737
  42    0.3336        7.4146        0.0000       11.1805       11.1805       3.765920       0.01777
  41    0.4307        7.4146        0.0000       11.1803       11.1804       3.765718       0.01758
  40    0.5894        7.4147        0.0000       11.1801       11.1801       3.765387       0.01756
  39     1.339        7.4151        0.0001       11.1788       11.1789       3.763825       0.01759
  38     1.782        7.4153        0.0001       11.1781       11.1782       3.762908       0.01747
  37     2.292        7.4155        0.0001       11.1772       11.1773       3.761845       0.01759
  36     2.964        7.4158        0.0002       11.1761       11.1762       3.760451       0.01751
  35     3.853        7.4162        0.0002       11.1746       11.1748       3.758608       0.01749
  34     5.035        7.4167        0.0003       11.1726       11.1729       3.756160       0.01749
  33     6.613        7.4175        0.0004       11.1700       11.1703       3.752891       0.01748
  32     8.786        7.4184        0.0005       11.1664       11.1669       3.748486       0.01711
  31     11.80        7.4198        0.0007       11.1613       11.1620       3.742188       0.01763
  30     15.07        7.4213        0.0009       11.1558       11.1567       3.735430       0.01745
  29     18.79        7.4230        0.0011       11.1497       11.1508       3.727801       0.01730
  28     23.16        7.4250        0.0014       11.1425       11.1439       3.718901       0.01721
  27     28.12        7.4272        0.0017       11.1343       11.1360       3.708735       0.01728
  26     33.73        7.4298        0.0020       11.1252       11.1272       3.697377       0.01708
  25     40.54        7.4329        0.0024       11.1142       11.1166       3.683681       0.01699
  24     48.69        7.4366        0.0028       11.1010       11.1039       3.667209       0.01705
  23     57.69        7.4408        0.0034       11.0866       11.0900       3.649168       0.01691
  22     68.43        7.4458        0.0040       11.0695       11.0735       3.627752       0.01684
  21     81.20        7.4518        0.0047       11.0494       11.0541       3.602343       0.01679
  20     96.49        7.4589        0.0056       11.0255       11.0312       3.572212       0.01663
  19     114.6        7.4676        0.0067       10.9975       11.0042       3.536640       0.01661
  18     136.5        7.4779        0.0079       10.9648       10.9727       3.494756       0.01611
  17     162.9        7.4904        0.0094       10.9263       10.9357       3.445249       0.01582
  16     196.4        7.5070        0.0113       10.8773       10.8886       3.381604       0.01602
  15     218.7        7.5180        0.0126       10.8455       10.8581       3.340091       0.01576
  14     243.0        7.5302        0.0139       10.8114       10.8254       3.295156       0.01558
  13     269.0        7.5437        0.0154       10.7749       10.7903       3.246592       0.01575
  12     297.5        7.5586        0.0170       10.7357       10.7527       3.194121       0.01556
  11     328.5        7.5751        0.0187       10.6937       10.7125       3.137367       0.01543
  10     361.9        7.5934        0.0206       10.6489       10.6694       3.076036       0.01552
   9     398.1        7.6138        0.0226       10.6008       10.6233       3.009535       0.01549
   8     437.6        7.6367        0.0247       10.5491       10.5738       2.937122       0.01548
   7     480.5        7.6623        0.0270       10.4934       10.5204       2.858094       0.01552
   6     533.0        7.6959        0.0298       10.4243       10.4541       2.758252       0.01606
   5     589.8        7.7350        0.0329       10.3479       10.3807       2.645796       0.01669
   4     651.6        7.7819        0.0361       10.2613       10.2974       2.515523       0.01782
   3     718.7        7.8396        0.0396       10.1618       10.2013       2.361740       0.01933
   2     792.3        7.9130        0.0432       10.0439       10.0871       2.174088       0.02152
   1     891.5        2.5084        4.4645        0.0400        4.5046       1.996198       0.01514
   0    1013.0        2.5612        4.3680        0.0390        4.4070       1.845821       0.01044



 Wavenumbers:  8050. - 12850. cm-1, ATM      1
 LEVEL PRESSURE   UPWARD FLUX   DIFDOWN FLUX  DIRDOWN FLUX  DOWNWARD FLUX   NET FLUX    HEATING RATE
          mb          W/m2          W/m2          W/m2        W/m2          W/m2       degree/day
  51    .06700      105.7729        0.0000      156.5418      156.5418      50.768862       0.00000
  50    .07753      105.7729        0.0000      156.5417      156.5417      50.768862       0.00000
  49    .09103      105.7729        0.0001      156.5417      156.5417      50.768862      -0.00000
  48    0.1069      105.7728        0.0001      156.5416      156.5417      50.768862       0.00000
  47    0.1255      105.7728        0.0002      156.5415      156.5417      50.768862      -0.00000
  46    0.1487      105.7728        0.0002      156.5414      156.5417      50.768862      -0.00000
  45    0.1794      105.7728        0.0003      156.5413      156.5416      50.768862       0.00000
  44    0.2165      105.7727        0.0004      156.5412      156.5416      50.768862      -0.00000
  43    0.2613      105.7727        0.0006      156.5410      156.5416      50.768862       0.00000
  42    0.3336      105.7726        0.0008      156.5407      156.5415      50.768862      -0.00000
  41    0.4307      105.7725        0.0011      156.5403      156.5414      50.768862      -0.00000
  40    0.5894      105.7724        0.0015      156.5397      156.5412      50.768862       0.00000
  39     1.339      105.7716        0.0037      156.5367      156.5405      50.768862       0.00000
  38     1.782      105.7712        0.0050      156.5350      156.5400      50.768862      -0.00000
  37     2.292      105.7706        0.0065      156.5330      156.5395      50.768862       0.00000
  36     2.964      105.7700        0.0085      156.5303      156.5388      50.768862       0.00000
  35     3.853      105.7691        0.0111      156.5268      156.5379      50.768862       0.00000
  34     5.035      105.7679        0.0145      156.5222      156.5368      50.768862      -0.00000
  33     6.613      105.7663        0.0192      156.5160      156.5352      50.768862       0.00000
  32     8.786      105.7642        0.0254      156.5076      156.5330      50.768862      -0.00000
  31     11.80      105.7611        0.0343      156.4957      156.5300      50.768862      -0.00000
  30     15.07      105.7578        0.0439      156.4828      156.5267      50.768862       0.00000
  29     18.79      105.7541        0.0547      156.4682      156.5230      50.768862      -0.00000
  28     23.16      105.7497        0.0674      156.4512      156.5186      50.768862      -0.00000
  27     28.12      105.7448        0.0819      156.4317      156.5136      50.768862       0.00000
  26     33.73      105.7392        0.0982      156.4099      156.5080      50.768862       0.00000
  25     40.54      105.7324        0.1178      156.3834      156.5013      50.768862       0.00000
  24     48.69      105.7243        0.1416      156.3515      156.4931      50.768862      -0.00000
  23     57.69      105.7153        0.1677      156.3164      156.4841      50.768862       0.00000
  22     68.43      105.7046        0.1989      156.2746      156.4734      50.768862       0.00000
  21     81.20      105.6918        0.2361      156.2246      156.4607      50.768862      -0.00000
  20     96.49      105.6765        0.2805      156.1649      156.4454      50.768862       0.00000
  19     114.6      105.6586        0.3333      156.0879      156.4212      50.762595       0.00293
  18     136.5      105.6373        0.3960      155.9962      156.3921      50.754825       0.00299
  17     162.9      105.6120        0.4708      155.8831      156.3539      50.741942       0.00412
  16     196.4      105.5791        0.5682      155.7199      156.2881      50.708972       0.00830
  15     218.7      105.5580        0.6322      155.5733      156.2055      50.647517       0.02333
  14     243.0      105.5361        0.7018      155.3367      156.0385      50.502406       0.05033
  13     269.0      105.5149        0.7771      154.9514      155.7285      50.213604       0.09369
  12     297.5      105.4970        0.8581      154.3896      155.2477      49.750729       0.13728
  11     328.5      105.4841        0.9455      153.7151      154.6606      49.176531       0.15612
  10     361.9      105.4796        1.0393      152.9087      153.9481      48.468465       0.17915
   9     398.1      105.4894        1.1397      151.8986      153.0383      47.548936       0.21423
   8     437.6      105.5234        1.2465      150.6031      151.8497      46.326279       0.26141
   7     480.5      105.5937        1.3595      149.0014      150.3609      44.767150       0.30621
   6     533.0      105.7447        1.4962      146.7375      148.2337      42.489046       0.36647
   5     589.8      106.0273        1.6395      143.8730      145.5124      39.485089       0.44589
   4     651.6      106.5892        1.7865      140.0955      141.8820      35.292753       0.57331
   3     718.7      107.6488        1.9357      135.5278      137.4634      29.814628       0.68845
   2     792.3      109.7576        2.0833      130.0690      132.1524      22.394796       0.85097
   1     891.5       57.8376       72.8274        0.4959       73.3233      15.485729       0.58793
   0    1013.0       59.8514       69.6018        0.4586       70.0604      10.208981       0.36639



 Wavenumbers: 12850. - 16000. cm-1, ATM      1
 LEVEL PRESSURE   UPWARD FLUX   DIFDOWN FLUX  DIRDOWN FLUX  DOWNWARD FLUX   NET FLUX    HEATING RATE
          mb          W/m2          W/m2          W/m2        W/m2          W/m2       degree/day
  51    .06700       81.3980        0.0000       98.0872       98.0872      16.689227       0.00000
  50    .07753       81.3980        0.0001       98.0864       98.0864      16.688435       0.63534
  49    .09103       81.3980        0.0002       98.0853       98.0855      16.687439       0.62238
  48    0.1069       81.3980        0.0003       98.0841       98.0843      16.686295       0.60919
  47    0.1255       81.3980        0.0004       98.0826       98.0830      16.684979       0.59631
  46    0.1487       81.3981        0.0005       98.0809       98.0814      16.683319       0.60533
  45    0.1794       81.3981        0.0007       98.0784       98.0792      16.681059       0.62043
  44    0.2165       81.3982        0.0010       98.0756       98.0766      16.678399       0.60506
  43    0.2613       81.3983        0.0013       98.0723       98.0736      16.675269       0.58993
  42    0.3336       81.3986        0.0017       98.0670       98.0688      16.670158       0.59596
  41    0.4307       81.3990        0.0024       98.0602       98.0626      16.663542       0.57519
  40    0.5894       81.3999        0.0034       98.0496       98.0530      16.653106       0.55499
  39     1.339       81.4070        0.0083       98.0043       98.0126      16.605621       0.53460
  38     1.782       81.4134        0.0111       97.9793       97.9904      16.576987       0.54515
  37     2.292       81.4230        0.0144       97.9498       97.9642      16.541237       0.59211
  36     2.964       81.4387        0.0187       97.9088       97.9276      16.488849       0.65763
  35     3.853       81.4641        0.0245       97.8503       97.8748      16.410734       0.74132
  34     5.035       81.5022        0.0321       97.7680       97.8001      16.297826       0.80657
  33     6.613       81.5555        0.0422       97.6562       97.6984      16.142916       0.82815
  32     8.786       81.6249        0.0559       97.5107       97.5666      15.941702       0.78144
  31     11.80       81.7152        0.0754       97.3179       97.3933      15.678037       0.73818
  30     15.07       81.8020        0.0964       97.1283       97.2247      15.422734       0.65914
  29     18.79       81.8906        0.1200       96.9300       97.0500      15.159387       0.59709
  28     23.16       81.9835        0.1476       96.7166       96.8642      14.880647       0.53899
  27     28.12       82.0772        0.1791       96.4935       96.6726      14.595389       0.48492
  26     33.73       82.1642        0.2144       96.2731       96.4875      14.323295       0.40910
  25     40.54       82.2486        0.2571       96.0408       96.2979      14.049230       0.34001
  24     48.69       82.3303        0.3085       95.7946       96.1031      13.772804       0.28606
  23     57.69       82.4005        0.3650       95.5573       95.9223      13.521779       0.23530
  22     68.43       82.4631        0.4324       95.3106       95.7430      13.279855       0.19018
  21     81.20       82.5088        0.5127       95.0643       95.5770      13.068197       0.13986
  20     96.49       82.5367        0.6085       94.8153       95.4238      12.887143       0.09993
  19     114.6       82.5689        0.7234       94.5411       95.2645      12.695621       0.08943
  18     136.5       82.5955        0.8597       94.2320       95.0917      12.496186       0.07669
  17     162.9       82.6167        1.0219       93.8753       94.8972      12.280462       0.06895
  16     196.4       82.6218        1.2323       93.4347       94.6670      12.045104       0.05924
  15     218.7       82.6173        1.3705       93.1513       94.5217      11.904450       0.05340
  14     243.0       82.6092        1.5207       92.8439       94.3646      11.755420       0.05169
  13     269.0       82.5976        1.6834       92.5111       94.1946      11.596957       0.05140
  12     297.5       82.5833        1.8593       92.1495       94.0088      11.425488       0.05086
  11     328.5       82.5686        2.0494       91.7554       93.8048      11.236162       0.05148
  10     361.9       82.5547        2.2540       91.3262       93.5802      11.025504       0.05330
   9     398.1       82.5435        2.4742       90.8575       93.3317      10.788235       0.05528
   8     437.6       82.5386        2.7106       90.3418       93.0524      10.513726       0.05869
   7     480.5       82.5438        2.9637       89.7728       92.7365      10.192753       0.06304
   6     533.0       82.5700        3.2750       89.0428       92.3178       9.747854       0.07157
   5     589.8       82.6348        3.6095       88.2038       91.8134       9.178523       0.08451
   4     651.6       82.7787        3.9669       87.1979       91.1649       8.386189       0.10835
   3     718.7       83.0329        4.3457       86.0161       90.3618       7.328938       0.13287
   2     792.3       83.4908        4.7419       84.5970       89.3390       5.848127       0.16983
   1     891.5       61.6433       65.4544        0.3347       65.7891       4.145791       0.14486
   0    1013.0       62.5257       64.4014        0.3232       64.7246       2.198957       0.13518



 Wavenumbers: 16000. - 22650. cm-1, ATM      1
 LEVEL PRESSURE   UPWARD FLUX   DIFDOWN FLUX  DIRDOWN FLUX  DOWNWARD FLUX   NET FLUX    HEATING RATE
          mb          W/m2          W/m2          W/m2        W/m2          W/m2       degree/day
  51    .06700      140.8098        0.0000      156.3892      156.3892      15.579445       0.00000
  50    .07753      140.8098        0.0004      156.3887      156.3891      15.579297       0.11825
  49    .09103      140.8098        0.0009      156.3879      156.3888      15.579083       0.13412
  48    0.1069      140.8098        0.0015      156.3871      156.3885      15.578795       0.15294
  47    0.1255      140.8098        0.0021      156.3861      156.3882      15.578411       0.17434
  46    0.1487      140.8098        0.0030      156.3847      156.3877      15.577844       0.20658
  45    0.1794      140.8100        0.0041      156.3828      156.3869      15.576958       0.24324
  44    0.2165      140.8102        0.0054      156.3805      156.3859      15.575756       0.27337
  43    0.2613      140.8105        0.0070      156.3776      156.3846      15.574126       0.30734
  42    0.3336      140.8113        0.0097      156.3726      156.3823      15.571026       0.36142
  41    0.4307      140.8125        0.0131      156.3657      156.3789      15.566353       0.40628
  40    0.5894      140.8151        0.0188      156.3537      156.3725      15.557442       0.47390
  39     1.339      140.8376        0.0458      156.2834      156.3292      15.491602       0.74123
  38     1.782      140.8585        0.0617      156.2324      156.2940      15.435515       1.06781
  37     2.292      140.8898        0.0800      156.1641      156.2441      15.354328       1.34467
  36     2.964      140.9417        0.1040      156.0605      156.1645      15.222804       1.65102
  35     3.853      141.0258        0.1358      155.9041      156.0399      15.014108       1.98057
  34     5.035      141.1526        0.1780      155.6774      155.8553      14.702750       2.22421
  33     6.613      141.3298        0.2342      155.3656      155.5998      14.270054       2.31319
  32     8.786      141.5605        0.3099      154.9577      155.2676      13.707019       2.18662
  31     11.80      141.8609        0.4180      154.4153      154.8333      12.972408       2.05668
  30     15.07      142.1486        0.5340      153.8804      154.4143      12.265738       1.82448
  29     18.79      142.4423        0.6647      153.3191      153.9838      11.541469       1.64214
  28     23.16      142.7493        0.8172      152.7126      153.5298      10.780453       1.47156
  27     28.12      143.0582        0.9913      152.0755      153.0668      10.008659       1.31200
  26     33.73      143.3432        1.1860      151.4409      152.6269       9.283717       1.08997
  25     40.54      143.6175        1.4210      150.7637      152.1847       8.567216       0.88890
  24     48.69      143.8800        1.7040      150.0338      151.7378       7.857873       0.73406
  23     57.69      144.1024        2.0145      149.3151      151.3296       7.227198       0.59116
  22     68.43      144.2963        2.3839      148.5476      150.9315       6.635165       0.46542
  21     81.20      144.4300        2.8237      147.7517      150.5754       6.145417       0.32362
  20     96.49      144.4988        3.3473      146.9127      150.2599       5.761090       0.21212
  19     114.6      144.5341        3.9671      145.9763      149.9434       5.409271       0.16427
  18     136.5      144.5446        4.6990      144.9088      149.6078       5.063174       0.13308
  17     162.9      144.5285        5.5665      143.6785      149.2450       4.716486       0.11082
  16     196.4      144.4461        6.6857      142.1651      148.8508       4.404677       0.07849
  15     218.7      144.3695        7.4172      141.2033      148.6205       4.251063       0.05832
  14     243.0      144.2758        8.2088      140.1753      148.3842       4.108379       0.04949
  13     269.0      144.1635        9.0629      139.0797      148.1426       3.979028       0.04196
  12     297.5      144.0321        9.9814      137.9141      147.8954       3.863374       0.03430
  11     328.5      143.8854       10.9686      136.6676      147.6362       3.750773       0.03062
  10     361.9      143.7233       12.0255      135.3392      147.3647       3.641351       0.02768
   9     398.1      143.5454       13.1561      133.9235      147.0796       3.534191       0.02497
   8     437.6      143.3525       14.3624      132.4163      146.7786       3.426107       0.02311
   7     480.5      143.1444       15.6465      130.8147      146.4612       3.316765       0.02147
   6     533.0      142.8887       17.2149      128.8599      146.0749       3.186179       0.02101
   5     589.8      142.6174       18.8907      126.7679      145.6587       3.041225       0.02152
   4     651.6      142.3376       20.6755      124.5274      145.2029       2.865365       0.02405
   3     718.7      142.0557       22.5709      122.1285      144.6994       2.643678       0.02786
   2     792.3      141.7898       24.5749      119.5548      144.1298       2.339976       0.03483
   1     891.5      119.0309      120.4676        0.4710      120.9386       1.907739       0.03678
   0    1013.0      119.2990      120.1590        0.4539      120.6129       1.313864       0.04124



 Wavenumbers: 22650. - 29000. cm-1, ATM      1
 LEVEL PRESSURE   UPWARD FLUX   DIFDOWN FLUX  DIRDOWN FLUX  DOWNWARD FLUX   NET FLUX    HEATING RATE
          mb          W/m2          W/m2          W/m2        W/m2          W/m2       degree/day
  51    .06700       58.6827        0.0000       59.0156       59.0156       0.332887       0.00000
  50    .07753       58.6826        0.0005       59.0151       59.0155       0.332887       0.00000
  49    .09103       58.6825        0.0010       59.0144       59.0154       0.332887      -0.00000
  48    0.1069       58.6824        0.0017       59.0136       59.0153       0.332887       0.00000
  47    0.1255       58.6822        0.0025       59.0127       59.0151       0.332887       0.00000
  46    0.1487       58.6821        0.0035       59.0115       59.0149       0.332887      -0.00000
  45    0.1794       58.6818        0.0048       59.0099       59.0147       0.332887       0.00000
  44    0.2165       58.6815        0.0063       59.0080       59.0144       0.332887      -0.00000
  43    0.2613       58.6811        0.0082       59.0058       59.0140       0.332887      -0.00000
  42    0.3336       58.6806        0.0113       59.0022       59.0134       0.332887       0.00000
  41    0.4307       58.6798        0.0154       58.9973       59.0127       0.332887      -0.00000
  40    0.5894       58.6785        0.0220       58.9894       59.0114       0.332887       0.00000
  39     1.339       58.6724        0.0535       58.9518       59.0053       0.332887       0.00000
  38     1.782       58.6689        0.0720       58.9297       59.0017       0.332887       0.00000
  37     2.292       58.6647        0.0935       58.9042       58.9976       0.332887       0.00000
  36     2.964       58.6593        0.1216       58.8706       58.9922       0.332887       0.00000
  35     3.853       58.6522        0.1587       58.8264       58.9851       0.332887       0.00000
  34     5.035       58.6427        0.2080       58.7676       58.9756       0.332887      -0.00000
  33     6.613       58.6300        0.2738       58.6891       58.9629       0.332887       0.00000
  32     8.786       58.6130        0.3624       58.5834       58.9458       0.332887       0.00000
  31     11.80       58.5886        0.4890       58.4324       58.9215       0.332887       0.00000
  30     15.07       58.5625        0.6247       58.2706       58.8953       0.332887      -0.00000
  29     18.79       58.5330        0.7777       58.0882       58.8659       0.332887       0.00000
  28     23.16       58.4987        0.9559       57.8757       58.8316       0.332887       0.00000
  27     28.12       58.4596        1.1591       57.6333       58.7924       0.332887      -0.00000
  26     33.73       58.4159        1.3857       57.3631       58.7488       0.332887       0.00000
  25     40.54       58.3634        1.6584       57.0379       58.6963       0.332887      -0.00000
  24     48.69       58.3004        1.9854       56.6479       58.6333       0.332887       0.00000
  23     57.69       58.2316        2.3424       56.2221       58.5645       0.332887      -0.00000
  22     68.43       58.1503        2.7646       55.7186       58.4832       0.332887      -0.00000
  21     81.20       58.0542        3.2632       55.1239       58.3871       0.332887       0.00000
  20     96.49       57.9409        3.8510       54.4228       58.2738       0.332887      -0.00000
  19     114.6       57.8081        4.5400       53.6010       58.1410       0.332887      -0.00000
  18     136.5       57.6530        5.3442       52.6418       57.9859       0.332887       0.00000
  17     162.9       57.4717        6.2842       51.5203       57.8046       0.332887       0.00000
  16     196.4       57.2418        7.4753       50.0994       57.5747       0.332887      -0.00000
  15     218.7       57.0941        8.2407       49.1863       57.4269       0.332887      -0.00000
  14     243.0       56.9362        9.0579       48.2113       57.2691       0.332887       0.00000
  13     269.0       56.7684        9.9264       47.1749       57.1013       0.332887      -0.00000
  12     297.5       56.5908       10.8454       46.0783       56.9237       0.332887       0.00000
  11     328.5       56.4030       11.8163       44.9195       56.7359       0.332887       0.00000
  10     361.9       56.2056       12.8366       43.7018       56.5385       0.332887       0.00000
   9     398.1       55.9985       13.9063       42.4250       56.3313       0.332887      -0.00000
   8     437.6       55.7820       15.0233       41.0916       56.1149       0.332887      -0.00000
   7     480.5       55.5568       16.1852       39.7045       55.8896       0.332887       0.00000
   6     533.0       55.2885       17.5672       38.0543       55.6214       0.332887      -0.00000
   5     589.8       55.0102       19.0000       36.3431       55.3431       0.332887      -0.00000
   4     651.6       54.7230       20.4763       34.5795       55.0559       0.332887       0.00000
   3     718.7       54.4280       21.9907       32.7702       54.7609       0.332887      -0.00000
   2     792.3       54.1268       23.5341       30.9256       54.4597       0.332887       0.00000
   1     891.5       48.5796       48.7960        0.1160       48.9120       0.332385       0.00004
   0    1013.0       48.5663       48.7933        0.1054       48.8987       0.332385       0.00000



 Wavenumbers: 29000. - 38000. cm-1, ATM      1
 LEVEL PRESSURE   UPWARD FLUX   DIFDOWN FLUX  DIRDOWN FLUX  DOWNWARD FLUX   NET FLUX    HEATING RATE
          mb          W/m2          W/m2          W/m2        W/m2          W/m2       degree/day
  51    .06700        8.7713        0.0000       20.8114       20.8114      12.040011       0.00000
  50    .07753        8.7712        0.0003       20.8070       20.8074      12.036203       3.05156
  49    .09103        8.7709        0.0007       20.8009       20.8016      12.030666       3.46086
  48    0.1069        8.7707        0.0012       20.7928       20.7939      12.023256       3.94431
  47    0.1255        8.7704        0.0017       20.7820       20.7837      12.013351       4.49036
  46    0.1487        8.7700        0.0024       20.7665       20.7688      11.998788       5.30846
  45    0.1794        8.7696        0.0033       20.7424       20.7457      11.976123       6.22206
  44    0.2165        8.7691        0.0044       20.7103       20.7147      11.945600       6.94343
  43    0.2613        8.7685        0.0056       20.6675       20.6731      11.904606       7.72736
  42    0.3336        8.7676        0.0077       20.5880       20.5957      11.828044       8.92629
  41    0.4307        8.7665        0.0104       20.4722       20.4826      11.716091       9.73407
  40    0.5894        8.7650        0.0147       20.2637       20.2784      11.513406      10.77852
  39     1.339        8.7616        0.0331       19.0984       19.1315      10.369921      12.87356
  38     1.782        8.7621        0.0427       18.4394       18.4821       9.719990      12.37364
  37     2.292        8.7648        0.0530       17.7714       17.8244       9.059636      10.93719
  36     2.964        8.7713        0.0657       17.0421       17.1078       8.336496       9.07759
  35     3.853        8.7842        0.0816       16.2678       16.3495       7.565293       7.31886
  34     5.035        8.8054        0.1018       15.4803       15.5821       6.776762       5.63294
  33     6.613        8.8362        0.1276       14.7157       14.8433       6.007127       4.11447
  32     8.786        8.8769        0.1614       13.9936       14.1550       5.278109       2.83124
  31     11.80        8.9300        0.2085       13.2835       13.4920       4.562052       2.00473
  30     15.07        8.9812        0.2573       12.7394       12.9967       4.015481       1.41114
  29     18.79        9.0341        0.3114       12.2666       12.5780       3.543927       1.06916
  28     23.16        9.0903        0.3730       11.8300       12.2030       3.112666       0.83392
  27     28.12        9.1479        0.4419       11.4279       11.8698       2.721837       0.66438
  26     33.73        9.2011        0.5179       11.0695       11.5873       2.386191       0.50465
  25     40.54        9.2517        0.6086       10.7209       11.3295       2.077872       0.38250
  24     48.69        9.2994        0.7163       10.3742       11.0905       1.791151       0.29671
  23     57.69        9.3386        0.8329       10.0549       10.8878       1.549230       0.22676
  22     68.43        9.3704        0.9697        9.7327       10.7024       1.332027       0.17075
  21     81.20        9.3858        1.1312        9.4134       10.5446       1.158812       0.11446
  20     96.49        9.3828        1.3210        9.0887       10.4097       1.026943       0.07278
  19     114.6        9.3696        1.5403        8.7388       10.2791       0.909551       0.05481
  18     136.5        9.3491        1.7911        8.3549       10.1460       0.796898       0.04332
  17     162.9        9.3216        2.0770        7.9311       10.0082       0.686584       0.03526
  16     196.4        9.2750        2.4312        7.4333        9.8645       0.589473       0.02444
  15     218.7        9.2414        2.6539        7.1295        9.7835       0.542103       0.01798
  14     243.0        9.2045        2.8868        6.8161        9.7029       0.498358       0.01517
  13     269.0        9.1643        3.1290        6.4943        9.6233       0.459074       0.01274
  12     297.5        9.1206        3.3794        6.1657        9.5451       0.424441       0.01027
  11     328.5        9.0751        3.6369        5.8295        9.4664       0.391278       0.00902
  10     361.9        9.0281        3.8992        5.4886        9.3879       0.359735       0.00798
   9     398.1        8.9798        4.1657        5.1440        9.3097       0.329838       0.00697
   8     437.6        8.9307        4.4348        4.7969        9.2318       0.301013       0.00616
   7     480.5        8.8812        4.7045        4.4504        9.1548       0.273647       0.00537
   6     533.0        8.8244        5.0120        4.0563        9.0682       0.243810       0.00480
   5     589.8        8.7685        5.3152        3.6682        8.9834       0.214915       0.00429
   4     651.6        8.7144        5.6106        3.2905        8.9011       0.186638       0.00387
   3     718.7        8.6627        5.8964        2.9252        8.8216       0.158936       0.00348
   2     792.3        8.6140        6.1694        2.5764        8.7458       0.131813       0.00311
   1     891.5        7.9952        8.0870        0.0088        8.0957       0.100507       0.00266
   0    1013.0        8.0054        8.0652        0.0071        8.0724       0.066991       0.00233



 Wavenumbers: 38000. - 50000. cm-1, ATM      1
 LEVEL PRESSURE   UPWARD FLUX   DIFDOWN FLUX  DIRDOWN FLUX  DOWNWARD FLUX   NET FLUX    HEATING RATE
          mb          W/m2          W/m2          W/m2        W/m2          W/m2       degree/day
  51    .06700        0.0061        0.0000        1.2836        1.2836       1.277518       0.00000
  50    .07753        0.0061        0.0001        1.2812        1.2812       1.275183       1.87150
  49    .09103        0.0060        0.0002        1.2777        1.2778       1.271851       2.08247
  48    0.1069        0.0059        0.0002        1.2731        1.2734       1.267473       2.33059
  47    0.1255        0.0058        0.0004        1.2672        1.2675       1.261717       2.60908
  46    0.1487        0.0057        0.0005        1.2586        1.2591       1.253391       3.03499
  45    0.1794        0.0055        0.0007        1.2455        1.2462       1.240623       3.50520
  44    0.2165        0.0054        0.0009        1.2282        1.2291       1.223697       3.85037
  43    0.2613        0.0052        0.0011        1.2054        1.2065       1.201348       4.21261
  42    0.3336        0.0049        0.0015        1.1639        1.1654       1.160524       4.75970
  41    0.4307        0.0045        0.0020        1.1051        1.1070       1.102565       5.03943
  40    0.5894        0.0039        0.0026        1.0039        1.0064       1.002524       5.32007
  39     1.339        0.0022        0.0035        0.5438        0.5473       0.545104       5.14971
  38     1.782        0.0016        0.0032        0.3635        0.3666       0.365006       3.42879
  37     2.292        0.0012        0.0027        0.2356        0.2383       0.237058       2.11916
  36     2.964        0.0009        0.0022        0.1455        0.1477       0.146786       1.13318
  35     3.853        0.0006        0.0017        0.0858        0.0875       0.086906       0.56828
  34     5.035        0.0004        0.0013        0.0488        0.0501       0.049701       0.26578
  33     6.613        0.0003        0.0010        0.0273        0.0282       0.027974       0.11615
  32     8.786        0.0002        0.0007        0.0144        0.0151       0.014928       0.05067
  31     11.80        0.0001        0.0004        0.0065        0.0070       0.006903       0.02247
  30     15.07        0.0000        0.0003        0.0031        0.0034       0.003329       0.00923
  29     18.79        0.0000        0.0002        0.0014        0.0016       0.001583       0.00396
  28     23.16        0.0000        0.0001        0.0006        0.0007       0.000720       0.00167
  27     28.12        0.0000        0.0001        0.0003        0.0003       0.000317       0.00069
  26     33.73        0.0000        0.0000        0.0001        0.0001       0.000140       0.00027
  25     40.54        0.0000        0.0000        0.0000        0.0001       0.000057       0.00010
  24     48.69        0.0000        0.0000        0.0000        0.0000       0.000021       0.00004
  23     57.69        0.0000        0.0000        0.0000        0.0000       0.000008       0.00001
  22     68.43        0.0000        0.0000        0.0000        0.0000       0.000003       0.00000
  21     81.20        0.0000        0.0000        0.0000        0.0000       0.000001       0.00000
  20     96.49        0.0000        0.0000        0.0000        0.0000       0.000000       0.00000
  19     114.6        0.0000        0.0000        0.0000        0.0000       0.000000       0.00000
  18     136.5        0.0000        0.0000        0.0000        0.0000       0.000000       0.00000
  17     162.9        0.0000        0.0000        0.0000        0.0000       0.000000       0.00000
  16     196.4        0.0000        0.0000        0.0000        0.0000       0.000000       0.00000
  15     218.7        0.0000        0.0000        0.0000        0.0000       0.000000       0.00000
  14     243.0        0.0000        0.0000        0.0000        0.0000       0.000000       0.00000
  13     269.0        0.0000        0.0000        0.0000        0.0000       0.000000       0.00000
  12     297.5        0.0000        0.0000        0.0000        0.0000       0.000000       0.00000
  11     328.5        0.0000        0.0000        0.0000        0.0000       0.000000       0.00000
  10     361.9        0.0000        0.0000        0.0000        0.0000       0.000000       0.00000
   9     398.1        0.0000        0.0000        0.0000        0.0000       0.000000       0.00000
   8     437.6        0.0000        0.0000        0.0000        0.0000       0.000000       0.00000
   7     480.5        0.0000        0.0000        0.0000        0.0000       0.000000       0.00000
   6     533.0        0.0000        0.0000        0.0000        0.0000       0.000000       0.00000
   5     589.8        0.0000        0.0000        0.0000        0.0000       0.000000       0.00000
   4     651.6        0.0000        0.0000        0.0000        0.0000       0.000000       0.00000
   3     718.7        0.0000        0.0000        0.0000        0.0000       0.000000       0.00000
   2     792.3        0.0000        0.0000        0.0000        0.0000       0.000000       0.00000
   1     891.5        0.0000        0.0000        0.0000        0.0000       0.000000       0.00000
   0    1013.0        0.0000        0.0000        0.0000        0.0000       0.000000       0.00000



 Wavenumbers:   820. -  2600. cm-1, ATM      1
 LEVEL PRESSURE   UPWARD FLUX   DIFDOWN FLUX  DIRDOWN FLUX  DOWNWARD FLUX   NET FLUX    HEATING RATE
          mb          W/m2          W/m2          W/m2        W/m2          W/m2       degree/day
  51    .06700        1.2750        0.0000        6.0047        6.0047       4.729651       0.00000
  50    .07753        1.2750        0.0000        6.0008        6.0008       4.725798       3.08824
  49    .09103        1.2750        0.0000        5.9999        5.9999       4.724913       0.55361
  48    0.1069        1.2750        0.0000        5.9989        5.9989       4.723923       0.52655
  47    0.1255        1.2750        0.0000        5.9978        5.9978       4.722806       0.50653
  46    0.1487        1.2750        0.0000        5.9964        5.9964       4.721449       0.49460
  45    0.1794        1.2750        0.0000        5.9947        5.9947       4.719730       0.47203
  44    0.2165        1.2750        0.0000        5.9929        5.9929       4.717887       0.41914
  43    0.2613        1.2750        0.0000        5.9909        5.9909       4.715928       0.36936
  42    0.3336        1.2750        0.0000        5.9880        5.9880       4.713049       0.33560
  41    0.4307        1.2750        0.0000        5.9846        5.9846       4.709580       0.30169
  40    0.5894        1.2750        0.0000        5.9791        5.9791       4.704074       0.29280
  39     1.339        1.2750        0.0000        5.9536        5.9536       4.678583       0.28698
  38     1.782        1.2750        0.0000        5.9395        5.9395       4.664442       0.26921
  37     2.292        1.2750        0.0000        5.9237        5.9237       4.648689       0.26092
  36     2.964        1.2750        0.0000        5.9039        5.9039       4.628911       0.24826
  35     3.853        1.2750        0.0000        5.8793        5.8793       4.604251       0.23403
  34     5.035        1.2750        0.0000        5.8487        5.8487       4.573682       0.21837
  33     6.613        1.2751        0.0000        5.8108        5.8108       4.535710       0.20300
  32     8.786        1.2751        0.0000        5.7631        5.7631       4.488076       0.18499
  31     11.80        1.2751        0.0000        5.7039        5.7039       4.428804       0.16594
  30     15.07        1.2751        0.0000        5.6539        5.6539       4.378747       0.12924
  29     18.79        1.2751        0.0000        5.6127        5.6127       4.337592       0.09331
  28     23.16        1.2752        0.0000        5.5794        5.5794       4.304191       0.06459
  27     28.12        1.2752        0.0000        5.5518        5.5518       4.276595       0.04691
  26     33.73        1.2753        0.0000        5.5268        5.5268       4.251508       0.03772
  25     40.54        1.2753        0.0000        5.4993        5.4993       4.224022       0.03410
  24     48.69        1.2754        0.0000        5.4678        5.4678       4.192429       0.03269
  23     57.69        1.2754        0.0000        5.4340        5.4340       4.158581       0.03173
  22     68.43        1.2755        0.0000        5.3947        5.3948       4.119233       0.03093
  21     81.20        1.2756        0.0000        5.3497        5.3497       4.074109       0.02982
  20     96.49        1.2757        0.0000        5.2982        5.2982       4.022481       0.02849
  19     114.6        1.2759        0.0000        5.2389        5.2389       3.963018       0.02777
  18     136.5        1.2761        0.0000        5.1716        5.1717       3.895583       0.02593
  17     162.9        1.2764        0.0000        5.0890        5.0891       3.812696       0.02649
  16     196.4        1.2768        0.0000        4.9668        4.9668       3.690013       0.03088
  15     218.7        1.2773        0.0000        4.8585        4.8585       3.581201       0.04131
  14     243.0        1.2780        0.0000        4.7078        4.7079       3.429857       0.05249
  13     269.0        1.2791        0.0000        4.5343        4.5343       3.255197       0.05666
  12     297.5        1.2808        0.0000        4.3419        4.3420       3.061149       0.05755
  11     328.5        1.2831        0.0000        4.1281        4.1281       2.845009       0.05877
  10     361.9        1.2862        0.0000        3.8786        3.8787       2.592465       0.06390
   9     398.1        1.2902        0.0000        3.6159        3.6160       2.325755       0.06214
   8     437.6        1.2954        0.0000        3.3759        3.3759       2.080534       0.05243
   7     480.5        1.3017        0.0000        3.1957        3.1958       1.894110       0.03661
   6     533.0        1.3113        0.0000        3.0467        3.0467       1.735436       0.02553
   5     589.8        1.3254        0.0000        2.9023        2.9023       1.576904       0.02353
   4     651.6        1.3500        0.0001        2.7183        2.7184       1.368382       0.02852
   3     718.7        1.3925        0.0001        2.5058        2.5059       1.113338       0.03205
   2     792.3        1.4747        0.0001        2.2756        2.2757       0.801004       0.03582
   1     891.5        0.0030        0.5477        0.0080        0.5557       0.552701       0.02113
   0    1013.0        0.0036        0.4426        0.0063        0.4489       0.445322       0.00746

  Modules and versions used in this calculation:

       rrtmg_sw.1col.f90:  $Revision$                    rrtmg_sw_init.f90:  $Revision$        
     rrtmgsw_cldprop.f90:  $Revision$                  rrtmgsw_cldprmc.f90:  NOT USED          
     rrtmg_sw_reftra.f90:  $Revision$                  rrtmg_sw_spcvrt.f90:  NOT USED          
     rrtmg_sw_spcvmc.f90:  NOT USED                    rrtmgsw_setcoef.f90:  NOT USED          
     rrtmg_sw_taumol.f90:  $Revision$                  rrtmg_sw_vrtqdr.f90:  NOT USED          
                rrtatm.f:  NOT USED                             util_xxx.f:  NOT USED          
                 extra.f:  NOT USED                       rrtmg_sw_k_g.f90:  $Revision$        

