

 Wavenumbers:   820. - 50000. cm-1, ATM      1
 LEVEL PRESSURE   UPWARD FLUX   DIFDOWN FLUX  DIRDOWN FLUX  DOWNWARD FLUX   NET FLUX    HEATING RATE
          mb          W/m2          W/m2          W/m2        W/m2          W/m2       degree/day
  51    .06700      393.3948        0.0000      617.8126      617.8126     224.417812       0.00000
  50    .07753      393.3944        0.0014      617.7947      617.7961     224.401673      12.93565
  49    .09103      393.3939        0.0030      617.7778      617.7808     224.386865       9.25560
  48    0.1069      393.3935        0.0050      617.7581      617.7631     224.369605       9.18745
  47    0.1255      393.3929        0.0072      617.7340      617.7412     224.348263       9.67572
  46    0.1487      393.3924        0.0101      617.7009      617.7109     224.318580      10.81973
  45    0.1794      393.3916        0.0139      617.6521      617.6660     224.274353      12.14135
  44    0.2165      393.3909        0.0184      617.5895      617.6079     224.217037      13.03846
  43    0.2613      393.3902        0.0238      617.5089      617.5327     224.142530      14.04415
  42    0.3336      393.3893        0.0326      617.3641      617.3968     224.007456      15.74829
  41    0.4307      393.3886        0.0443      617.1591      617.2034     223.814849      16.74680
  40    0.5894      393.3883        0.0631      616.8005      616.8635     223.475185      18.06286
  39     1.339      393.4055        0.1480      614.9443      615.0922     221.686753      20.13451
  38     1.782      393.4281        0.1957      613.9670      614.1627     220.734635      18.12679
  37     2.292      393.4657        0.2501      613.0059      613.2560     219.790220      15.64196
  36     2.964      393.5323        0.3207      611.9577      612.2784     218.746055      13.10743
  35     3.853      393.6443        0.4134      610.8024      611.2158     217.571525      11.14651
  34     5.035      393.8165        0.5357      609.5327      610.0684     216.251852       9.42720
  33     6.613      394.0592        0.6979      608.1464      608.8444     214.785217       7.84063
  32     8.786      394.3752        0.9157      606.6250      607.5407     213.165491       6.29043
  31     11.80      394.7844        1.2257      604.8486      606.0743     211.289954       5.25091
  30     15.07      395.1736        1.5565      603.2440      604.8004     209.626818       4.29389
  29     18.79      395.5686        1.9287      601.6511      603.5798     208.011226       3.66304
  28     23.16      395.9784        2.3611      599.9927      602.3538     206.375462       3.16304
  27     28.12      396.3867        2.8534      598.2881      601.1414     204.754779       2.75505
  26     33.73      396.7553        3.4022      596.5951      599.9973     203.241936       2.27460
  25     40.54      397.0979        4.0629      594.7727      598.8356     201.737703       1.86617
  24     48.69      397.4112        4.8557      592.7865      597.6422     200.231000       1.55920
  23     57.69      397.6587        5.7224      590.7959      596.5183     198.859612       1.28547
  22     68.43      397.8484        6.7491      588.6191      595.3682     197.519802       1.05327
  21     81.20      397.9286        7.9665      586.2690      594.2354     196.306784       0.80154
  20     96.49      397.8889        9.4078      583.6961      593.1039     195.214940       0.60262
  19     114.6      397.7895       11.1036      580.7708      591.8744     194.084896       0.52765
  18     136.5      397.6265       13.0893      577.4359      590.5252     192.898764       0.45610
  17     162.9      397.3934       15.4198      573.5624      588.9822     191.588756       0.41873
  16     196.4      397.0020       18.3917      568.5907      586.9824     189.980423       0.40484
  15     218.7      396.7149       20.3133      565.0572      585.3705     188.655656       0.50296
  14     243.0      396.3922       22.3744      560.7495      583.1240     186.731781       0.66726
  13     269.0      396.0328       24.5765      555.3947      579.9711     183.938311       0.90619
  12     297.5      395.6384       26.9201      548.9964      575.9165     180.278106       1.08558
  11     328.5      395.2166       29.4118      542.0895      571.5014     176.284766       1.08578
  10     361.9      394.7708       32.0479      534.6242      566.6721     171.901321       1.10905
   9     398.1      394.3045       34.8329      526.4204      561.2533     166.948750       1.15384
   8     437.6      393.8273       37.7655      517.3907      555.1561     161.328851       1.20157
   7     480.5      393.3475       40.8438      507.7216      548.5654     155.217895       1.20017
   6     533.0      392.8152       44.5451      495.9006      540.4458     147.630524       1.22057
   5     589.8      392.3442       48.4296      483.0788      531.5084     139.164230       1.25668
   4     651.6      392.0378       52.4849      468.6907      521.1756     129.137771       1.37115
   3     718.7      392.0077       56.7029      453.2257      509.9286     117.920912       1.40965
   2     792.3      392.5209       61.0620      436.4928      497.5548     105.033901       1.47800
   1     891.5      394.5963       66.6958      413.9344      480.6302      86.033928       1.61681
   0    1013.0      400.4728       73.1065      388.4125      461.5189      61.046143       1.73503



 Wavenumbers:  2600. -  3250. cm-1, ATM      1
 LEVEL PRESSURE   UPWARD FLUX   DIFDOWN FLUX  DIRDOWN FLUX  DOWNWARD FLUX   NET FLUX    HEATING RATE
          mb          W/m2          W/m2          W/m2        W/m2          W/m2       degree/day
  51    .06700        0.0244        0.0000        5.4450        5.4450       5.420645       0.00000
  50    .07753        0.0244        0.0000        5.4450        5.4450       5.420637       0.00640
  49    .09103        0.0244        0.0000        5.4450        5.4450       5.420627       0.00627
  48    0.1069        0.0244        0.0000        5.4450        5.4450       5.420615       0.00613
  47    0.1255        0.0244        0.0000        5.4450        5.4450       5.420602       0.00599
  46    0.1487        0.0244        0.0000        5.4450        5.4450       5.420585       0.00608
  45    0.1794        0.0244        0.0000        5.4450        5.4450       5.420563       0.00625
  44    0.2165        0.0244        0.0000        5.4449        5.4449       5.420536       0.00612
  43    0.2613        0.0244        0.0000        5.4449        5.4449       5.420504       0.00600
  42    0.3336        0.0244        0.0000        5.4448        5.4448       5.420451       0.00617
  41    0.4307        0.0244        0.0000        5.4448        5.4448       5.420380       0.00620
  40    0.5894        0.0244        0.0000        5.4446        5.4446       5.420260       0.00637
  39     1.339        0.0244        0.0000        5.4439        5.4439       5.419552       0.00797
  38     1.782        0.0244        0.0000        5.4434        5.4434       5.419009       0.01034
  37     2.292        0.0244        0.0000        5.4427        5.4427       5.418294       0.01186
  36     2.964        0.0244        0.0000        5.4416        5.4416       5.417255       0.01304
  35     3.853        0.0244        0.0000        5.4402        5.4402       5.415778       0.01402
  34     5.035        0.0244        0.0000        5.4381        5.4381       5.413722       0.01468
  33     6.613        0.0244        0.0000        5.4353        5.4353       5.410941       0.01487
  32     8.786        0.0244        0.0000        5.4317        5.4317       5.407309       0.01411
  31     11.80        0.0244        0.0000        5.4269        5.4269       5.402529       0.01338
  30     15.07        0.0244        0.0000        5.4224        5.4224       5.398003       0.01169
  29     18.79        0.0244        0.0000        5.4180        5.4180       5.393592       0.01000
  28     23.16        0.0244        0.0000        5.4135        5.4135       5.389107       0.00867
  27     28.12        0.0244        0.0000        5.4088        5.4088       5.384460       0.00790
  26     33.73        0.0244        0.0000        5.4036        5.4036       5.379221       0.00788
  25     40.54        0.0244        0.0000        5.3966        5.3967       5.372282       0.00861
  24     48.69        0.0244        0.0000        5.3872        5.3872       5.362809       0.00980
  23     57.69        0.0244        0.0000        5.3754        5.3754       5.351030       0.01104
  22     68.43        0.0244        0.0000        5.3599        5.3599       5.335549       0.01217
  21     81.20        0.0244        0.0000        5.3401        5.3401       5.315725       0.01310
  20     96.49        0.0244        0.0000        5.3155        5.3155       5.291172       0.01355
  19     114.6        0.0244        0.0000        5.2853        5.2853       5.260994       0.01409
  18     136.5        0.0243        0.0000        5.2504        5.2505       5.226111       0.01341
  17     162.9        0.0243        0.0001        5.2111        5.2111       5.186804       0.01256
  16     196.4        0.0243        0.0001        5.1640        5.1641       5.139770       0.01184
  15     218.7        0.0243        0.0001        5.1331        5.1332       5.108852       0.01174
  14     243.0        0.0243        0.0001        5.0962        5.0963       5.071969       0.01279
  13     269.0        0.0243        0.0001        5.0511        5.0512       5.026849       0.01464
  12     297.5        0.0243        0.0001        4.9956        4.9957       4.971361       0.01646
  11     328.5        0.0244        0.0001        4.9304        4.9305       4.906122       0.01774
  10     361.9        0.0244        0.0001        4.8511        4.8512       4.826834       0.02006
   9     398.1        0.0244        0.0001        4.7507        4.7508       4.726391       0.02340
   8     437.6        0.0245        0.0001        4.6220        4.6222       4.597699       0.02752
   7     480.5        0.0246        0.0001        4.4625        4.4626       4.438072       0.03135
   6     533.0        0.0247        0.0002        4.2460        4.2462       4.221515       0.03484
   5     589.8        0.0249        0.0002        3.9954        3.9956       3.970693       0.03723
   4     651.6        0.0252        0.0002        3.7089        3.7090       3.683834       0.03923
   3     718.7        0.0257        0.0002        3.4018        3.4020       3.376305       0.03865
   2     792.3        0.0265        0.0002        3.0564        3.0566       3.030102       0.03971
   1     891.5        0.0283        0.0002        2.5828        2.5830       2.554626       0.04046
   0    1013.0        0.0327        0.0001        2.0845        2.0847       2.051932       0.03490



 Wavenumbers:  3250. -  4000. cm-1, ATM      1
 LEVEL PRESSURE   UPWARD FLUX   DIFDOWN FLUX  DIRDOWN FLUX  DOWNWARD FLUX   NET FLUX    HEATING RATE
          mb          W/m2          W/m2          W/m2        W/m2          W/m2       degree/day
  51    .06700        0.0005        0.0000        9.1795        9.1795       9.179064       0.00000
  50    .07753        0.0005        0.0000        9.1747        9.1747       9.174221       3.88148
  49    .09103        0.0005        0.0000        9.1713        9.1713       9.170834       2.11747
  48    0.1069        0.0005        0.0000        9.1688        9.1688       9.168309       1.34402
  47    0.1255        0.0005        0.0000        9.1665        9.1665       9.166049       1.02422
  46    0.1487        0.0005        0.0000        9.1641        9.1641       9.163608       0.88991
  45    0.1794        0.0005        0.0000        9.1612        9.1612       9.160730       0.79008
  44    0.2165        0.0005        0.0000        9.1583        9.1583       9.157810       0.66430
  43    0.2613        0.0005        0.0000        9.1553        9.1553       9.154837       0.56041
  42    0.3336        0.0005        0.0000        9.1511        9.1511       9.150658       0.48723
  41    0.4307        0.0005        0.0000        9.1464        9.1464       9.145889       0.41459
  40    0.5894        0.0005        0.0000        9.1393        9.1394       9.138884       0.37255
  39     1.339        0.0005        0.0000        9.1127        9.1127       9.112270       0.29962
  38     1.782        0.0005        0.0000        9.1011        9.1011       9.100682       0.22062
  37     2.292        0.0005        0.0000        9.0901        9.0901       9.089615       0.18329
  36     2.964        0.0005        0.0000        9.0776        9.0776       9.077186       0.15603
  35     3.853        0.0005        0.0000        9.0629        9.0629       9.062395       0.14036
  34     5.035        0.0005        0.0000        9.0441        9.0441       9.043657       0.13386
  33     6.613        0.0005        0.0000        9.0191        9.0191       9.018655       0.13366
  32     8.786        0.0005        0.0000        8.9843        8.9843       8.983871       0.13509
  31     11.80        0.0005        0.0000        8.9327        8.9327       8.932255       0.14451
  30     15.07        0.0004        0.0000        8.8758        8.8759       8.875410       0.14676
  29     18.79        0.0004        0.0000        8.8110        8.8110       8.810583       0.14698
  28     23.16        0.0004        0.0000        8.7365        8.7366       8.736138       0.14395
  27     28.12        0.0004        0.0000        8.6554        8.6555       8.655025       0.13789
  26     33.73        0.0004        0.0000        8.5719        8.5719       8.571525       0.12554
  25     40.54        0.0004        0.0001        8.4812        8.4812       8.480802       0.11255
  24     48.69        0.0004        0.0001        8.3838        8.3839       8.383500       0.10069
  23     57.69        0.0004        0.0001        8.2861        8.2862       8.285765       0.09161
  22     68.43        0.0004        0.0001        8.1751        8.1751       8.174769       0.08726
  21     81.20        0.0004        0.0001        8.0457        8.0458       8.045410       0.08548
  20     96.49        0.0003        0.0001        7.8949        7.8950       7.894707       0.08318
  19     114.6        0.0003        0.0001        7.7162        7.7163       7.715998       0.08344
  18     136.5        0.0003        0.0002        7.5193        7.5194       7.519154       0.07569
  17     162.9        0.0003        0.0002        7.2913        7.2915       7.291263       0.07284
  16     196.4        0.0002        0.0002        6.9660        6.9662       6.965990       0.08187
  15     218.7        0.0002        0.0002        6.6648        6.6650       6.664801       0.11435
  14     243.0        0.0002        0.0002        6.2619        6.2622       6.262007       0.13970
  13     269.0        0.0002        0.0003        5.7576        5.7579       5.757708       0.16359
  12     297.5        0.0001        0.0003        5.1719        5.1722       5.172017       0.17371
  11     328.5        0.0001        0.0002        4.5757        4.5760       4.575858       0.16209
  10     361.9        0.0001        0.0002        3.9995        3.9998       3.999683       0.14578
   9     398.1        0.0001        0.0002        3.4655        3.4657       3.465628       0.12442
   8     437.6        0.0001        0.0002        2.9740        2.9742       2.974181       0.10507
   7     480.5        0.0001        0.0002        2.5307        2.5309       2.530811       0.08708
   6     533.0        0.0000        0.0002        2.0614        2.0616       2.061518       0.07549
   5     589.8        0.0000        0.0002        1.6150        1.6151       1.615095       0.06626
   4     651.6        0.0000        0.0001        1.1565        1.1566       1.156563       0.06271
   3     718.7        0.0000        0.0001        0.7390        0.7391       0.739089       0.05246
   2     792.3        0.0000        0.0001        0.3985        0.3985       0.398508       0.03906
   1     891.5        0.0000        0.0000        0.1139        0.1139       0.113923       0.02422
   0    1013.0        0.0002        0.0000        0.0094        0.0094       0.009140       0.00728



 Wavenumbers:  4000. -  4650. cm-1, ATM      1
 LEVEL PRESSURE   UPWARD FLUX   DIFDOWN FLUX  DIRDOWN FLUX  DOWNWARD FLUX   NET FLUX    HEATING RATE
          mb          W/m2          W/m2          W/m2        W/m2          W/m2       degree/day
  51    .06700        1.1686        0.0000       10.7795       10.7795       9.610975       0.00000
  50    .07753        1.1686        0.0000       10.7795       10.7795       9.610974       0.00080
  49    .09103        1.1686        0.0000       10.7795       10.7795       9.610973       0.00078
  48    0.1069        1.1686        0.0000       10.7795       10.7795       9.610971       0.00076
  47    0.1255        1.1686        0.0000       10.7795       10.7795       9.610970       0.00075
  46    0.1487        1.1686        0.0000       10.7795       10.7795       9.610968       0.00076
  45    0.1794        1.1686        0.0000       10.7795       10.7795       9.610965       0.00078
  44    0.2165        1.1686        0.0000       10.7795       10.7795       9.610961       0.00076
  43    0.2613        1.1686        0.0000       10.7795       10.7795       9.610957       0.00075
  42    0.3336        1.1686        0.0000       10.7795       10.7795       9.610951       0.00077
  41    0.4307        1.1686        0.0000       10.7795       10.7795       9.610942       0.00077
  40    0.5894        1.1686        0.0000       10.7795       10.7795       9.610927       0.00080
  39     1.339        1.1686        0.0000       10.7794       10.7794       9.610838       0.00101
  38     1.782        1.1686        0.0000       10.7793       10.7793       9.610768       0.00133
  37     2.292        1.1686        0.0000       10.7792       10.7792       9.610674       0.00156
  36     2.964        1.1686        0.0000       10.7791       10.7791       9.610534       0.00176
  35     3.853        1.1686        0.0000       10.7789       10.7789       9.610326       0.00197
  34     5.035        1.1686        0.0000       10.7786       10.7786       9.610019       0.00219
  33     6.613        1.1685        0.0000       10.7781       10.7781       9.609568       0.00241
  32     8.786        1.1685        0.0000       10.7774       10.7774       9.608902       0.00259
  31     11.80        1.1685        0.0000       10.7763       10.7764       9.607856       0.00293
  30     15.07        1.1685        0.0001       10.7751       10.7751       9.606629       0.00317
  29     18.79        1.1685        0.0001       10.7736       10.7737       9.605146       0.00336
  28     23.16        1.1685        0.0001       10.7717       10.7718       9.603306       0.00356
  27     28.12        1.1685        0.0001       10.7695       10.7696       9.601079       0.00378
  26     33.73        1.1685        0.0001       10.7667       10.7668       9.598336       0.00413
  25     40.54        1.1685        0.0002       10.7629       10.7631       9.594617       0.00461
  24     48.69        1.1684        0.0002       10.7579       10.7581       9.589666       0.00512
  23     57.69        1.1684        0.0002       10.7520       10.7522       9.583803       0.00550
  22     68.43        1.1684        0.0003       10.7446       10.7449       9.576464       0.00577
  21     81.20        1.1684        0.0003       10.7355       10.7358       9.567439       0.00596
  20     96.49        1.1684        0.0004       10.7245       10.7248       9.556476       0.00605
  19     114.6        1.1684        0.0004       10.7107       10.7111       9.542795       0.00639
  18     136.5        1.1684        0.0005       10.6942       10.6947       9.526349       0.00632
  17     162.9        1.1684        0.0006       10.6740       10.6746       9.506247       0.00643
  16     196.4        1.1685        0.0007       10.6464       10.6471       9.478634       0.00695
  15     218.7        1.1686        0.0008       10.6255       10.6263       9.457711       0.00794
  14     243.0        1.1687        0.0009       10.5980       10.5989       9.430215       0.00954
  13     269.0        1.1690        0.0010       10.5611       10.5621       9.393045       0.01206
  12     297.5        1.1695        0.0011       10.5119       10.5130       9.343518       0.01469
  11     328.5        1.1702        0.0012       10.4499       10.4511       9.280868       0.01703
  10     361.9        1.1711        0.0013       10.3702       10.3715       9.200360       0.02037
   9     398.1        1.1723        0.0014       10.2678       10.2692       9.096915       0.02410
   8     437.6        1.1738        0.0016       10.1390       10.1406       8.966782       0.02782
   7     480.5        1.1756        0.0017        9.9877        9.9894       8.813775       0.03005
   6     533.0        1.1784        0.0018        9.7937        9.7955       8.617141       0.03163
   5     589.8        1.1823        0.0020        9.5752        9.5772       8.394903       0.03299
   4     651.6        1.1882        0.0022        9.2958        9.2979       8.109760       0.03899
   3     718.7        1.1974        0.0023        8.9267        8.9290       7.731574       0.04753
   2     792.3        1.2128        0.0024        8.4542        8.4566       7.243874       0.05593
   1     891.5        1.2480        0.0025        7.7948        7.7973       6.549323       0.05910
   0    1013.0        1.3301        0.0026        7.0767        7.0793       5.749186       0.05556



 Wavenumbers:  4650. -  5150. cm-1, ATM      1
 LEVEL PRESSURE   UPWARD FLUX   DIFDOWN FLUX  DIRDOWN FLUX  DOWNWARD FLUX   NET FLUX    HEATING RATE
          mb          W/m2          W/m2          W/m2        W/m2          W/m2       degree/day
  51    .06700        0.3008        0.0000       10.2033       10.2033       9.902559       0.00000
  50    .07753        0.3008        0.0000       10.2031       10.2031       9.902323       0.18901
  49    .09103        0.3008        0.0000       10.2028       10.2028       9.902029       0.18428
  48    0.1069        0.3008        0.0000       10.2025       10.2025       9.901692       0.17931
  47    0.1255        0.3008        0.0000       10.2021       10.2021       9.901307       0.17426
  46    0.1487        0.3008        0.0000       10.2016       10.2016       9.900826       0.17536
  45    0.1794        0.3008        0.0000       10.2010       10.2010       9.900176       0.17850
  44    0.2165        0.3008        0.0000       10.2002       10.2002       9.899417       0.17277
  43    0.2613        0.3008        0.0000       10.1993       10.1993       9.898531       0.16690
  42    0.3336        0.3008        0.0000       10.1979       10.1979       9.897099       0.16702
  41    0.4307        0.3008        0.0000       10.1960       10.1960       9.895258       0.16002
  40    0.5894        0.3008        0.0000       10.1932       10.1932       9.892384       0.15283
  39     1.339        0.3008        0.0000       10.1816       10.1816       9.880793       0.13050
  38     1.782        0.3008        0.0000       10.1760       10.1760       9.875265       0.10525
  37     2.292        0.3008        0.0000       10.1706       10.1706       9.869809       0.09037
  36     2.964        0.3008        0.0000       10.1646       10.1647       9.863886       0.07434
  35     3.853        0.3008        0.0000       10.1584       10.1584       9.857673       0.05896
  34     5.035        0.3008        0.0000       10.1521       10.1521       9.851340       0.04525
  33     6.613        0.3007        0.0000       10.1456       10.1456       9.844886       0.03450
  32     8.786        0.3007        0.0000       10.1386       10.1386       9.837880       0.02721
  31     11.80        0.3007        0.0001       10.1295       10.1296       9.828850       0.02528
  30     15.07        0.3007        0.0001       10.1196       10.1197       9.818984       0.02547
  29     18.79        0.3007        0.0001       10.1076       10.1077       9.806993       0.02719
  28     23.16        0.3007        0.0001       10.0923       10.0924       9.791713       0.02955
  27     28.12        0.3006        0.0002       10.0731       10.0733       9.772651       0.03240
  26     33.73        0.3006        0.0002       10.0500       10.0502       9.749598       0.03466
  25     40.54        0.3006        0.0002       10.0201       10.0204       9.719753       0.03703
  24     48.69        0.3006        0.0003        9.9820        9.9822       9.681662       0.03942
  23     57.69        0.3005        0.0003        9.9384        9.9388       9.638224       0.04072
  22     68.43        0.3005        0.0004        9.8858        9.8861       9.585629       0.04135
  21     81.20        0.3005        0.0004        9.8234        9.8239       9.523426       0.04110
  20     96.49        0.3004        0.0005        9.7518        9.7523       9.451863       0.03950
  19     114.6        0.3004        0.0006        9.6719        9.6725       9.372157       0.03722
  18     136.5        0.3003        0.0007        9.5858        9.5865       9.286185       0.03306
  17     162.9        0.3003        0.0008        9.4940        9.4949       9.194593       0.02928
  16     196.4        0.3003        0.0010        9.3883        9.3893       9.089012       0.02658
  15     218.7        0.3003        0.0011        9.3229        9.3240       9.023755       0.02478
  14     243.0        0.3003        0.0012        9.2520        9.2532       8.952896       0.02458
  13     269.0        0.3004        0.0014        9.1717        9.1730       8.872629       0.02604
  12     297.5        0.3005        0.0015        9.0763        9.0778       8.777230       0.02829
  11     328.5        0.3008        0.0016        8.9650        8.9666       8.665834       0.03029
  10     361.9        0.3011        0.0018        8.8349        8.8367       8.535605       0.03295
   9     398.1        0.3015        0.0019        8.6820        8.6839       8.382407       0.03569
   8     437.6        0.3021        0.0021        8.5028        8.5049       8.202729       0.03842
   7     480.5        0.3030        0.0022        8.2948        8.2970       7.994063       0.04098
   6     533.0        0.3043        0.0024        8.0209        8.0233       7.719004       0.04425
   5     589.8        0.3061        0.0025        7.7063        7.7089       7.402750       0.04694
   4     651.6        0.3089        0.0027        7.3412        7.3439       7.035009       0.05029
   3     718.7        0.3131        0.0028        6.9387        6.9415       6.628385       0.05110
   2     792.3        0.3195        0.0029        6.5066        6.5095       6.189981       0.05028
   1     891.5        0.3331        0.0030        5.9361        5.9391       5.605993       0.04969
   0    1013.0        0.3607        0.0030        5.3025        5.3055       4.944802       0.04591



 Wavenumbers:  5150. -  6150. cm-1, ATM      1
 LEVEL PRESSURE   UPWARD FLUX   DIFDOWN FLUX  DIRDOWN FLUX  DOWNWARD FLUX   NET FLUX    HEATING RATE
          mb          W/m2          W/m2          W/m2        W/m2          W/m2       degree/day
  51    .06700        2.5310        0.0000       25.5798       25.5798      23.048854       0.00000
  50    .07753        2.5310        0.0000       25.5798       25.5798      23.048815       0.03156
  49    .09103        2.5310        0.0000       25.5797       25.5797      23.048764       0.03205
  48    0.1069        2.5310        0.0000       25.5797       25.5797      23.048702       0.03256
  47    0.1255        2.5310        0.0000       25.5796       25.5796      23.048630       0.03306
  46    0.1487        2.5310        0.0000       25.5795       25.5795      23.048534       0.03483
  45    0.1794        2.5310        0.0000       25.5794       25.5794      23.048399       0.03708
  44    0.2165        2.5310        0.0000       25.5792       25.5792      23.048233       0.03764
  43    0.2613        2.5310        0.0000       25.5790       25.5790      23.048031       0.03822
  42    0.3336        2.5310        0.0000       25.5786       25.5786      23.047684       0.04038
  41    0.4307        2.5310        0.0000       25.5782       25.5782      23.047214       0.04092
  40    0.5894        2.5310        0.0000       25.5774       25.5774      23.046425       0.04193
  39     1.339        2.5309        0.0000       25.5735       25.5736      23.042628       0.04276
  38     1.782        2.5309        0.0000       25.5713       25.5713      23.040417       0.04208
  37     2.292        2.5309        0.0001       25.5688       25.5688      23.037916       0.04142
  36     2.964        2.5309        0.0001       25.5656       25.5656      23.034739       0.03988
  35     3.853        2.5309        0.0001       25.5615       25.5616      23.030703       0.03831
  34     5.035        2.5309        0.0001       25.5562       25.5564      23.025506       0.03712
  33     6.613        2.5308        0.0002       25.5494       25.5496      23.018767       0.03603
  32     8.786        2.5308        0.0002       25.5406       25.5408      23.010036       0.03391
  31     11.80        2.5307        0.0003       25.5287       25.5290      22.998233       0.03304
  30     15.07        2.5307        0.0004       25.5167       25.5171      22.986404       0.03054
  29     18.79        2.5306        0.0005       25.5042       25.5047      22.974043       0.02802
  28     23.16        2.5305        0.0006       25.4907       25.4913      22.960737       0.02573
  27     28.12        2.5305        0.0007       25.4764       25.4772      22.946717       0.02383
  26     33.73        2.5304        0.0009       25.4620       25.4629      22.932525       0.02134
  25     40.54        2.5303        0.0011       25.4463       25.4473      22.917031       0.01922
  24     48.69        2.5302        0.0013       25.4294       25.4306      22.900473       0.01714
  23     57.69        2.5301        0.0015       25.4126       25.4141      22.884068       0.01538
  22     68.43        2.5299        0.0018       25.3944       25.3962      22.866290       0.01398
  21     81.20        2.5298        0.0021       25.3744       25.3766      22.846763       0.01290
  20     96.49        2.5296        0.0025       25.3519       25.3545      22.824852       0.01209
  19     114.6        2.5294        0.0030       25.3262       25.3292      22.799753       0.01172
  18     136.5        2.5292        0.0036       25.2962       25.2998      22.770564       0.01122
  17     162.9        2.5289        0.0042       25.2521       25.2563      22.727394       0.01380
  16     196.4        2.5286        0.0051       25.1593       25.1644      22.635762       0.02306
  15     218.7        2.5285        0.0057       25.0159       25.0216      22.493129       0.05415
  14     243.0        2.5283        0.0062       24.7089       24.7151      22.186841       0.10623
  13     269.0        2.5282        0.0068       24.1619       24.1686      21.640445       0.17725
  12     297.5        2.5281        0.0073       23.4544       23.4617      20.933544       0.20966
  11     328.5        2.5281        0.0078       22.7355       22.7433      20.215119       0.19534
  10     361.9        2.5283        0.0083       21.9224       21.9308      19.402447       0.20561
   9     398.1        2.5286        0.0088       20.9939       21.0027      18.474110       0.21628
   8     437.6        2.5292        0.0093       19.9833       19.9926      17.463425       0.21609
   7     480.5        2.5300        0.0097       18.9483       18.9580      16.427956       0.20336
   6     533.0        2.5316        0.0101       17.7796       17.7897      15.258149       0.18818
   5     589.8        2.5342        0.0106       16.6726       16.6831      14.148939       0.16464
   4     651.6        2.5391        0.0110       15.6343       15.6453      13.106248       0.14259
   3     718.7        2.5477        0.0115       14.7738       14.7853      12.237613       0.10916
   2     792.3        2.5636        0.0121       14.0291       14.0412      11.477576       0.08717
   1     891.5        2.6045        0.0128       13.0822       13.0950      10.490476       0.08400
   0    1013.0        2.7195        0.0135       12.0384       12.0519       9.332446       0.08041



 Wavenumbers:  6150. -  7700. cm-1, ATM      1
 LEVEL PRESSURE   UPWARD FLUX   DIFDOWN FLUX  DIRDOWN FLUX  DOWNWARD FLUX   NET FLUX    HEATING RATE
          mb          W/m2          W/m2          W/m2        W/m2          W/m2       degree/day
  51    .06700        3.9276        0.0000       47.3109       47.3109      43.383297       0.00000
  50    .07753        3.9276        0.0000       47.3108       47.3108      43.383240       0.04553
  49    .09103        3.9276        0.0000       47.3107       47.3107      43.383166       0.04583
  48    0.1069        3.9276        0.0000       47.3106       47.3106      43.383080       0.04614
  47    0.1255        3.9276        0.0000       47.3105       47.3105      43.382977       0.04645
  46    0.1487        3.9276        0.0000       47.3104       47.3104      43.382844       0.04852
  45    0.1794        3.9276        0.0000       47.3102       47.3102      43.382657       0.05127
  44    0.2165        3.9275        0.0000       47.3100       47.3100      43.382430       0.05167
  43    0.2613        3.9275        0.0000       47.3097       47.3097      43.382154       0.05210
  42    0.3336        3.9275        0.0000       47.3092       47.3092      43.381685       0.05471
  41    0.4307        3.9275        0.0000       47.3085       47.3086      43.381050       0.05521
  40    0.5894        3.9275        0.0001       47.3074       47.3075      43.379990       0.05633
  39     1.339        3.9274        0.0001       47.3022       47.3023      43.374898       0.05733
  38     1.782        3.9274        0.0002       47.2991       47.2993      43.371928       0.05655
  37     2.292        3.9273        0.0002       47.2956       47.2959      43.368552       0.05591
  36     2.964        3.9273        0.0003       47.2912       47.2915      43.364234       0.05421
  35     3.853        3.9272        0.0004       47.2855       47.2859      43.358700       0.05252
  34     5.035        3.9271        0.0006       47.2780       47.2786      43.351519       0.05129
  33     6.613        3.9269        0.0007       47.2683       47.2690      43.342132       0.05019
  32     8.786        3.9267        0.0010       47.2556       47.2565      43.329833       0.04776
  31     11.80        3.9264        0.0013       47.2380       47.2393      43.312930       0.04732
  30     15.07        3.9261        0.0017       47.2201       47.2217      43.295643       0.04463
  29     18.79        3.9257        0.0021       47.2008       47.2029      43.277164       0.04190
  28     23.16        3.9253        0.0026       47.1795       47.1821      43.256776       0.03943
  27     28.12        3.9248        0.0031       47.1565       47.1596      43.234784       0.03738
  26     33.73        3.9243        0.0037       47.1324       47.1361      43.211865       0.03446
  25     40.54        3.9236        0.0045       47.1054       47.1098      43.186232       0.03180
  24     48.69        3.9228        0.0054       47.0754       47.0808      43.157984       0.02923
  23     57.69        3.9219        0.0064       47.0449       47.0513      43.129368       0.02682
  22     68.43        3.9209        0.0075       47.0110       47.0185      43.097639       0.02494
  21     81.20        3.9196        0.0089       46.9729       46.9818      43.062156       0.02345
  20     96.49        3.9182        0.0106       46.9294       46.9400      43.021831       0.02226
  19     114.6        3.9164        0.0126       46.8790       46.8916      42.975222       0.02176
  18     136.5        3.9143        0.0149       46.8200       46.8349      42.920633       0.02099
  17     162.9        3.9118        0.0177       46.7361       46.7539      42.842076       0.02511
  16     196.4        3.9086        0.0214       46.5703       46.5916      42.683041       0.04003
  15     218.7        3.9065        0.0237       46.3473       46.3710      42.464485       0.08298
  14     243.0        3.9043        0.0261       45.9299       45.9560      42.051662       0.14318
  13     269.0        3.9020        0.0285       45.1708       45.1993      41.297221       0.24474
  12     297.5        3.8998        0.0308       44.0115       44.0423      40.142415       0.34250
  11     328.5        3.8977        0.0331       42.7242       42.7573      38.859611       0.34879
  10     361.9        3.8957        0.0354       41.3539       41.3893      37.493603       0.34561
   9     398.1        3.8941        0.0376       39.7953       39.8329      35.938794       0.36224
   8     437.6        3.8930        0.0396       37.9948       38.0344      34.141385       0.38430
   7     480.5        3.8927        0.0414       36.0647       36.1061      32.213412       0.37865
   6     533.0        3.8941        0.0433       33.7773       33.8206      29.926459       0.36790
   5     589.8        3.8987        0.0448       31.4082       31.4530      27.554331       0.35210
   4     651.6        3.9100        0.0459       28.8834       28.9292      25.019281       0.34667
   3     718.7        3.9327        0.0466       26.4104       26.4570      22.524337       0.31355
   2     792.3        3.9771        0.0471       24.0056       24.0527      20.075590       0.28084
   1     891.5        4.0929        0.0475       21.2348       21.2823      17.189444       0.24560
   0    1013.0        4.4045        0.0480       18.6150       18.6630      14.258556       0.20351



 Wavenumbers:  7700. -  8050. cm-1, ATM      1
 LEVEL PRESSURE   UPWARD FLUX   DIFDOWN FLUX  DIRDOWN FLUX  DOWNWARD FLUX   NET FLUX    HEATING RATE
          mb          W/m2          W/m2          W/m2        W/m2          W/m2       degree/day
  51    .06700        5.5640        0.0000       11.1810       11.1810       5.616941       0.00000
  50    .07753        5.5640        0.0000       11.1809       11.1809       5.616919       0.01715
  49    .09103        5.5640        0.0000       11.1809       11.1809       5.616893       0.01681
  48    0.1069        5.5640        0.0000       11.1809       11.1809       5.616862       0.01645
  47    0.1255        5.5640        0.0000       11.1809       11.1809       5.616826       0.01610
  46    0.1487        5.5640        0.0000       11.1808       11.1808       5.616781       0.01634
  45    0.1794        5.5641        0.0000       11.1808       11.1808       5.616720       0.01681
  44    0.2165        5.5641        0.0000       11.1807       11.1807       5.616648       0.01649
  43    0.2613        5.5641        0.0000       11.1806       11.1806       5.616562       0.01618
  42    0.3336        5.5641        0.0000       11.1805       11.1805       5.616420       0.01656
  41    0.4307        5.5641        0.0000       11.1803       11.1804       5.616231       0.01638
  40    0.5894        5.5642        0.0000       11.1801       11.1801       5.615924       0.01636
  39     1.339        5.5644        0.0001       11.1788       11.1789       5.614468       0.01639
  38     1.782        5.5645        0.0001       11.1781       11.1782       5.613613       0.01628
  37     2.292        5.5647        0.0001       11.1772       11.1773       5.612624       0.01639
  36     2.964        5.5649        0.0002       11.1761       11.1762       5.611325       0.01631
  35     3.853        5.5652        0.0002       11.1746       11.1748       5.609609       0.01629
  34     5.035        5.5655        0.0003       11.1726       11.1729       5.607329       0.01629
  33     6.613        5.5660        0.0004       11.1700       11.1703       5.604284       0.01628
  32     8.786        5.5667        0.0005       11.1664       11.1669       5.600183       0.01593
  31     11.80        5.5676        0.0006       11.1613       11.1619       5.594319       0.01642
  30     15.07        5.5686        0.0008       11.1558       11.1567       5.588030       0.01624
  29     18.79        5.5698        0.0010       11.1497       11.1507       5.580933       0.01609
  28     23.16        5.5711        0.0013       11.1425       11.1438       5.572655       0.01601
  27     28.12        5.5726        0.0015       11.1343       11.1358       5.563204       0.01607
  26     33.73        5.5744        0.0018       11.1252       11.1270       5.552649       0.01587
  25     40.54        5.5765        0.0022       11.1142       11.1164       5.539929       0.01578
  24     48.69        5.5790        0.0026       11.1010       11.1036       5.524641       0.01582
  23     57.69        5.5818        0.0031       11.0866       11.0897       5.507909       0.01568
  22     68.43        5.5852        0.0037       11.0695       11.0732       5.488065       0.01560
  21     81.20        5.5892        0.0044       11.0494       11.0537       5.464543       0.01554
  20     96.49        5.5940        0.0052       11.0255       11.0307       5.436686       0.01538
  19     114.6        5.5998        0.0061       10.9975       11.0037       5.403847       0.01533
  18     136.5        5.6068        0.0073       10.9648       10.9721       5.365249       0.01484
  17     162.9        5.6152        0.0087       10.9263       10.9350       5.319722       0.01455
  16     196.4        5.6263        0.0104       10.8773       10.8877       5.261347       0.01469
  15     218.7        5.6337        0.0116       10.8455       10.8571       5.223366       0.01442
  14     243.0        5.6419        0.0128       10.8114       10.8243       5.182339       0.01423
  13     269.0        5.6510        0.0142       10.7749       10.7891       5.138099       0.01435
  12     297.5        5.6609        0.0156       10.7357       10.7514       5.090417       0.01414
  11     328.5        5.6720        0.0172       10.6937       10.7110       5.038980       0.01399
  10     361.9        5.6842        0.0189       10.6489       10.6678       4.983555       0.01402
   9     398.1        5.6979        0.0208       10.6008       10.6215       4.923642       0.01396
   8     437.6        5.7132        0.0227       10.5491       10.5718       4.858617       0.01390
   7     480.5        5.7304        0.0248       10.4934       10.5183       4.787902       0.01389
   6     533.0        5.7528        0.0274       10.4243       10.4517       4.698929       0.01431
   5     589.8        5.7789        0.0302       10.3479       10.3781       4.599183       0.01481
   4     651.6        5.8102        0.0331       10.2613       10.2945       4.484249       0.01572
   3     718.7        5.8486        0.0363       10.1618       10.1980       4.349426       0.01694
   2     792.3        5.8972        0.0396       10.0439       10.0835       4.186263       0.01871
   1     891.5        5.9790        0.0440        9.8626        9.9066       3.927658       0.02201
   0    1013.0        6.1080        0.0491        9.6103        9.6594       3.551401       0.02613



 Wavenumbers:  8050. - 12850. cm-1, ATM      1
 LEVEL PRESSURE   UPWARD FLUX   DIFDOWN FLUX  DIRDOWN FLUX  DOWNWARD FLUX   NET FLUX    HEATING RATE
          mb          W/m2          W/m2          W/m2        W/m2          W/m2       degree/day
  51    .06700       92.5054        0.0000      156.5418      156.5418      64.036383       0.00000
  50    .07753       92.5054        0.0000      156.5417      156.5417      64.036383      -0.00000
  49    .09103       92.5053        0.0001      156.5417      156.5417      64.036383      -0.00000
  48    0.1069       92.5053        0.0001      156.5416      156.5417      64.036383       0.00000
  47    0.1255       92.5053        0.0002      156.5415      156.5417      64.036383      -0.00000
  46    0.1487       92.5053        0.0002      156.5414      156.5417      64.036383       0.00000
  45    0.1794       92.5052        0.0003      156.5413      156.5416      64.036383       0.00000
  44    0.2165       92.5052        0.0004      156.5412      156.5416      64.036383      -0.00000
  43    0.2613       92.5051        0.0006      156.5410      156.5415      64.036383       0.00000
  42    0.3336       92.5051        0.0008      156.5407      156.5415      64.036383       0.00000
  41    0.4307       92.5050        0.0010      156.5403      156.5413      64.036383      -0.00000
  40    0.5894       92.5048        0.0015      156.5397      156.5412      64.036383       0.00000
  39     1.339       92.5039        0.0036      156.5367      156.5403      64.036383      -0.00000
  38     1.782       92.5035        0.0048      156.5350      156.5398      64.036383       0.00000
  37     2.292       92.5029        0.0063      156.5330      156.5393      64.036383       0.00000
  36     2.964       92.5021        0.0082      156.5303      156.5385      64.036383      -0.00000
  35     3.853       92.5011        0.0107      156.5268      156.5375      64.036383       0.00000
  34     5.035       92.4998        0.0140      156.5222      156.5362      64.036383       0.00000
  33     6.613       92.4981        0.0185      156.5160      156.5345      64.036383       0.00000
  32     8.786       92.4957        0.0245      156.5076      156.5321      64.036383      -0.00000
  31     11.80       92.4923        0.0330      156.4957      156.5287      64.036383       0.00000
  30     15.07       92.4887        0.0423      156.4828      156.5251      64.036383      -0.00000
  29     18.79       92.4846        0.0527      156.4682      156.5209      64.036383       0.00000
  28     23.16       92.4797        0.0649      156.4512      156.5161      64.036383      -0.00000
  27     28.12       92.4742        0.0789      156.4317      156.5106      64.036383      -0.00000
  26     33.73       92.4680        0.0946      156.4099      156.5044      64.036383       0.00000
  25     40.54       92.4606        0.1135      156.3834      156.4969      64.036383       0.00000
  24     48.69       92.4515        0.1364      156.3515      156.4879      64.036383       0.00000
  23     57.69       92.4416        0.1615      156.3164      156.4780      64.036383      -0.00000
  22     68.43       92.4297        0.1916      156.2746      156.4661      64.036383       0.00000
  21     81.20       92.4156        0.2274      156.2246      156.4520      64.036383      -0.00000
  20     96.49       92.3987        0.2701      156.1649      156.4351      64.036383       0.00000
  19     114.6       92.3788        0.3210      156.0879      156.4089      64.030175       0.00290
  18     136.5       92.3551        0.3814      155.9962      156.3776      64.022473       0.00296
  17     162.9       92.3268        0.4535      155.8831      156.3365      64.009689       0.00409
  16     196.4       92.2902        0.5472      155.7199      156.2672      63.976918       0.00825
  15     218.7       92.2663        0.6089      155.5733      156.1822      63.915844       0.02319
  14     243.0       92.2408        0.6759      155.3367      156.0125      63.771776       0.04997
  13     269.0       92.2142        0.7483      154.9514      155.6997      63.485582       0.09284
  12     297.5       92.1876        0.8263      154.3896      155.2160      63.028333       0.13562
  11     328.5       92.1618        0.9105      153.7151      154.6256      62.463782       0.15350
  10     361.9       92.1381        1.0007      152.9087      153.9095      61.771378       0.17518
   9     398.1       92.1190        1.0973      151.8986      152.9959      60.876886       0.20840
   8     437.6       92.1087        1.2000      150.6031      151.8031      59.694395       0.25282
   7     480.5       92.1123        1.3086      149.0014      150.3100      58.197648       0.29396
   6     533.0       92.1443        1.4400      146.7375      148.1775      56.033272       0.34818
   5     589.8       92.2289        1.5777      143.8730      145.4506      53.221740       0.41732
   4     651.6       92.4248        1.7190      140.0955      141.8145      49.389714       0.52404
   3     718.7       92.8076        1.8627      135.5278      137.3905      44.582908       0.60408
   2     792.3       93.5434        2.0054      130.0690      132.0744      38.531019       0.69408
   1     891.5       95.4040        2.1787      122.1273      124.3060      28.901995       0.81938
   0    1013.0       99.9377        2.3652      112.9512      115.3164      15.378649       0.93900



 Wavenumbers: 12850. - 16000. cm-1, ATM      1
 LEVEL PRESSURE   UPWARD FLUX   DIFDOWN FLUX  DIRDOWN FLUX  DOWNWARD FLUX   NET FLUX    HEATING RATE
          mb          W/m2          W/m2          W/m2        W/m2          W/m2       degree/day
  51    .06700       79.4564        0.0000       98.0872       98.0872      18.630810       0.00000
  50    .07753       79.4564        0.0001       98.0864       98.0864      18.630018       0.63450
  49    .09103       79.4564        0.0002       98.0853       98.0855      18.629024       0.62143
  48    0.1069       79.4564        0.0003       98.0841       98.0843      18.627882       0.60810
  47    0.1255       79.4564        0.0004       98.0826       98.0830      18.626569       0.59508
  46    0.1487       79.4565        0.0005       98.0809       98.0814      18.624912       0.60387
  45    0.1794       79.4565        0.0007       98.0784       98.0792      18.622659       0.61871
  44    0.2165       79.4566        0.0010       98.0756       98.0766      18.620007       0.60312
  43    0.2613       79.4567        0.0013       98.0723       98.0736      18.616889       0.58775
  42    0.3336       79.4569        0.0017       98.0670       98.0687      18.611800       0.59339
  41    0.4307       79.4573        0.0023       98.0602       98.0625      18.605217       0.57231
  40    0.5894       79.4581        0.0034       98.0496       98.0529      18.594844       0.55163
  39     1.339       79.4647        0.0082       98.0043       98.0125      18.547826       0.52934
  38     1.782       79.4707        0.0110       97.9793       97.9903      18.519589       0.53758
  37     2.292       79.4796        0.0143       97.9498       97.9640      18.484415       0.58258
  36     2.964       79.4944        0.0185       97.9088       97.9274      18.432960       0.64592
  35     3.853       79.5182        0.0242       97.8503       97.8745      18.356327       0.72726
  34     5.035       79.5541        0.0317       97.7680       97.7997      18.245634       0.79075
  33     6.613       79.6041        0.0418       97.6562       97.6979      18.093809       0.81166
  32     8.786       79.6693        0.0553       97.5107       97.5660      17.896620       0.76581
  31     11.80       79.7542        0.0746       97.3179       97.3924      17.638231       0.72341
  30     15.07       79.8356        0.0953       97.1283       97.2236      17.388026       0.64598
  29     18.79       79.9188        0.1187       96.9300       97.0487      17.129931       0.58518
  28     23.16       80.0058        0.1460       96.7166       96.8625      16.856738       0.52827
  27     28.12       80.0935        0.1772       96.4935       96.6707      16.577139       0.47530
  26     33.73       80.1748        0.2121       96.2731       96.4852      16.310394       0.40106
  25     40.54       80.2534        0.2542       96.0408       96.2950      16.041658       0.33340
  24     48.69       80.3291        0.3051       95.7946       96.0997      15.770580       0.28052
  23     57.69       80.3938        0.3610       95.5573       95.9182      15.524420       0.23074
  22     68.43       80.4509        0.4275       95.3106       95.7381      15.287234       0.18646
  21     81.20       80.4915        0.5069       95.0643       95.5713      15.079766       0.13709
  20     96.49       80.5146        0.6017       94.8153       95.4170      14.902402       0.09789
  19     114.6       80.5434        0.7154       94.5411       95.2565      14.713048       0.08841
  18     136.5       80.5660        0.8503       94.2320       95.0823      14.516270       0.07567
  17     162.9       80.5822        1.0108       93.8753       94.8861      14.303934       0.06787
  16     196.4       80.5804        1.2190       93.4347       94.6537      14.073239       0.05807
  15     218.7       80.5711        1.3557       93.1513       94.5070      13.935940       0.05213
  14     243.0       80.5574        1.5044       92.8439       94.3483      13.790946       0.05029
  13     269.0       80.5392        1.6654       92.5111       94.1766      13.637415       0.04980
  12     297.5       80.5169        1.8395       92.1495       93.9890      13.472124       0.04902
  11     328.5       80.4925        2.0277       91.7554       93.7830      13.290531       0.04937
  10     361.9       80.4668        2.2302       91.3262       93.5564      13.089634       0.05083
   9     398.1       80.4409        2.4482       90.8575       93.3057      12.864811       0.05238
   8     437.6       80.4175        2.6822       90.3418       93.0240      12.606508       0.05523
   7     480.5       80.3990        2.9329       89.7728       92.7057      12.306732       0.05887
   6     533.0       80.3894        3.2413       89.0428       92.2841      11.894672       0.06629
   5     589.8       80.4043        3.5728       88.2038       91.7766      11.372337       0.07753
   4     651.6       80.4725        3.9274       87.1979       91.1253      10.652837       0.09839
   3     718.7       80.6128        4.3032       86.0161       90.3194       9.706600       0.11892
   2     792.3       80.8862        4.6966       84.5970       89.2936       8.407468       0.14900
   1     891.5       81.5472        5.2089       82.4374       87.6463       6.099152       0.19643
   0    1013.0       82.9255        5.7975       79.6182       85.4156       2.490117       0.25059



 Wavenumbers: 16000. - 22650. cm-1, ATM      1
 LEVEL PRESSURE   UPWARD FLUX   DIFDOWN FLUX  DIRDOWN FLUX  DOWNWARD FLUX   NET FLUX    HEATING RATE
          mb          W/m2          W/m2          W/m2        W/m2          W/m2       degree/day
  51    .06700      140.4483        0.0000      156.3892      156.3892      15.940980       0.00000
  50    .07753      140.4482        0.0004      156.3887      156.3891      15.940832       0.11798
  49    .09103      140.4482        0.0009      156.3879      156.3888      15.940618       0.13381
  48    0.1069      140.4482        0.0015      156.3871      156.3885      15.940332       0.15259
  47    0.1255      140.4482        0.0021      156.3861      156.3882      15.939948       0.17393
  46    0.1487      140.4483        0.0030      156.3847      156.3877      15.939383       0.20610
  45    0.1794      140.4484        0.0041      156.3828      156.3869      15.938499       0.24267
  44    0.2165      140.4486        0.0054      156.3805      156.3859      15.937300       0.27274
  43    0.2613      140.4490        0.0070      156.3776      156.3846      15.935673       0.30662
  42    0.3336      140.4497        0.0096      156.3726      156.3823      15.932580       0.36058
  41    0.4307      140.4509        0.0131      156.3657      156.3788      15.927918       0.40533
  40    0.5894      140.4535        0.0188      156.3537      156.3725      15.919028       0.47280
  39     1.339      140.4759        0.0458      156.2834      156.3292      15.853341       0.73951
  38     1.782      140.4966        0.0616      156.2324      156.2940      15.797384       1.06533
  37     2.292      140.5276        0.0799      156.1641      156.2440      15.716386       1.34154
  36     2.964      140.5793        0.1040      156.0605      156.1645      15.585168       1.64718
  35     3.853      140.6628        0.1357      155.9041      156.0398      15.376959       1.97595
  34     5.035      140.7889        0.1778      155.6774      155.8552      15.066328       2.21901
  33     6.613      140.9650        0.2340      155.3656      155.5997      14.634646       2.30777
  32     8.786      141.1944        0.3097      154.9577      155.2673      14.072938       2.18147
  31     11.80      141.4929        0.4177      154.4153      154.8330      13.340064       2.05181
  30     15.07      141.7789        0.5336      153.8804      154.4140      12.635077       1.82014
  29     18.79      142.0708        0.6643      153.3191      153.9834      11.912544       1.63821
  28     23.16      142.3758        0.8167      152.7126      153.5292      11.153363       1.46801
  27     28.12      142.6827        0.9907      152.0755      153.0661      10.383442       1.30881
  26     33.73      142.9659        1.1852      151.4409      152.6261       9.660270       1.08731
  25     40.54      143.2382        1.4200      150.7637      152.1837       8.945531       0.88671
  24     48.69      143.4987        1.7028      150.0338      151.7367       8.237944       0.73224
  23     57.69      143.7194        2.0131      149.3151      151.3282       7.608841       0.58969
  22     68.43      143.9115        2.3822      148.5476      150.9298       7.018292       0.46425
  21     81.20      144.0436        2.8217      147.7517      150.5734       6.529780       0.32280
  20     96.49      144.1111        3.3449      146.9127      150.2575       6.146428       0.21158
  19     114.6      144.1452        3.9643      145.9763      149.9405       5.795355       0.16393
  18     136.5      144.1544        4.6956      144.9088      149.6044       5.449995       0.13280
  17     162.9      144.1369        5.5624      143.6785      149.2410       5.104052       0.11058
  16     196.4      144.0530        6.6809      142.1651      148.8459       4.792917       0.07832
  15     218.7      143.9754        7.4117      141.2033      148.6151       4.639643       0.05819
  14     243.0      143.8808        8.2028      140.1753      148.3781       4.497292       0.04937
  13     269.0      143.7675        9.0562      139.0797      148.1358       4.368285       0.04185
  12     297.5      143.6350        9.9739      137.9141      147.8880       4.253010       0.03419
  11     328.5      143.4871       10.9604      136.6676      147.6279       4.140862       0.03049
  10     361.9      143.3236       12.0164      135.3392      147.3556       4.031986       0.02755
   9     398.1      143.1440       13.1461      133.9235      147.0695       3.925511       0.02481
   8     437.6      142.9493       14.3514      132.4163      146.7676       3.818324       0.02292
   7     480.5      142.7390       15.6344      130.8147      146.4491       3.710157       0.02124
   6     533.0      142.4801       17.2015      128.8599      146.0615       3.581395       0.02071
   5     589.8      142.2048       18.8759      126.7679      145.6439       3.439074       0.02113
   4     651.6      141.9192       20.6592      124.5274      145.1866       3.267391       0.02348
   3     718.7      141.6294       22.5531      122.1285      144.6815       3.052166       0.02705
   2     792.3      141.3516       24.5555      119.5548      144.1103       2.758711       0.03366
   1     891.5      141.0554       27.2134      116.0566      143.2700       2.214642       0.04630
   0    1013.0      140.8287       30.3367      111.8404      142.1772       1.348418       0.06015



 Wavenumbers: 22650. - 29000. cm-1, ATM      1
 LEVEL PRESSURE   UPWARD FLUX   DIFDOWN FLUX  DIRDOWN FLUX  DOWNWARD FLUX   NET FLUX    HEATING RATE
          mb          W/m2          W/m2          W/m2        W/m2          W/m2       degree/day
  51    .06700       58.6820        0.0000       59.0156       59.0156       0.333642       0.00000
  50    .07753       58.6819        0.0005       59.0151       59.0155       0.333642       0.00000
  49    .09103       58.6818        0.0010       59.0144       59.0154       0.333642      -0.00000
  48    0.1069       58.6816        0.0017       59.0136       59.0153       0.333642       0.00000
  47    0.1255       58.6815        0.0025       59.0127       59.0151       0.333642      -0.00000
  46    0.1487       58.6813        0.0035       59.0115       59.0149       0.333642       0.00000
  45    0.1794       58.6810        0.0048       59.0099       59.0147       0.333642       0.00000
  44    0.2165       58.6807        0.0063       59.0080       59.0144       0.333642       0.00000
  43    0.2613       58.6804        0.0082       59.0058       59.0140       0.333642       0.00000
  42    0.3336       58.6798        0.0113       59.0022       59.0134       0.333642      -0.00000
  41    0.4307       58.6790        0.0154       58.9973       59.0127       0.333642      -0.00000
  40    0.5894       58.6777        0.0220       58.9894       59.0114       0.333642       0.00000
  39     1.339       58.6717        0.0535       58.9518       59.0053       0.333642       0.00000
  38     1.782       58.6681        0.0720       58.9297       59.0017       0.333642      -0.00000
  37     2.292       58.6640        0.0934       58.9042       58.9976       0.333642       0.00000
  36     2.964       58.6586        0.1216       58.8706       58.9922       0.333642      -0.00000
  35     3.853       58.6514        0.1587       58.8264       58.9851       0.333642       0.00000
  34     5.035       58.6419        0.2080       58.7676       58.9756       0.333642       0.00000
  33     6.613       58.6293        0.2738       58.6891       58.9629       0.333642      -0.00000
  32     8.786       58.6122        0.3624       58.5834       58.9458       0.333642       0.00000
  31     11.80       58.5878        0.4890       58.4324       58.9215       0.333642      -0.00000
  30     15.07       58.5617        0.6247       58.2706       58.8953       0.333642       0.00000
  29     18.79       58.5322        0.7777       58.0882       58.8659       0.333642      -0.00000
  28     23.16       58.4979        0.9559       57.8757       58.8316       0.333642       0.00000
  27     28.12       58.4588        1.1591       57.6333       58.7924       0.333642      -0.00000
  26     33.73       58.4151        1.3857       57.3631       58.7488       0.333642       0.00000
  25     40.54       58.3626        1.6584       57.0379       58.6963       0.333642       0.00000
  24     48.69       58.2996        1.9854       56.6479       58.6333       0.333642      -0.00000
  23     57.69       58.2309        2.3424       56.2221       58.5645       0.333642       0.00000
  22     68.43       58.1495        2.7646       55.7186       58.4832       0.333642      -0.00000
  21     81.20       58.0534        3.2632       55.1239       58.3871       0.333642       0.00000
  20     96.49       57.9401        3.8510       54.4228       58.2738       0.333642      -0.00000
  19     114.6       57.8073        4.5400       53.6010       58.1410       0.333642       0.00000
  18     136.5       57.6522        5.3441       52.6418       57.9859       0.333642       0.00000
  17     162.9       57.4709        6.2842       51.5203       57.8045       0.333642      -0.00000
  16     196.4       57.2410        7.4752       50.0994       57.5747       0.333642      -0.00000
  15     218.7       57.0932        8.2406       49.1863       57.4269       0.333642       0.00000
  14     243.0       56.9354        9.0578       48.2113       57.2691       0.333642      -0.00000
  13     269.0       56.7676        9.9263       47.1749       57.1012       0.333642       0.00000
  12     297.5       56.5899       10.8453       46.0783       56.9236       0.333642      -0.00000
  11     328.5       56.4021       11.8163       44.9195       56.7358       0.333642       0.00000
  10     361.9       56.2047       12.8365       43.7018       56.5384       0.333642       0.00000
   9     398.1       55.9976       13.9062       42.4250       56.3312       0.333642      -0.00000
   8     437.6       55.7812       15.0232       41.0916       56.1148       0.333642       0.00000
   7     480.5       55.5559       16.1850       39.7045       55.8895       0.333642       0.00000
   6     533.0       55.2876       17.5670       38.0543       55.6213       0.333642      -0.00000
   5     589.8       55.0093       18.9998       36.3431       55.3429       0.333642       0.00000
   4     651.6       54.7221       20.4761       34.5795       55.0557       0.333642       0.00000
   3     718.7       54.4270       21.9905       32.7702       54.7607       0.333642      -0.00000
   2     792.3       54.1259       23.5339       30.9256       54.4595       0.333642       0.00000
   1     891.5       53.7419       25.4977       28.5778       54.0755       0.333642      -0.00000
   0    1013.0       53.3137       27.6809       25.9665       53.6473       0.333642       0.00000



 Wavenumbers: 29000. - 38000. cm-1, ATM      1
 LEVEL PRESSURE   UPWARD FLUX   DIFDOWN FLUX  DIRDOWN FLUX  DOWNWARD FLUX   NET FLUX    HEATING RATE
          mb          W/m2          W/m2          W/m2        W/m2          W/m2       degree/day
  51    .06700        8.7676        0.0000       20.8114       20.8114      12.043748       0.00000
  50    .07753        8.7674        0.0003       20.8070       20.8074      12.039940       3.05155
  49    .09103        8.7672        0.0007       20.8009       20.8016      12.034403       3.46085
  48    0.1069        8.7669        0.0012       20.7928       20.7939      12.026993       3.94429
  47    0.1255        8.7667        0.0017       20.7820       20.7837      12.017089       4.49034
  46    0.1487        8.7663        0.0024       20.7665       20.7688      12.002525       5.30844
  45    0.1794        8.7659        0.0033       20.7424       20.7457      11.979861       6.22204
  44    0.2165        8.7653        0.0044       20.7103       20.7147      11.949338       6.94340
  43    0.2613        8.7648        0.0056       20.6675       20.6731      11.908343       7.72732
  42    0.3336        8.7639        0.0077       20.5880       20.5957      11.831782       8.92625
  41    0.4307        8.7628        0.0104       20.4722       20.4826      11.719830       9.73402
  40    0.5894        8.7612        0.0147       20.2637       20.2784      11.517146      10.77846
  39     1.339        8.7578        0.0331       19.0984       19.1315      10.373669      12.87347
  38     1.782        8.7583        0.0427       18.4394       18.4821       9.723745      12.37351
  37     2.292        8.7610        0.0530       17.7714       17.8244       9.063400      10.93703
  36     2.964        8.7676        0.0657       17.0421       17.1078       8.340276       9.07739
  35     3.853        8.7804        0.0816       16.2678       16.3495       7.569097       7.31863
  34     5.035        8.8015        0.1018       15.4803       15.5821       6.780603       5.63267
  33     6.613        8.8323        0.1276       14.7157       14.8433       6.011022       4.11419
  32     8.786        8.8729        0.1614       13.9936       14.1549       5.282075       2.83096
  31     11.80        8.9259        0.2084       13.2835       13.4920       4.566116       2.00446
  30     15.07        8.9770        0.2573       12.7394       12.9966       4.019646       1.41088
  29     18.79        9.0298        0.3114       12.2666       12.5780       3.548203       1.06891
  28     23.16        9.0859        0.3729       11.8300       12.2029       3.117066       0.83368
  27     28.12        9.1433        0.4418       11.4279       11.8697       2.726375       0.66415
  26     33.73        9.1964        0.5178       11.0695       11.5872       2.390870       0.50444
  25     40.54        9.2467        0.6085       10.7209       11.3294       2.082702       0.38232
  24     48.69        9.2942        0.7162       10.3742       11.0904       1.796144       0.29654
  23     57.69        9.3333        0.8328       10.0549       10.8877       1.554380       0.22662
  22     68.43        9.3649        0.9695        9.7327       10.7022       1.337339       0.17062
  21     81.20        9.3801        1.1309        9.4134       10.5443       1.164268       0.11436
  20     96.49        9.3769        1.3207        9.0887       10.4095       1.032519       0.07272
  19     114.6        9.3635        1.5400        8.7388       10.2788       0.915245       0.05476
  18     136.5        9.3429        1.7907        8.3549       10.1456       0.802716       0.04327
  17     162.9        9.3151        2.0765        7.9311       10.0076       0.692536       0.03522
  16     196.4        9.2683        2.4305        7.4333        9.8638       0.595555       0.02441
  15     218.7        9.2345        2.6532        7.1295        9.7828       0.548254       0.01796
  14     243.0        9.1975        2.8860        6.8161        9.7021       0.504576       0.01515
  13     269.0        9.1571        3.1281        6.4943        9.6224       0.465356       0.01272
  12     297.5        9.1133        3.3783        6.1657        9.5440       0.430781       0.01025
  11     328.5        9.0675        3.6358        5.8295        9.4652       0.397679       0.00900
  10     361.9        9.0204        3.8979        5.4886        9.3866       0.366196       0.00797
   9     398.1        8.9718        4.1642        5.1440        9.3082       0.336360       0.00695
   8     437.6        8.9225        4.4332        4.7969        9.2301       0.307597       0.00615
   7     480.5        8.8727        4.7027        4.4504        9.1530       0.280294       0.00536
   6     533.0        8.8157        5.0099        4.0563        9.0662       0.250530       0.00479
   5     589.8        8.7594        5.3129        3.6682        8.9811       0.221711       0.00428
   4     651.6        8.7050        5.6080        3.2905        8.8985       0.193514       0.00386
   3     718.7        8.6528        5.8935        2.9252        8.8187       0.165895       0.00347
   2     792.3        8.6038        6.1662        2.5764        8.7426       0.138860       0.00310
   1     891.5        8.5475        6.4870        2.1659        8.6530       0.105479       0.00284
   0    1013.0        8.4938        6.8098        1.7526        8.5624       0.068614       0.00256



 Wavenumbers: 38000. - 50000. cm-1, ATM      1
 LEVEL PRESSURE   UPWARD FLUX   DIFDOWN FLUX  DIRDOWN FLUX  DOWNWARD FLUX   NET FLUX    HEATING RATE
          mb          W/m2          W/m2          W/m2        W/m2          W/m2       degree/day
  51    .06700        0.0061        0.0000        1.2836        1.2836       1.277518       0.00000
  50    .07753        0.0061        0.0001        1.2812        1.2812       1.275183       1.87150
  49    .09103        0.0060        0.0002        1.2777        1.2778       1.271851       2.08247
  48    0.1069        0.0059        0.0002        1.2731        1.2734       1.267473       2.33059
  47    0.1255        0.0058        0.0004        1.2672        1.2675       1.261717       2.60908
  46    0.1487        0.0057        0.0005        1.2586        1.2591       1.253391       3.03499
  45    0.1794        0.0055        0.0007        1.2455        1.2462       1.240623       3.50520
  44    0.2165        0.0054        0.0009        1.2282        1.2291       1.223697       3.85037
  43    0.2613        0.0052        0.0011        1.2054        1.2065       1.201348       4.21261
  42    0.3336        0.0049        0.0015        1.1639        1.1654       1.160524       4.75970
  41    0.4307        0.0045        0.0020        1.1051        1.1070       1.102565       5.03943
  40    0.5894        0.0039        0.0026        1.0039        1.0064       1.002524       5.32007
  39     1.339        0.0022        0.0035        0.5438        0.5473       0.545104       5.14971
  38     1.782        0.0016        0.0032        0.3635        0.3666       0.365006       3.42879
  37     2.292        0.0012        0.0027        0.2356        0.2383       0.237058       2.11916
  36     2.964        0.0009        0.0022        0.1455        0.1477       0.146786       1.13318
  35     3.853        0.0006        0.0017        0.0858        0.0875       0.086906       0.56828
  34     5.035        0.0004        0.0013        0.0488        0.0501       0.049701       0.26578
  33     6.613        0.0003        0.0010        0.0273        0.0282       0.027974       0.11615
  32     8.786        0.0002        0.0007        0.0144        0.0151       0.014928       0.05067
  31     11.80        0.0001        0.0004        0.0065        0.0070       0.006903       0.02247
  30     15.07        0.0000        0.0003        0.0031        0.0034       0.003329       0.00923
  29     18.79        0.0000        0.0002        0.0014        0.0016       0.001583       0.00396
  28     23.16        0.0000        0.0001        0.0006        0.0007       0.000720       0.00167
  27     28.12        0.0000        0.0001        0.0003        0.0003       0.000317       0.00069
  26     33.73        0.0000        0.0000        0.0001        0.0001       0.000140       0.00027
  25     40.54        0.0000        0.0000        0.0000        0.0001       0.000057       0.00010
  24     48.69        0.0000        0.0000        0.0000        0.0000       0.000021       0.00004
  23     57.69        0.0000        0.0000        0.0000        0.0000       0.000008       0.00001
  22     68.43        0.0000        0.0000        0.0000        0.0000       0.000003       0.00000
  21     81.20        0.0000        0.0000        0.0000        0.0000       0.000001       0.00000
  20     96.49        0.0000        0.0000        0.0000        0.0000       0.000000       0.00000
  19     114.6        0.0000        0.0000        0.0000        0.0000       0.000000       0.00000
  18     136.5        0.0000        0.0000        0.0000        0.0000       0.000000       0.00000
  17     162.9        0.0000        0.0000        0.0000        0.0000       0.000000       0.00000
  16     196.4        0.0000        0.0000        0.0000        0.0000       0.000000       0.00000
  15     218.7        0.0000        0.0000        0.0000        0.0000       0.000000       0.00000
  14     243.0        0.0000        0.0000        0.0000        0.0000       0.000000       0.00000
  13     269.0        0.0000        0.0000        0.0000        0.0000       0.000000       0.00000
  12     297.5        0.0000        0.0000        0.0000        0.0000       0.000000       0.00000
  11     328.5        0.0000        0.0000        0.0000        0.0000       0.000000       0.00000
  10     361.9        0.0000        0.0000        0.0000        0.0000       0.000000       0.00000
   9     398.1        0.0000        0.0000        0.0000        0.0000       0.000000       0.00000
   8     437.6        0.0000        0.0000        0.0000        0.0000       0.000000       0.00000
   7     480.5        0.0000        0.0000        0.0000        0.0000       0.000000       0.00000
   6     533.0        0.0000        0.0000        0.0000        0.0000       0.000000       0.00000
   5     589.8        0.0000        0.0000        0.0000        0.0000       0.000000       0.00000
   4     651.6        0.0000        0.0000        0.0000        0.0000       0.000000       0.00000
   3     718.7        0.0000        0.0000        0.0000        0.0000       0.000000       0.00000
   2     792.3        0.0000        0.0000        0.0000        0.0000       0.000000       0.00000
   1     891.5        0.0000        0.0000        0.0000        0.0000       0.000000       0.00000
   0    1013.0        0.0000        0.0000        0.0000        0.0000       0.000000       0.00000



 Wavenumbers:   820. -  2600. cm-1, ATM      1
 LEVEL PRESSURE   UPWARD FLUX   DIFDOWN FLUX  DIRDOWN FLUX  DOWNWARD FLUX   NET FLUX    HEATING RATE
          mb          W/m2          W/m2          W/m2        W/m2          W/m2       degree/day
  51    .06700        0.0123        0.0000        6.0047        6.0047       5.992397       0.00000
  50    .07753        0.0123        0.0000        6.0008        6.0008       5.988544       3.08819
  49    .09103        0.0123        0.0000        5.9999        5.9999       5.987659       0.55356
  48    0.1069        0.0123        0.0000        5.9989        5.9989       5.986670       0.52650
  47    0.1255        0.0123        0.0000        5.9978        5.9978       5.985553       0.50647
  46    0.1487        0.0123        0.0000        5.9964        5.9964       5.984196       0.49454
  45    0.1794        0.0123        0.0000        5.9947        5.9947       5.982477       0.47197
  44    0.2165        0.0123        0.0000        5.9929        5.9929       5.980634       0.41908
  43    0.2613        0.0123        0.0000        5.9909        5.9909       5.978675       0.36930
  42    0.3336        0.0123        0.0000        5.9880        5.9880       5.975797       0.33553
  41    0.4307        0.0123        0.0000        5.9846        5.9846       5.972328       0.30162
  40    0.5894        0.0123        0.0000        5.9791        5.9791       5.966824       0.29273
  39     1.339        0.0123        0.0000        5.9536        5.9536       5.941339       0.28691
  38     1.782        0.0123        0.0000        5.9395        5.9395       5.927202       0.26914
  37     2.292        0.0123        0.0000        5.9237        5.9237       5.911453       0.26085
  36     2.964        0.0123        0.0000        5.9039        5.9039       5.891681       0.24820
  35     3.853        0.0123        0.0000        5.8793        5.8793       5.867028       0.23396
  34     5.035        0.0123        0.0000        5.8487        5.8487       5.836468       0.21830
  33     6.613        0.0123        0.0000        5.8108        5.8108       5.798508       0.20293
  32     8.786        0.0123        0.0000        5.7631        5.7631       5.750891       0.18493
  31     11.80        0.0123        0.0000        5.7039        5.7039       5.691642       0.16588
  30     15.07        0.0123        0.0000        5.6539        5.6539       5.641612       0.12917
  29     18.79        0.0123        0.0000        5.6127        5.6127       5.600485       0.09325
  28     23.16        0.0123        0.0000        5.5794        5.5794       5.567118       0.06452
  27     28.12        0.0123        0.0000        5.5518        5.5518       5.539561       0.04685
  26     33.73        0.0123        0.0000        5.5268        5.5268       5.514517       0.03765
  25     40.54        0.0122        0.0000        5.4993        5.4993       5.487083       0.03404
  24     48.69        0.0122        0.0000        5.4678        5.4678       5.455550       0.03263
  23     57.69        0.0122        0.0000        5.4340        5.4340       5.421770       0.03166
  22     68.43        0.0122        0.0000        5.3947        5.3948       5.382505       0.03087
  21     81.20        0.0122        0.0000        5.3497        5.3497       5.337481       0.02975
  20     96.49        0.0122        0.0000        5.2982        5.2982       5.285977       0.02843
  19     114.6        0.0122        0.0000        5.2389        5.2389       5.226666       0.02769
  18     136.5        0.0122        0.0000        5.1716        5.1717       5.159422       0.02586
  17     162.9        0.0122        0.0000        5.0890        5.0890       5.076806       0.02641
  16     196.4        0.0122        0.0000        4.9668        4.9668       4.954595       0.03076
  15     218.7        0.0122        0.0000        4.8585        4.8585       4.846234       0.04114
  14     243.0        0.0122        0.0000        4.7078        4.7079       4.695619       0.05224
  13     269.0        0.0122        0.0000        4.5343        4.5343       4.522035       0.05631
  12     297.5        0.0123        0.0000        4.3419        4.3420       4.329712       0.05704
  11     328.5        0.0123        0.0000        4.1281        4.1281       4.115879       0.05814
  10     361.9        0.0123        0.0000        3.8786        3.8787       3.866398       0.06312
   9     398.1        0.0123        0.0000        3.6159        3.6159       3.603652       0.06121
   8     437.6        0.0123        0.0000        3.3759        3.3759       3.363566       0.05133
   7     480.5        0.0124        0.0000        3.1957        3.1958       3.183429       0.03538
   6     533.0        0.0124        0.0000        3.0467        3.0467       3.034297       0.02399
   5     589.8        0.0125        0.0000        2.9023        2.9023       2.889832       0.02144
   4     651.6        0.0126        0.0000        2.7183        2.7184       2.705728       0.02518
   3     718.7        0.0129        0.0000        2.5058        2.5059       2.492970       0.02674
   2     792.3        0.0134        0.0000        2.2756        2.2757       2.262309       0.02645
   1     891.5        0.0146        0.0000        1.9621        1.9621       1.947576       0.02678
   0    1013.0        0.0176        0.0000        1.5468        1.5469       1.529238       0.02905

  Modules and versions used in this calculation:

       rrtmg_sw.1col.f90:  $Revision$                    rrtmg_sw_init.f90:  $Revision$        
     rrtmgsw_cldprop.f90:  $Revision$                  rrtmgsw_cldprmc.f90:  NOT USED          
     rrtmg_sw_reftra.f90:  $Revision$                  rrtmg_sw_spcvrt.f90:  NOT USED          
     rrtmg_sw_spcvmc.f90:  NOT USED                    rrtmgsw_setcoef.f90:  NOT USED          
     rrtmg_sw_taumol.f90:  $Revision$                  rrtmg_sw_vrtqdr.f90:  NOT USED          
                rrtatm.f:  NOT USED                             util_xxx.f:  NOT USED          
                 extra.f:  NOT USED                       rrtmg_sw_k_g.f90:  $Revision$        

