

 Wavenumbers:   820. - 50000. cm-1, ATM      1
 LEVEL PRESSURE   UPWARD FLUX   DIFDOWN FLUX  DIRDOWN FLUX  DOWNWARD FLUX   NET FLUX    HEATING RATE
          mb          W/m2          W/m2          W/m2        W/m2          W/m2       degree/day
  51    .06700      856.8536        0.0000     1360.8491     1360.8491     503.995545       0.00000
  50    .07753      856.8539        0.0019     1360.8273     1360.8291     503.975272      16.24890
  49    .09103      856.8543        0.0042     1360.8078     1360.8120     503.957716      10.97287
  48    0.1069      856.8548        0.0069     1360.7860     1360.7929     503.938108      10.43768
  47    0.1255      856.8555        0.0100     1360.7600     1360.7700     503.914517      10.69511
  46    0.1487      856.8565        0.0139     1360.7249     1360.7388     503.882312      11.73901
  45    0.1794      856.8580        0.0192     1360.6734     1360.6927     503.834659      13.08186
  44    0.2165      856.8601        0.0255     1360.6074     1360.6329     503.772826      14.06591
  43    0.2613      856.8629        0.0330     1360.5219     1360.5549     503.692062      15.22363
  42    0.3336      856.8682        0.0453     1360.3673     1360.4126     503.544456      17.20947
  41    0.4307      856.8761        0.0615     1360.1456     1360.2072     503.331076      18.55292
  40    0.5894      856.8911        0.0879     1359.7482     1359.8361     502.944969      20.53268
  39     1.339      857.0009        0.2091     1357.3733     1357.5825     500.581599      26.60725
  38     1.782      857.0928        0.2781     1355.8375     1356.1156     499.022786      29.67729
  37     2.292      857.2245        0.3569     1354.1208     1354.4777     497.253178      29.30931
  36     2.964      857.4360        0.4593     1352.1205     1352.5799     495.143866      26.47824
  35     3.853      857.7695        0.5940     1349.9734     1350.5675     492.797992      22.26278
  34     5.035      858.2659        0.7724     1347.7761     1348.5485     490.282575      17.96909
  33     6.613      858.9573        1.0099     1345.5290     1346.5389     487.581551      14.43968
  32     8.786      859.8636        1.3294     1343.2079     1344.5373     484.673645      11.29325
  31     11.80      861.0612        1.7856     1340.6494     1342.4350     481.373808       9.23850
  30     15.07      862.2324        2.2747     1338.4304     1340.7051     478.472697       7.49010
  29     18.79      863.4532        2.8261     1336.2864     1339.1125     475.659363       6.37869
  28     23.16      864.7616        3.4694     1334.1057     1337.5751     472.813497       5.50298
  27     28.12      866.1197        4.2044     1331.9136     1336.1180     469.998307       4.78563
  26     33.73      867.4344        5.0274     1329.7853     1334.8128     467.378325       3.93921
  25     40.54      868.7815        6.0223     1327.5375     1333.5597     464.778285       3.22564
  24     48.69      870.1703        7.2219     1325.1261     1332.3481     462.177740       2.69116
  23     57.69      871.4652        8.5399     1322.7388     1331.2787     459.813433       2.21618
  22     68.43      872.7535       10.1100     1320.1544     1330.2643     457.510805       1.81017
  21     81.20      873.9288       11.9830     1317.3916     1329.3747     455.445864       1.36448
  20     96.49      874.9893       14.2163     1314.3811     1328.5974     453.608129       1.01430
  19     114.6      876.0974       16.8634     1310.9471     1327.8104     451.713071       0.88486
  18     136.5      877.2880       19.9881     1306.9977     1326.9859     449.697878       0.77489
  17     162.9      878.5936       23.6914     1302.3518     1326.0433     447.449652       0.71862
  16     196.4      880.0354       28.4724     1296.2678     1324.7401     444.704755       0.69092
  15     218.7      880.8892       31.5950     1291.7724     1323.3674     442.478281       0.84531
  14     243.0      881.7762       34.9733     1286.1481     1321.1214     439.345194       1.08666
  13     269.0      882.6969       38.6161     1279.0245     1317.6406     434.943727       1.42782
  12     297.5      883.6584       42.5314     1270.1087     1312.6401     428.981679       1.76828
  11     328.5      884.6891       46.7367     1260.1713     1306.9080     422.218821       1.83880
  10     361.9      885.7975       51.2351     1249.4297     1300.6648     414.867329       1.86000
   9     398.1      887.0005       56.0431     1237.6382     1293.6813     406.680794       1.90728
   8     437.6      888.3270       61.1679     1224.3920     1285.5598     397.232858       2.02003
   7     480.5      889.8033       66.6182     1209.7358     1276.3540     386.550763       2.09792
   6     533.0      891.7404       73.2683     1191.2571     1264.5255     372.785113       2.21446
   5     589.8      894.0725       80.3640     1170.7333     1251.0973     357.024832       2.33934
   4     651.6      897.1141       87.9093     1147.0297     1234.9390     337.824910       2.62564
   3     718.7      901.2349       95.9093     1120.8952     1216.8045     315.569633       2.79687
   2     792.3      907.3126      104.3514     1092.1619     1196.5133     289.200656       3.02423
   1     891.5      920.1974      115.5416     1053.3991     1168.9406     248.743226       3.44273
   0    1013.0      950.6093      128.6799     1008.4859     1137.1658     186.556554       4.31794



 Wavenumbers:  2600. -  3250. cm-1, ATM      1
 LEVEL PRESSURE   UPWARD FLUX   DIFDOWN FLUX  DIRDOWN FLUX  DOWNWARD FLUX   NET FLUX    HEATING RATE
          mb          W/m2          W/m2          W/m2        W/m2          W/m2       degree/day
  51    .06700        2.6140        0.0000       11.9937       11.9937       9.379692       0.00000
  50    .07753        2.6140        0.0000       11.9937       11.9937       9.379684       0.00640
  49    .09103        2.6140        0.0000       11.9937       11.9937       9.379674       0.00627
  48    0.1069        2.6140        0.0000       11.9937       11.9937       9.379662       0.00613
  47    0.1255        2.6140        0.0000       11.9937       11.9937       9.379649       0.00600
  46    0.1487        2.6140        0.0000       11.9937       11.9937       9.379633       0.00608
  45    0.1794        2.6140        0.0000       11.9936       11.9936       9.379610       0.00625
  44    0.2165        2.6140        0.0000       11.9936       11.9936       9.379583       0.00613
  43    0.2613        2.6140        0.0000       11.9936       11.9936       9.379551       0.00601
  42    0.3336        2.6140        0.0000       11.9935       11.9935       9.379498       0.00619
  41    0.4307        2.6140        0.0000       11.9935       11.9935       9.379426       0.00622
  40    0.5894        2.6140        0.0000       11.9933       11.9933       9.379306       0.00640
  39     1.339        2.6140        0.0000       11.9926       11.9926       9.378590       0.00806
  38     1.782        2.6140        0.0000       11.9921       11.9921       9.378034       0.01057
  37     2.292        2.6140        0.0000       11.9913       11.9913       9.377294       0.01226
  36     2.964        2.6140        0.0000       11.9902       11.9902       9.376204       0.01368
  35     3.853        2.6140        0.0000       11.9886       11.9886       9.374620       0.01504
  34     5.035        2.6140        0.0000       11.9864       11.9864       9.372346       0.01624
  33     6.613        2.6140        0.0000       11.9832       11.9832       9.369130       0.01719
  32     8.786        2.6140        0.0000       11.9787       11.9787       9.364645       0.01742
  31     11.80        2.6140        0.0000       11.9722       11.9722       9.358171       0.01812
  30     15.07        2.6140        0.0000       11.9654       11.9654       9.351361       0.01758
  29     18.79        2.6140        0.0000       11.9581       11.9581       9.344070       0.01653
  28     23.16        2.6140        0.0000       11.9502       11.9502       9.336143       0.01533
  27     28.12        2.6140        0.0000       11.9418       11.9418       9.327800       0.01418
  26     33.73        2.6141        0.0000       11.9329       11.9329       9.318827       0.01349
  25     40.54        2.6141        0.0000       11.9222       11.9222       9.308114       0.01329
  24     48.69        2.6141        0.0000       11.9093       11.9094       9.295252       0.01331
  23     57.69        2.6141        0.0000       11.8949       11.8950       9.280826       0.01352
  22     68.43        2.6142        0.0000       11.8770       11.8771       9.262866       0.01412
  21     81.20        2.6143        0.0000       11.8544       11.8544       9.240121       0.01503
  20     96.49        2.6144        0.0000       11.8256       11.8257       9.211268       0.01592
  19     114.6        2.6146        0.0001       11.7886       11.7887       9.174107       0.01735
  18     136.5        2.6148        0.0001       11.7429       11.7430       9.128204       0.01765
  17     162.9        2.6151        0.0001       11.6869       11.6870       9.071870       0.01801
  16     196.4        2.6157        0.0001       11.6129       11.6130       8.997268       0.01878
  15     218.7        2.6163        0.0001       11.5605       11.5606       8.944265       0.02012
  14     243.0        2.6173        0.0001       11.4957       11.4958       8.878456       0.02282
  13     269.0        2.6189        0.0001       11.4130       11.4131       8.794256       0.02731
  12     297.5        2.6212        0.0001       11.3101       11.3103       8.689040       0.03121
  11     328.5        2.6245        0.0002       11.1933       11.1934       8.568931       0.03266
  10     361.9        2.6289        0.0002       11.0632       11.0633       8.434440       0.03403
   9     398.1        2.6349        0.0002       10.9149       10.9151       8.280153       0.03595
   8     437.6        2.6432        0.0002       10.7385       10.7387       8.095520       0.03948
   7     480.5        2.6545        0.0002       10.5233       10.5235       7.868995       0.04449
   6     533.0        2.6725        0.0002       10.2141       10.2143       7.541793       0.05264
   5     589.8        2.6994        0.0002        9.8147        9.8149       7.115503       0.06328
   4     651.6        2.7425        0.0002        9.2987        9.2990       6.556500       0.07645
   3     718.7        2.8104        0.0003        8.7065        8.7068       5.896371       0.08296
   2     792.3        2.9247        0.0003        8.0516        8.0519       5.127133       0.08822
   1     891.5        3.2002        0.0003        7.1628        7.1631       3.962837       0.09908
   0    1013.0        3.9835        0.0003        6.1112        6.1114       2.127968       0.12740



 Wavenumbers:  3250. -  4000. cm-1, ATM      1
 LEVEL PRESSURE   UPWARD FLUX   DIFDOWN FLUX  DIRDOWN FLUX  DOWNWARD FLUX   NET FLUX    HEATING RATE
          mb          W/m2          W/m2          W/m2        W/m2          W/m2       degree/day
  51    .06700        0.0027        0.0000       20.2197       20.2197      20.216924       0.00000
  50    .07753        0.0027        0.0000       20.2140       20.2140      20.211255       4.54406
  49    .09103        0.0027        0.0000       20.2088       20.2088      20.206024       3.26932
  48    0.1069        0.0027        0.0000       20.2043       20.2043      20.201600       2.35506
  47    0.1255        0.0027        0.0000       20.2005       20.2005      20.197720       1.75884
  46    0.1487        0.0027        0.0000       20.1965       20.1965      20.193798       1.42967
  45    0.1794        0.0027        0.0000       20.1921       20.1921      20.189355       1.21962
  44    0.2165        0.0027        0.0000       20.1875       20.1875      20.184789       1.03878
  43    0.2613        0.0027        0.0000       20.1827       20.1827      20.179949       0.91222
  42    0.3336        0.0027        0.0000       20.1757       20.1757      20.172927       0.81870
  41    0.4307        0.0027        0.0000       20.1678       20.1678      20.165033       0.68638
  40    0.5894        0.0027        0.0000       20.1571       20.1571      20.154339       0.56870
  39     1.339        0.0027        0.0000       20.1195       20.1195      20.116806       0.42255
  38     1.782        0.0027        0.0000       20.1017       20.1017      20.098975       0.33948
  37     2.292        0.0027        0.0000       20.0837       20.0837      20.080948       0.29857
  36     2.964        0.0027        0.0000       20.0629       20.0629      20.060198       0.26048
  35     3.853        0.0027        0.0000       20.0387       20.0387      20.035998       0.22966
  34     5.035        0.0027        0.0000       20.0099       20.0099      20.007156       0.20604
  33     6.613        0.0027        0.0000       19.9743       19.9743      19.971606       0.19005
  32     8.786        0.0027        0.0000       19.9279       19.9279      19.925203       0.18021
  31     11.80        0.0027        0.0000       19.8609       19.8609      19.858165       0.18768
  30     15.07        0.0027        0.0000       19.7861       19.7861      19.783372       0.19310
  29     18.79        0.0027        0.0000       19.6981       19.6981      19.695445       0.19936
  28     23.16        0.0027        0.0000       19.5924       19.5924      19.589724       0.20443
  27     28.12        0.0027        0.0000       19.4692       19.4692      19.466512       0.20945
  26     33.73        0.0027        0.0000       19.3318       19.3319      19.329187       0.20647
  25     40.54        0.0027        0.0001       19.1703       19.1704      19.167709       0.20033
  24     48.69        0.0027        0.0001       18.9874       18.9875      18.984820       0.18926
  23     57.69        0.0027        0.0001       18.8032       18.8032      18.800596       0.17268
  22     68.43        0.0026        0.0001       18.6047       18.6048      18.602188       0.15598
  21     81.20        0.0026        0.0001       18.3903       18.3904      18.387823       0.14165
  20     96.49        0.0026        0.0001       18.1531       18.1532      18.150581       0.13094
  19     114.6        0.0026        0.0001       17.8720       17.8722      17.869585       0.13121
  18     136.5        0.0026        0.0002       17.5464       17.5465      17.543983       0.12520
  17     162.9        0.0025        0.0002       17.1484       17.1486      17.146101       0.12718
  16     196.4        0.0025        0.0002       16.5656       16.5658      16.563335       0.14669
  15     218.7        0.0025        0.0002       16.0235       16.0238      16.021314       0.20579
  14     243.0        0.0024        0.0003       15.2654       15.2657      15.263217       0.26293
  13     269.0        0.0024        0.0003       14.2510       14.2513      14.248836       0.32906
  12     297.5        0.0024        0.0003       13.0349       13.0352      13.032749       0.36068
  11     328.5        0.0024        0.0003       11.8274       11.8277      11.825270       0.32831
  10     361.9        0.0024        0.0002       10.6546       10.6548      10.652415       0.29674
   9     398.1        0.0024        0.0002        9.4801        9.4803       9.477914       0.27363
   8     437.6        0.0024        0.0002        8.3186        8.3188       8.316406       0.24834
   7     480.5        0.0025        0.0002        7.2534        7.2537       7.251198       0.20920
   6     533.0        0.0026        0.0002        6.1288        6.1290       6.126429       0.18094
   5     589.8        0.0028        0.0002        5.0588        5.0590       5.056229       0.15885
   4     651.6        0.0032        0.0001        3.9729        3.9731       3.969850       0.14857
   3     718.7        0.0042        0.0001        2.9378        2.9379       2.933642       0.13022
   2     792.3        0.0069        0.0001        1.9615        1.9616       1.954729       0.11227
   1     891.5        0.0211        0.0000        0.9920        0.9920       0.970929       0.08372
   0    1013.0        0.2031        0.0000        0.3116        0.3117       0.108517       0.05988



 Wavenumbers:  4000. -  4650. cm-1, ATM      1
 LEVEL PRESSURE   UPWARD FLUX   DIFDOWN FLUX  DIRDOWN FLUX  DOWNWARD FLUX   NET FLUX    HEATING RATE
          mb          W/m2          W/m2          W/m2        W/m2          W/m2       degree/day
  51    .06700        9.5880        0.0000       23.7440       23.7440      14.155987       0.00000
  50    .07753        9.5880        0.0000       23.7440       23.7440      14.155986       0.00080
  49    .09103        9.5880        0.0000       23.7440       23.7440      14.155985       0.00078
  48    0.1069        9.5880        0.0000       23.7440       23.7440      14.155984       0.00076
  47    0.1255        9.5880        0.0000       23.7440       23.7440      14.155982       0.00075
  46    0.1487        9.5880        0.0000       23.7440       23.7440      14.155980       0.00076
  45    0.1794        9.5880        0.0000       23.7440       23.7440      14.155977       0.00078
  44    0.2165        9.5880        0.0000       23.7440       23.7440      14.155974       0.00076
  43    0.2613        9.5880        0.0000       23.7440       23.7440      14.155970       0.00075
  42    0.3336        9.5880        0.0000       23.7440       23.7440      14.155963       0.00077
  41    0.4307        9.5880        0.0000       23.7439       23.7439      14.155954       0.00077
  40    0.5894        9.5880        0.0000       23.7439       23.7439      14.155939       0.00080
  39     1.339        9.5880        0.0000       23.7438       23.7438      14.155850       0.00101
  38     1.782        9.5880        0.0000       23.7438       23.7438      14.155780       0.00133
  37     2.292        9.5880        0.0000       23.7437       23.7437      14.155686       0.00156
  36     2.964        9.5880        0.0000       23.7435       23.7435      14.155545       0.00176
  35     3.853        9.5880        0.0000       23.7433       23.7433      14.155337       0.00198
  34     5.035        9.5880        0.0000       23.7430       23.7430      14.155029       0.00220
  33     6.613        9.5880        0.0000       23.7425       23.7426      14.154576       0.00242
  32     8.786        9.5880        0.0000       23.7418       23.7419      14.153905       0.00260
  31     11.80        9.5880        0.0001       23.7408       23.7408      14.152849       0.00296
  30     15.07        9.5880        0.0001       23.7395       23.7396      14.151606       0.00321
  29     18.79        9.5880        0.0001       23.7380       23.7381      14.150097       0.00342
  28     23.16        9.5880        0.0001       23.7361       23.7362      14.148215       0.00364
  27     28.12        9.5880        0.0002       23.7338       23.7339      14.145927       0.00389
  26     33.73        9.5880        0.0002       23.7309       23.7311      14.143090       0.00427
  25     40.54        9.5881        0.0002       23.7271       23.7273      14.139217       0.00480
  24     48.69        9.5881        0.0003       23.7219       23.7222      14.134016       0.00538
  23     57.69        9.5882        0.0003       23.7157       23.7160      14.127796       0.00583
  22     68.43        9.5884        0.0004       23.7079       23.7083      14.119935       0.00618
  21     81.20        9.5886        0.0005       23.6983       23.6988      14.110152       0.00646
  20     96.49        9.5889        0.0005       23.6865       23.6870      14.098128       0.00664
  19     114.6        9.5894        0.0006       23.6717       23.6723      14.082932       0.00710
  18     136.5        9.5901        0.0008       23.6537       23.6545      14.064421       0.00712
  17     162.9        9.5911        0.0009       23.6317       23.6326      14.041484       0.00733
  16     196.4        9.5929        0.0011       23.6012       23.6023      14.009414       0.00807
  15     218.7        9.5945        0.0012       23.5777       23.5789      13.984404       0.00950
  14     243.0        9.5969        0.0014       23.5456       23.5469      13.950027       0.01192
  13     269.0        9.6006        0.0015       23.4995       23.5010      13.900425       0.01609
  12     297.5        9.6059        0.0017       23.4351       23.4367      13.830819       0.02064
  11     328.5        9.6133        0.0018       23.3555       23.3573      13.744005       0.02360
  10     361.9        9.6230        0.0020       23.2571       23.2591      13.636126       0.02729
   9     398.1        9.6351        0.0022       23.1295       23.1317      13.496678       0.03249
   8     437.6        9.6502        0.0024       22.9586       22.9610      13.310822       0.03974
   7     480.5        9.6691        0.0026       22.7369       22.7395      13.070400       0.04722
   6     533.0        9.6975        0.0028       22.4191       22.4219      12.724361       0.05567
   5     589.8        9.7373        0.0031       22.0335       22.0367      12.299338       0.06309
   4     651.6        9.7984        0.0034       21.5654       21.5688      11.770378       0.07234
   3     718.7        9.8946        0.0036       21.0164       21.0200      11.125480       0.08105
   2     792.3       10.0559        0.0039       20.2979       20.3018      10.245873       0.10088
   1     891.5       10.4405        0.0042       19.1088       19.1129       8.672387       0.13390
   0    1013.0       11.4995        0.0044       17.6373       17.6417       6.142209       0.17568



 Wavenumbers:  4650. -  5150. cm-1, ATM      1
 LEVEL PRESSURE   UPWARD FLUX   DIFDOWN FLUX  DIRDOWN FLUX  DOWNWARD FLUX   NET FLUX    HEATING RATE
          mb          W/m2          W/m2          W/m2        W/m2          W/m2       degree/day
  51    .06700        6.9671        0.0000       22.4748       22.4748      15.507677       0.00000
  50    .07753        6.9671        0.0000       22.4746       22.4746      15.507441       0.18925
  49    .09103        6.9671        0.0000       22.4743       22.4743      15.507145       0.18504
  48    0.1069        6.9671        0.0000       22.4739       22.4739      15.506806       0.18064
  47    0.1255        6.9671        0.0000       22.4735       22.4735      15.506417       0.17622
  46    0.1487        6.9671        0.0000       22.4730       22.4730      15.505929       0.17814
  45    0.1794        6.9671        0.0000       22.4724       22.4724      15.505264       0.18241
  44    0.2165        6.9671        0.0000       22.4716       22.4716      15.504482       0.17785
  43    0.2613        6.9671        0.0000       22.4707       22.4707      15.503563       0.17328
  42    0.3336        6.9671        0.0000       22.4692       22.4692      15.502057       0.17553
  41    0.4307        6.9671        0.0000       22.4672       22.4672      15.500089       0.17112
  40    0.5894        6.9671        0.0000       22.4641       22.4641      15.496943       0.16732
  39     1.339        6.9671        0.0000       22.4502       22.4502      15.483109       0.15574
  38     1.782        6.9671        0.0000       22.4428       22.4428      15.475737       0.14036
  37     2.292        6.9671        0.0000       22.4349       22.4350      15.467849       0.13064
  36     2.964        6.9671        0.0000       22.4255       22.4255      15.458418       0.11839
  35     3.853        6.9671        0.0000       22.4145       22.4145      15.447399       0.10457
  34     5.035        6.9671        0.0000       22.4019       22.4020      15.434843       0.08969
  33     6.613        6.9671        0.0001       22.3880       22.3881      15.420974       0.07415
  32     8.786        6.9671        0.0001       22.3731       22.3731      15.406003       0.05814
  31     11.80        6.9672        0.0001       22.3562       22.3563      15.389171       0.04712
  30     15.07        6.9672        0.0001       22.3413       22.3414      15.374206       0.03864
  29     18.79        6.9673        0.0002       22.3259       22.3260      15.358785       0.03497
  28     23.16        6.9673        0.0002       22.3082       22.3083      15.341000       0.03439
  27     28.12        6.9674        0.0002       22.2870       22.2872      15.319779       0.03608
  26     33.73        6.9676        0.0003       22.2617       22.2619      15.294332       0.03826
  25     40.54        6.9678        0.0003       22.2285       22.2288      15.260996       0.04136
  24     48.69        6.9681        0.0004       22.1852       22.1856      15.217429       0.04509
  23     57.69        6.9685        0.0005       22.1340       22.1345      15.165969       0.04824
  22     68.43        6.9691        0.0005       22.0694       22.0700      15.100853       0.05119
  21     81.20        6.9699        0.0006       21.9886       21.9893      15.019379       0.05384
  20     96.49        6.9710        0.0008       21.8895       21.8903      14.919291       0.05524
  19     114.6        6.9725        0.0009       21.7708       21.7717      14.799254       0.05605
  18     136.5        6.9745        0.0011       21.6320       21.6331      14.658543       0.05411
  17     162.9        6.9774        0.0013       21.4726       21.4738      14.496392       0.05183
  16     196.4        6.9818        0.0015       21.2786       21.2801      14.298251       0.04987
  15     218.7        6.9853        0.0017       21.1582       21.1599      14.174554       0.04696
  14     243.0        6.9899        0.0018       21.0313       21.0331      14.043241       0.04554
  13     269.0        6.9960        0.0020       20.8948       20.8968      13.900789       0.04621
  12     297.5        7.0046        0.0022       20.7434       20.7456      13.741016       0.04739
  11     328.5        7.0158        0.0024       20.5767       20.5791      13.563253       0.04833
  10     361.9        7.0303        0.0027       20.3907       20.3934      13.363079       0.05065
   9     398.1        7.0491        0.0029       20.1791       20.1820      13.132859       0.05364
   8     437.6        7.0735        0.0032       19.9341       19.9373      12.863771       0.05753
   7     480.5        7.1052        0.0034       19.6480       19.6514      12.546281       0.06235
   6     533.0        7.1532        0.0037       19.2600       19.2637      12.110515       0.07010
   5     589.8        7.2196        0.0040       18.7890       18.7930      11.573450       0.07972
   4     651.6        7.3169        0.0043       18.1977       18.2020      10.885142       0.09413
   3     718.7        7.4617        0.0046       17.4829       17.4874      10.025769       0.10800
   2     792.3        7.6852        0.0049       16.6464       16.6513       8.966071       0.12154
   1     891.5        8.1675        0.0052       15.4816       15.4868       7.319284       0.14013
   0    1013.0        9.2506        0.0055       14.1857       14.1912       4.940599       0.16516



 Wavenumbers:  5150. -  6150. cm-1, ATM      1
 LEVEL PRESSURE   UPWARD FLUX   DIFDOWN FLUX  DIRDOWN FLUX  DOWNWARD FLUX   NET FLUX    HEATING RATE
          mb          W/m2          W/m2          W/m2        W/m2          W/m2       degree/day
  51    .06700       16.6746        0.0000       56.3444       56.3444      39.669770       0.00000
  50    .07753       16.6746        0.0000       56.3444       56.3444      39.669731       0.03164
  49    .09103       16.6746        0.0000       56.3443       56.3443      39.669680       0.03213
  48    0.1069       16.6746        0.0000       56.3442       56.3442      39.669618       0.03264
  47    0.1255       16.6746        0.0000       56.3442       56.3442      39.669545       0.03314
  46    0.1487       16.6746        0.0000       56.3441       56.3441      39.669449       0.03492
  45    0.1794       16.6746        0.0000       56.3439       56.3439      39.669314       0.03718
  44    0.2165       16.6746        0.0000       56.3438       56.3438      39.669148       0.03775
  43    0.2613       16.6746        0.0000       56.3436       56.3436      39.668945       0.03834
  42    0.3336       16.6746        0.0000       56.3432       56.3432      39.668597       0.04053
  41    0.4307       16.6746        0.0000       56.3427       56.3427      39.668124       0.04111
  40    0.5894       16.6746        0.0000       56.3419       56.3420      39.667331       0.04218
  39     1.339       16.6746        0.0000       56.3381       56.3381      39.663491       0.04323
  38     1.782       16.6746        0.0001       56.3358       56.3359      39.661241       0.04284
  37     2.292       16.6746        0.0001       56.3332       56.3333      39.658682       0.04239
  36     2.964       16.6746        0.0001       56.3299       56.3300      39.655410       0.04107
  35     3.853       16.6746        0.0001       56.3257       56.3259      39.651220       0.03977
  34     5.035       16.6747        0.0002       56.3203       56.3204      39.645769       0.03893
  33     6.613       16.6747        0.0002       56.3131       56.3133      39.638608       0.03828
  32     8.786       16.6747        0.0003       56.3036       56.3039      39.629172       0.03665
  31     11.80       16.6748        0.0004       56.2905       56.2909      39.616122       0.03654
  30     15.07       16.6749        0.0005       56.2770       56.2776      39.602690       0.03468
  29     18.79       16.6750        0.0007       56.2626       56.2633      39.588265       0.03271
  28     23.16       16.6751        0.0008       56.2466       56.2474      39.572264       0.03094
  27     28.12       16.6753        0.0010       56.2292       56.2302      39.554898       0.02952
  26     33.73       16.6755        0.0012       56.2110       56.2122      39.536699       0.02736
  25     40.54       16.6759        0.0014       56.1906       56.1921      39.516201       0.02543
  24     48.69       16.6763        0.0017       56.1681       56.1699      39.493546       0.02345
  23     57.69       16.6769        0.0021       56.1451       56.1472      39.470349       0.02174
  22     68.43       16.6776        0.0024       56.1195       56.1220      39.444433       0.02037
  21     81.20       16.6784        0.0029       56.0907       56.0936      39.415115       0.01937
  20     96.49       16.6795        0.0034       56.0573       56.0607      39.381208       0.01871
  19     114.6       16.6809        0.0041       56.0182       56.0223      39.341444       0.01857
  18     136.5       16.6825        0.0049       55.9719       55.9767      39.294185       0.01817
  17     162.9       16.6846        0.0058       55.9013       55.9070      39.222419       0.02294
  16     196.4       16.6874        0.0069       55.7479       55.7548      39.067432       0.03901
  15     218.7       16.6894        0.0077       55.5243       55.5320      38.842647       0.08534
  14     243.0       16.6917        0.0085       55.1190       55.1275      38.435777       0.14112
  13     269.0       16.6946        0.0093       54.3924       54.4017      37.707068       0.23639
  12     297.5       16.6983        0.0101       53.2527       53.2628      36.564517       0.33887
  11     328.5       16.7029        0.0109       51.9857       51.9966      35.293724       0.34553
  10     361.9       16.7087        0.0118       50.6721       50.6838      33.975157       0.33361
   9     398.1       16.7160        0.0126       49.1893       49.2019      32.485893       0.34697
   8     437.6       16.7256        0.0134       47.4187       47.4321      30.706506       0.38044
   7     480.5       16.7383        0.0143       45.4500       45.4642      28.725977       0.38897
   6     533.0       16.7585        0.0152       43.0596       43.0748      26.316301       0.38764
   5     589.8       16.7896        0.0162       40.5463       40.5625      23.772872       0.37753
   4     651.6       16.8433        0.0172       37.8928       37.9100      21.066699       0.37008
   3     718.7       16.9370        0.0183       35.4719       35.4902      18.553223       0.31587
   2     792.3       17.1117        0.0195       33.4066       33.4261      16.314438       0.25676
   1     891.5       17.5857        0.0211       31.3475       31.3686      13.782936       0.21542
   0    1013.0       19.1039        0.0228       29.2817       29.3045      10.200574       0.24874



 Wavenumbers:  6150. -  7700. cm-1, ATM      1
 LEVEL PRESSURE   UPWARD FLUX   DIFDOWN FLUX  DIRDOWN FLUX  DOWNWARD FLUX   NET FLUX    HEATING RATE
          mb          W/m2          W/m2          W/m2        W/m2          W/m2       degree/day
  51    .06700       25.2567        0.0000      104.2111      104.2111      78.954426       0.00000
  50    .07753       25.2567        0.0000      104.2111      104.2111      78.954369       0.04554
  49    .09103       25.2567        0.0000      104.2110      104.2110      78.954296       0.04583
  48    0.1069       25.2567        0.0000      104.2109      104.2109      78.954209       0.04615
  47    0.1255       25.2567        0.0000      104.2108      104.2108      78.954107       0.04646
  46    0.1487       25.2567        0.0000      104.2107      104.2107      78.953973       0.04854
  45    0.1794       25.2567        0.0000      104.2105      104.2105      78.953787       0.05129
  44    0.2165       25.2567        0.0000      104.2102      104.2102      78.953559       0.05171
  43    0.2613       25.2567        0.0000      104.2099      104.2100      78.953283       0.05215
  42    0.3336       25.2567        0.0000      104.2095      104.2095      78.952813       0.05478
  41    0.4307       25.2567        0.0001      104.2088      104.2088      78.952177       0.05531
  40    0.5894       25.2567        0.0001      104.2077      104.2078      78.951115       0.05648
  39     1.339       25.2566        0.0002      104.2024      104.2026      78.945995       0.05764
  38     1.782       25.2566        0.0002      104.1993      104.1996      78.942997       0.05707
  37     2.292       25.2565        0.0003      104.1958      104.1961      78.939580       0.05659
  36     2.964       25.2565        0.0004      104.1913      104.1917      78.935194       0.05506
  35     3.853       25.2564        0.0005      104.1854      104.1860      78.929546       0.05360
  34     5.035       25.2564        0.0007      104.1778      104.1785      78.922174       0.05266
  33     6.613       25.2563        0.0009      104.1678      104.1687      78.912461       0.05193
  32     8.786       25.2561        0.0012      104.1545      104.1557      78.899604       0.04993
  31     11.80       25.2559        0.0017      104.1359      104.1376      78.881688       0.05016
  30     15.07       25.2557        0.0022      104.1166      104.1188      78.863065       0.04808
  29     18.79       25.2555        0.0027      104.0956      104.0983      78.842821       0.04590
  28     23.16       25.2552        0.0033      104.0720      104.0753      78.820073       0.04399
  27     28.12       25.2549        0.0040      104.0459      104.0499      78.795050       0.04254
  26     33.73       25.2545        0.0048      104.0181      104.0229      78.768434       0.04002
  25     40.54       25.2541        0.0058      103.9863      103.9921      78.738019       0.03773
  24     48.69       25.2535        0.0069      103.9504      103.9573      78.703794       0.03542
  23     57.69       25.2530        0.0082      103.9130      103.9212      78.668252       0.03332
  22     68.43       25.2523        0.0097      103.8705      103.8803      78.628007       0.03164
  21     81.20       25.2515        0.0116      103.8219      103.8334      78.581960       0.03043
  20     96.49       25.2505        0.0137      103.7651      103.7788      78.528356       0.02959
  19     114.6       25.2493        0.0163      103.6981      103.7144      78.465095       0.02954
  18     136.5       25.2480        0.0194      103.6182      103.6375      78.389546       0.02905
  17     162.9       25.2464        0.0230      103.5018      103.5248      78.278373       0.03554
  16     196.4       25.2445        0.0277      103.2601      103.2878      78.043286       0.05917
  15     218.7       25.2434        0.0307      102.9097      102.9404      77.697049       0.13145
  14     243.0       25.2425        0.0339      102.2732      102.3072      77.064634       0.21934
  13     269.0       25.2422        0.0372      101.2641      101.3013      76.059069       0.32620
  12     297.5       25.2432        0.0404       99.6695       99.7100      74.466813       0.47225
  11     328.5       25.2456        0.0438       97.6082       97.6520      72.406402       0.56022
  10     361.9       25.2504        0.0472       95.2483       95.2955      70.045089       0.59744
   9     398.1       25.2587        0.0507       92.6564       92.7070      67.448332       0.60499
   8     437.6       25.2727        0.0540       89.7047       89.7587      64.486010       0.63336
   7     480.5       25.2947        0.0573       86.3265       86.3838      61.089040       0.66715
   6     533.0       25.3358        0.0609       81.9787       82.0396      56.703842       0.70544
   5     589.8       25.4064        0.0643       77.1953       77.2596      51.853170       0.72000
   4     651.6       25.5392        0.0674       71.7796       71.8470      46.307826       0.75834
   3     718.7       25.7799        0.0702       66.2294       66.2996      40.519696       0.72741
   2     792.3       26.2347        0.0728       60.7106       60.7834      34.548708       0.68481
   1     891.5       27.4510        0.0758       54.2338       54.3096      26.858594       0.65439
   0    1013.0       31.3482        0.0793       47.9982       48.0775      16.729315       0.70333



 Wavenumbers:  7700. -  8050. cm-1, ATM      1
 LEVEL PRESSURE   UPWARD FLUX   DIFDOWN FLUX  DIRDOWN FLUX  DOWNWARD FLUX   NET FLUX    HEATING RATE
          mb          W/m2          W/m2          W/m2        W/m2          W/m2       degree/day
  51    .06700       13.3576        0.0000       24.6282       24.6282      11.270603       0.00000
  50    .07753       13.3576        0.0000       24.6282       24.6282      11.270576       0.02188
  49    .09103       13.3576        0.0000       24.6281       24.6281      11.270541       0.02144
  48    0.1069       13.3576        0.0000       24.6281       24.6281      11.270502       0.02099
  47    0.1255       13.3576        0.0000       24.6281       24.6281      11.270457       0.02054
  46    0.1487       13.3577        0.0000       24.6280       24.6281      11.270400       0.02085
  45    0.1794       13.3577        0.0000       24.6280       24.6280      11.270321       0.02145
  44    0.2165       13.3577        0.0000       24.6279       24.6279      11.270229       0.02104
  43    0.2613       13.3578        0.0000       24.6279       24.6279      11.270119       0.02065
  42    0.3336       13.3578        0.0000       24.6277       24.6278      11.269938       0.02113
  41    0.4307       13.3579        0.0000       24.6276       24.6276      11.269698       0.02090
  40    0.5894       13.3580        0.0000       24.6273       24.6273      11.269305       0.02088
  39     1.339       13.3587        0.0001       24.6260       24.6261      11.267447       0.02092
  38     1.782       13.3591        0.0001       24.6253       24.6254      11.266355       0.02079
  37     2.292       13.3595        0.0002       24.6244       24.6246      11.265091       0.02094
  36     2.964       13.3601        0.0002       24.6233       24.6235      11.263431       0.02084
  35     3.853       13.3608        0.0003       24.6218       24.6221      11.261237       0.02082
  34     5.035       13.3619        0.0004       24.6198       24.6202      11.258321       0.02083
  33     6.613       13.3632        0.0005       24.6172       24.6176      11.254423       0.02084
  32     8.786       13.3651        0.0006       24.6136       24.6142      11.249167       0.02041
  31     11.80       13.3677        0.0009       24.6085       24.6093      11.241642       0.02107
  30     15.07       13.3705        0.0011       24.6030       24.6041      11.233555       0.02088
  29     18.79       13.3737        0.0014       24.5968       24.5981      11.224411       0.02073
  28     23.16       13.3775        0.0017       24.5895       24.5912      11.213721       0.02067
  27     28.12       13.3818        0.0021       24.5812       24.5833      11.201485       0.02080
  26     33.73       13.3867        0.0025       24.5720       24.5745      11.187780       0.02061
  25     40.54       13.3926        0.0030       24.5608       24.5638      11.171205       0.02056
  24     48.69       13.3997        0.0036       24.5473       24.5509      11.151201       0.02070
  23     57.69       13.4076        0.0042       24.5326       24.5368      11.129205       0.02062
  22     68.43       13.4170        0.0050       24.5150       24.5200      11.102979       0.02062
  21     81.20       13.4284        0.0059       24.4941       24.5001      11.071698       0.02067
  20     96.49       13.4420        0.0071       24.4694       24.4764      11.034376       0.02060
  19     114.6       13.4584        0.0084       24.4400       24.4484      10.989999       0.02072
  18     136.5       13.4781        0.0099       24.4054       24.4154      10.937313       0.02026
  17     162.9       13.5018        0.0118       24.3644       24.3762      10.874446       0.02010
  16     196.4       13.5331        0.0142       24.3116       24.3258      10.792698       0.02058
  15     218.7       13.5541        0.0158       24.2771       24.2929      10.738834       0.02045
  14     243.0       13.5772        0.0176       24.2397       24.2573      10.680054       0.02039
  13     269.0       13.6027        0.0194       24.1993       24.2187      10.615987       0.02078
  12     297.5       13.6309        0.0215       24.1556       24.1771      10.546154       0.02071
  11     328.5       13.6622        0.0237       24.1084       24.1321      10.469933       0.02072
  10     361.9       13.6968        0.0261       24.0575       24.0836      10.386802       0.02103
   9     398.1       13.7353        0.0286       24.0026       24.0312      10.295818       0.02120
   8     437.6       13.7785        0.0314       23.9430       23.9743      10.195825       0.02138
   7     480.5       13.8270        0.0343       23.8783       23.9126      10.085678       0.02163
   6     533.0       13.8901        0.0380       23.7972       23.8352       9.945057       0.02262
   5     589.8       13.9637        0.0419       23.7068       23.7487       9.785027       0.02375
   4     651.6       14.0519        0.0461       23.6034       23.6495       9.597632       0.02563
   3     718.7       14.1600        0.0506       23.4831       23.5337       9.373709       0.02814
   2     792.3       14.2976        0.0554       23.3388       23.3943       9.096698       0.03177
   1     891.5       14.5314        0.0618       23.1128       23.1746       8.643163       0.03859
   0    1013.0       14.9100        0.0693       22.7908       22.8601       7.950018       0.04813



 Wavenumbers:  8050. - 12850. cm-1, ATM      1
 LEVEL PRESSURE   UPWARD FLUX   DIFDOWN FLUX  DIRDOWN FLUX  DOWNWARD FLUX   NET FLUX    HEATING RATE
          mb          W/m2          W/m2          W/m2        W/m2          W/m2       degree/day
  51    .06700      160.6265        0.0000      344.8128      344.8128     184.186369       0.00000
  50    .07753      160.6265        0.0000      344.8128      344.8128     184.186369       0.00000
  49    .09103      160.6265        0.0001      344.8127      344.8128     184.186369       0.00000
  48    0.1069      160.6264        0.0001      344.8127      344.8128     184.186369      -0.00000
  47    0.1255      160.6264        0.0002      344.8126      344.8128     184.186369      -0.00000
  46    0.1487      160.6264        0.0003      344.8125      344.8128     184.186369       0.00000
  45    0.1794      160.6264        0.0004      344.8124      344.8128     184.186369       0.00000
  44    0.2165      160.6264        0.0005      344.8122      344.8128     184.186369      -0.00000
  43    0.2613      160.6264        0.0007      344.8121      344.8127     184.186369       0.00000
  42    0.3336      160.6263        0.0009      344.8118      344.8127     184.186369       0.00000
  41    0.4307      160.6263        0.0013      344.8114      344.8127     184.186369      -0.00000
  40    0.5894      160.6262        0.0018      344.8108      344.8126     184.186369       0.00000
  39     1.339      160.6258        0.0044      344.8078      344.8122     184.186369      -0.00000
  38     1.782      160.6256        0.0059      344.8061      344.8120     184.186369       0.00000
  37     2.292      160.6254        0.0077      344.8041      344.8117     184.186369       0.00000
  36     2.964      160.6250        0.0100      344.8014      344.8114     184.186369       0.00000
  35     3.853      160.6246        0.0130      344.7979      344.8110     184.186369      -0.00000
  34     5.035      160.6240        0.0171      344.7933      344.8104     184.186369      -0.00000
  33     6.613      160.6232        0.0225      344.7871      344.8096     184.186369       0.00000
  32     8.786      160.6222        0.0298      344.7787      344.8086     184.186369       0.00000
  31     11.80      160.6207        0.0403      344.7667      344.8071     184.186369       0.00000
  30     15.07      160.6191        0.0516      344.7539      344.8054     184.186369       0.00000
  29     18.79      160.6172        0.0643      344.7393      344.8036     184.186369       0.00000
  28     23.16      160.6151        0.0792      344.7223      344.8015     184.186369      -0.00000
  27     28.12      160.6127        0.0963      344.7028      344.7990     184.186369       0.00000
  26     33.73      160.6099        0.1154      344.6809      344.7963     184.186369       0.00000
  25     40.54      160.6066        0.1385      344.6545      344.7930     184.186369      -0.00000
  24     48.69      160.6026        0.1664      344.6225      344.7890     184.186369       0.00000
  23     57.69      160.5982        0.1971      344.5874      344.7845     184.186369      -0.00000
  22     68.43      160.5929        0.2338      344.5455      344.7793     184.186369       0.00000
  21     81.20      160.5866        0.2775      344.4955      344.7730     184.186369      -0.00000
  20     96.49      160.5791        0.3297      344.4358      344.7655     184.186369       0.00000
  19     114.6      160.5705        0.3918      344.3587      344.7505     184.179995       0.00298
  18     136.5      160.5603        0.4657      344.2667      344.7323     184.172079       0.00304
  17     162.9      160.5481        0.5538      344.1533      344.7070     184.158942       0.00420
  16     196.4      160.5325        0.6684      343.9892      344.6577     184.125199       0.00849
  15     218.7      160.5226        0.7438      343.8402      344.5841     184.061523       0.02418
  14     243.0      160.5128        0.8259      343.5933      344.4192     183.906394       0.05380
  13     269.0      160.5048        0.9148      343.1662      344.0809     183.576159       0.10713
  12     297.5      160.5010        1.0106      342.4819      343.4925     182.991494       0.17341
  11     328.5      160.5033        1.1141      341.5922      342.7063     182.203051       0.21438
  10     361.9      160.5150        1.2255      340.5080      341.7334     181.218432       0.24912
   9     398.1      160.5420        1.3449      339.1885      340.5334     179.991446       0.28586
   8     437.6      160.5939        1.4723      337.5272      338.9996     178.405620       0.33906
   7     480.5      160.6826        1.6078      335.4327      337.0405     176.357883       0.40217
   6     533.0      160.8542        1.7726      332.3652      334.1378     173.283563       0.49456
   5     589.8      161.1538        1.9468      328.3420      330.2888     169.134949       0.61579
   4     651.6      161.7177        2.1273      322.7671      324.8944     163.176669       0.81481
   3     718.7      162.7283        2.3129      315.5619      317.8748     155.146462       1.00917
   2     792.3      164.5988        2.4999      306.5104      309.0103     144.411499       1.23118
   1     891.5      169.3783        2.7314      292.9732      295.7046     126.326350       1.53896
   0    1013.0      182.4677        2.9855      276.3074      279.2929      96.825259       2.04841



 Wavenumbers: 12850. - 16000. cm-1, ATM      1
 LEVEL PRESSURE   UPWARD FLUX   DIFDOWN FLUX  DIRDOWN FLUX  DOWNWARD FLUX   NET FLUX    HEATING RATE
          mb          W/m2          W/m2          W/m2        W/m2          W/m2       degree/day
  51    .06700      156.3032        0.0000      216.0557      216.0557      59.752484       0.00000
  50    .07753      156.3033        0.0001      216.0548      216.0549      59.751672       0.65094
  49    .09103      156.3033        0.0002      216.0538      216.0540      59.750642       0.64330
  48    0.1069      156.3034        0.0004      216.0525      216.0528      59.749447       0.63618
  47    0.1255      156.3035        0.0005      216.0510      216.0516      59.748058       0.62995
  46    0.1487      156.3036        0.0007      216.0492      216.0499      59.746280       0.64809
  45    0.1794      156.3039        0.0010      216.0467      216.0477      59.743822       0.67473
  44    0.2165      156.3042        0.0013      216.0438      216.0451      59.740875       0.67026
  43    0.2613      156.3046        0.0017      216.0403      216.0419      59.737337       0.66708
  42    0.3336      156.3054        0.0023      216.0345      216.0368      59.731402       0.69190
  41    0.4307      156.3066        0.0031      216.0269      216.0300      59.723466       0.68999
  40    0.5894      156.3088        0.0045      216.0146      216.0191      59.710343       0.69786
  39     1.339      156.3253        0.0110      215.9584      215.9693      59.644000       0.74691
  38     1.782      156.3393        0.0147      215.9258      215.9406      59.601256       0.81377
  37     2.292      156.3596        0.0191      215.8879      215.9070      59.547475       0.89075
  36     2.964      156.3924        0.0249      215.8370      215.8619      59.469551       0.97819
  35     3.853      156.4444        0.0325      215.7678      215.8003      59.355968       1.07792
  34     5.035      156.5220        0.0426      215.6752      215.7178      59.195798       1.14419
  33     6.613      156.6301        0.0561      215.5548      215.6109      58.980726       1.14977
  32     8.786      156.7712        0.0743      215.4027      215.4769      58.705703       1.06809
  31     11.80      156.9561        0.1003      215.2043      215.3046      58.348494       1.00007
  30     15.07      157.1347        0.1282      215.0098      215.1380      58.003312       0.89119
  29     18.79      157.3188        0.1598      214.8056      214.9654      57.646622       0.80872
  28     23.16      157.5132        0.1967      214.5841      214.7808      57.267614       0.73288
  27     28.12      157.7115        0.2389      214.3504      214.5893      56.877752       0.66274
  26     33.73      157.8992        0.2862      214.1164      214.4026      56.503442       0.56279
  25     40.54      158.0862        0.3435      213.8655      214.2090      56.122813       0.47221
  24     48.69      158.2730        0.4126      213.5943      214.0069      55.733929       0.40243
  23     57.69      158.4407        0.4887      213.3269      213.8156      55.374845       0.33659
  22     68.43      158.6000        0.5794      213.0419      213.6213      55.021359       0.27789
  21     81.20      158.7341        0.6878      212.7488      213.4366      54.702515       0.21069
  20     96.49      158.8425        0.8173      212.4447      213.2620      54.419459       0.15623
  19     114.6      158.9700        0.9733      212.1101      213.0834      54.113401       0.14291
  18     136.5      159.0985        1.1584      211.7382      212.8967      53.798167       0.12122
  17     162.9      159.2309        1.3793      211.3198      212.6991      53.468187       0.10547
  16     196.4      159.3588        1.6665      210.8156      212.4821      53.123244       0.08683
  15     218.7      159.4272        1.8555      210.4965      212.3519      52.924734       0.07537
  14     243.0      159.4951        2.0612      210.1519      212.2132      52.718062       0.07168
  13     269.0      159.5628        2.2846      209.7781      212.0627      52.499821       0.07080
  12     297.5      159.6321        2.5264      209.3683      211.8948      52.262706       0.07033
  11     328.5      159.7077        2.7883      208.9170      211.7053      51.997669       0.07206
  10     361.9      159.7919        3.0709      208.4189      211.4898      51.697889       0.07585
   9     398.1      159.8887        3.3757      207.8679      211.2436      51.354833       0.07992
   8     437.6      160.0050        3.7037      207.2544      210.9581      50.953060       0.08590
   7     480.5      160.1477        4.0562      206.5713      210.6275      50.479752       0.09296
   6     533.0      160.3583        4.4910      205.6883      210.1794      49.821072       0.10596
   5     589.8      160.6502        4.9606      204.6670      209.6276      48.977359       0.12523
   4     651.6      161.0965        5.4652      203.4324      208.8976      47.801127       0.16085
   3     718.7      161.7502        6.0033      201.9561      207.9594      46.209205       0.20006
   2     792.3      162.7731        6.5708      200.1346      206.7054      43.932302       0.26114
   1     891.5      164.9484        7.3178      197.2502      204.5680      39.619606       0.36699
   0    1013.0      169.3347        8.1874      193.2807      201.4681      32.133336       0.51981



 Wavenumbers: 16000. - 22650. cm-1, ATM      1
 LEVEL PRESSURE   UPWARD FLUX   DIFDOWN FLUX  DIRDOWN FLUX  DOWNWARD FLUX   NET FLUX    HEATING RATE
          mb          W/m2          W/m2          W/m2        W/m2          W/m2       degree/day
  51    .06700      315.2715        0.0000      344.4769      344.4769      29.205402       0.00000
  50    .07753      315.2718        0.0006      344.4763      344.4769      29.205173       0.18362
  49    .09103      315.2721        0.0013      344.4756      344.4769      29.204840       0.20826
  48    0.1069      315.2725        0.0022      344.4748      344.4769      29.204393       0.23749
  47    0.1255      315.2731        0.0031      344.4737      344.4769      29.203796       0.27070
  46    0.1487      315.2738        0.0043      344.4724      344.4767      29.202916       0.32078
  45    0.1794      315.2750        0.0060      344.4705      344.4765      29.201541       0.37770
  44    0.2165      315.2765        0.0080      344.4682      344.4762      29.199674       0.42449
  43    0.2613      315.2785        0.0103      344.4653      344.4756      29.197143       0.47724
  42    0.3336      315.2822        0.0142      344.4603      344.4745      29.192329       0.56123
  41    0.4307      315.2877        0.0194      344.4534      344.4727      29.185073       0.63090
  40    0.5894      315.2979        0.0278      344.4414      344.4691      29.171234       0.73594
  39     1.339      315.3696        0.0675      344.3711      344.4386      29.068972       1.15129
  38     1.782      315.4290        0.0908      344.3200      344.4108      28.981834       1.65897
  37     2.292      315.5139        0.1179      344.2517      344.3695      28.855666       2.08966
  36     2.964      315.6501        0.1533      344.1480      344.3013      28.651191       2.56678
  35     3.853      315.8649        0.2002      343.9913      344.1914      28.326535       3.08105
  34     5.035      316.1847        0.2624      343.7640      344.0264      27.841719       3.46333
  33     6.613      316.6295        0.3455      343.4511      343.7966      27.167068       3.60668
  32     8.786      317.2108        0.4574      343.0410      343.4984      26.287634       3.41541
  31     11.80      317.9747        0.6176      342.4947      343.1123      25.137520       3.21995
  30     15.07      318.7161        0.7896      341.9547      342.7443      24.028253       2.86391
  29     18.79      319.4824        0.9840      341.3868      342.3708      22.888365       2.58448
  28     23.16      320.2955        1.2111      340.7717      341.9828      21.687321       2.32243
  27     28.12      321.1294        1.4710      340.1241      341.5951      20.465724       2.07663
  26     33.73      321.9248        1.7622      339.4775      341.2398      19.314942       1.73023
  25     40.54      322.7262        2.1146      338.7859      340.9005      18.174243       1.41517
  24     48.69      323.5373        2.5399      338.0389      340.5788      17.041519       1.17219
  23     57.69      324.2780        3.0078      337.3015      340.3093      16.031386       0.94685
  22     68.43      324.9980        3.5660      336.5123      340.0783      15.080332       0.74766
  21     81.20      325.6334        4.2326      335.6921      339.9247      14.291271       0.52140
  20     96.49      326.1839        5.0285      334.8256      339.8541      13.670277       0.34274
  19     114.6      326.7295        5.9742      333.8560      339.8302      13.100763       0.26592
  18     136.5      327.3033        7.0954      332.7466      339.8420      12.538733       0.21611
  17     162.9      327.9193        8.4306      331.4625      339.8930      11.973730       0.18060
  16     196.4      328.5740       10.1632      329.8743      340.0374      11.463445       0.12844
  15     218.7      328.9502       11.3013      328.8601      340.1614      11.211134       0.09579
  14     243.0      329.3338       12.5384      327.7715      340.3099      10.976124       0.08151
  13     269.0      329.7227       13.8791      326.6061      340.4852      10.762509       0.06930
  12     297.5      330.1174       15.3281      325.3603      340.6885      10.571048       0.05679
  11     328.5      330.5309       16.8939      324.0212      340.9150      10.384172       0.05081
  10     361.9      330.9635       18.5798      322.5859      341.1656      10.202123       0.04606
   9     398.1      331.4178       20.3943      321.0470      341.4413      10.023443       0.04163
   8     437.6      331.8982       22.3433      319.3978      341.7411       9.842871       0.03861
   7     480.5      332.4060       24.4329      317.6330      342.0659       9.659875       0.03594
   6     533.0      333.0267       27.0063      315.4613      342.4676       9.440893       0.03523
   5     589.8      333.7001       29.7823      313.1151      342.8973       9.197217       0.03617
   4     651.6      334.4453       32.7697      310.5763      343.3460       8.900635       0.04056
   3     718.7      335.2816       35.9787      307.8270      343.8057       8.524146       0.04731
   2     792.3      336.2526       39.4139      304.8404      344.2544       8.001801       0.05991
   1     891.5      337.7529       44.0458      300.7148      344.7606       7.007771       0.08459
   0    1013.0      339.8711       49.6000      295.6311      345.2312       5.360019       0.11441



 Wavenumbers: 22650. - 29000. cm-1, ATM      1
 LEVEL PRESSURE   UPWARD FLUX   DIFDOWN FLUX  DIRDOWN FLUX  DOWNWARD FLUX   NET FLUX    HEATING RATE
          mb          W/m2          W/m2          W/m2        W/m2          W/m2       degree/day
  51    .06700      127.9259        0.0000      129.9930      129.9930       2.067151       0.00000
  50    .07753      127.9260        0.0007      129.9925      129.9932       2.067151       0.00000
  49    .09103      127.9262        0.0015      129.9918      129.9933       2.067151       0.00000
  48    0.1069      127.9264        0.0025      129.9910      129.9935       2.067151      -0.00000
  47    0.1255      127.9266        0.0037      129.9901      129.9938       2.067151       0.00000
  46    0.1487      127.9269        0.0051      129.9889      129.9940       2.067151       0.00000
  45    0.1794      127.9273        0.0071      129.9874      129.9944       2.067151      -0.00000
  44    0.2165      127.9277        0.0094      129.9855      129.9948       2.067151       0.00000
  43    0.2613      127.9282        0.0121      129.9833      129.9954       2.067151      -0.00000
  42    0.3336      127.9291        0.0167      129.9796      129.9963       2.067151       0.00000
  41    0.4307      127.9303        0.0227      129.9747      129.9974       2.067151      -0.00000
  40    0.5894      127.9321        0.0325      129.9668      129.9993       2.067151       0.00000
  39     1.339      127.9411        0.0791      129.9292      130.0083       2.067151       0.00000
  38     1.782      127.9464        0.1064      129.9071      130.0135       2.067151      -0.00000
  37     2.292      127.9524        0.1380      129.8815      130.0196       2.067151       0.00000
  36     2.964      127.9604        0.1796      129.8480      130.0276       2.067151       0.00000
  35     3.853      127.9710        0.2345      129.8036      130.0381       2.067151       0.00000
  34     5.035      127.9850        0.3075      129.7447      130.0522       2.067151      -0.00000
  33     6.613      128.0038        0.4049      129.6660      130.0709       2.067151       0.00000
  32     8.786      128.0290        0.5363      129.5599      130.0962       2.067151      -0.00000
  31     11.80      128.0651        0.7241      129.4082      130.1323       2.067151       0.00000
  30     15.07      128.1039        0.9258      129.2453      130.1711       2.067151       0.00000
  29     18.79      128.1477        1.1535      129.0613      130.2148       2.067151       0.00000
  28     23.16      128.1988        1.4194      128.8465      130.2659       2.067151      -0.00000
  27     28.12      128.2572        1.7233      128.6010      130.3244       2.067151       0.00000
  26     33.73      128.3225        2.0631      128.3266      130.3897       2.067151       0.00000
  25     40.54      128.4013        2.4732      127.9953      130.4685       2.067151       0.00000
  24     48.69      128.4962        2.9668      127.5965      130.5633       2.067151       0.00000
  23     57.69      128.6002        3.5081      127.1593      130.6673       2.067151       0.00000
  22     68.43      128.7237        4.1512      126.6397      130.7909       2.067151      -0.00000
  21     81.20      128.8704        4.9152      126.0224      130.9376       2.067151       0.00000
  20     96.49      129.0446        5.8222      125.2896      131.1117       2.067151      -0.00000
  19     114.6      129.2503        6.8941      124.4234      131.3175       2.067151       0.00000
  18     136.5      129.4927        8.1575      123.4024      131.5599       2.067151       0.00000
  17     162.9      129.7794        9.6518      122.1947      131.8465       2.067151      -0.00000
  16     196.4      130.1476       11.5729      120.6419      132.2148       2.067151       0.00000
  15     218.7      130.3874       12.8243      119.6303      132.4545       2.067151       0.00000
  14     243.0      130.6462       14.1755      118.5379      132.7133       2.067151      -0.00000
  13     269.0      130.9245       15.6292      117.3624      132.9916       2.067151       0.00000
  12     297.5      131.2227       17.1881      116.1018      133.2899       2.067151      -0.00000
  11     328.5      131.5422       18.8588      114.7505      133.6093       2.067151       0.00000
  10     361.9      131.8829       20.6418      113.3083      133.9501       2.067151       0.00000
   9     398.1      132.2459       22.5426      111.7705      134.3131       2.067151       0.00000
   8     437.6      132.6316       24.5634      110.1353      134.6987       2.067151      -0.00000
   7     480.5      133.0402       26.7063      108.4010      135.1073       2.067151       0.00000
   6     533.0      133.5366       29.3121      106.2917      135.6037       2.067151       0.00000
   5     589.8      134.0637       32.0826      104.0483      136.1309       2.067151      -0.00000
   4     651.6      134.6217       35.0189      101.6700      136.6889       2.067151       0.00000
   3     718.7      135.2106       38.1219       99.1558      137.2777       2.067151       0.00000
   2     792.3      135.8294       41.3883       96.5083      137.8966       2.067151      -0.00000
   1     891.5      136.6460       45.7068       93.0064      138.7132       2.067151       0.00000
   0    1013.0      137.5985       50.7575       88.9082      139.6657       2.067151       0.00000



 Wavenumbers: 29000. - 38000. cm-1, ATM      1
 LEVEL PRESSURE   UPWARD FLUX   DIFDOWN FLUX  DIRDOWN FLUX  DOWNWARD FLUX   NET FLUX    HEATING RATE
          mb          W/m2          W/m2          W/m2        W/m2          W/m2       degree/day
  51    .06700       20.3587        0.0000       45.8410       45.8410      25.482232       0.00000
  50    .07753       20.3586        0.0004       45.8366       45.8370      25.478399       3.07253
  49    .09103       20.3585        0.0009       45.8305       45.8314      25.472818       3.48782
  48    0.1069       20.3584        0.0015       45.8223       45.8238      25.465341       3.97999
  47    0.1255       20.3584        0.0021       45.8116       45.8137      25.455331       4.53845
  46    0.1487       20.3583        0.0029       45.7959       45.7988      25.440577       5.37765
  45    0.1794       20.3582        0.0041       45.7716       45.7757      25.417538       6.32496
  44    0.2165       20.3581        0.0054       45.7391       45.7445      25.386357       7.09301
  43    0.2613       20.3582        0.0070       45.6954       45.7024      25.344202       7.94605
  42    0.3336       20.3584        0.0096       45.6134       45.6230      25.264610       9.27966
  41    0.4307       20.3588        0.0130       45.4920       45.5050      25.146147      10.30011
  40    0.5894       20.3600        0.0185       45.2670       45.2854      24.925425      11.73768
  39     1.339       20.3742        0.0427       43.8242       43.8669      23.492738      16.12945
  38     1.782       20.3881        0.0557       42.8351       42.8908      22.502738      18.84802
  37     2.292       20.4090        0.0700       41.6852       41.7552      21.346191      19.15543
  36     2.964       20.4438        0.0878       40.2943       40.3821      19.938249      17.67393
  35     3.853       20.5000        0.1104       38.7687       38.8791      18.379015      14.79742
  34     5.035       20.5849        0.1395       37.2304       37.3699      16.785005      11.38695
  33     6.613       20.7044        0.1776       35.7405       35.9181      15.213705       8.40017
  32     8.786       20.8626        0.2281       34.3295       34.5575      13.694953       5.89828
  31     11.80       21.0744        0.2992       32.9481       33.2472      12.172825       4.26148
  30     15.07       21.2858        0.3747       31.8942       32.2689      10.983111       3.07161
  29     18.79       21.5111        0.4589       30.9854       31.4443       9.933154       2.38058
  28     23.16       21.7594        0.5563       30.1559       30.7122       8.952802       1.89568
  27     28.12       22.0250        0.6670       29.4043       30.0713       8.046305       1.54098
  26     33.73       22.2892        0.7912       28.7514       29.5426       7.253388       1.19217
  25     40.54       22.5663        0.9416       28.1328       29.0744       6.508065       0.92466
  24     48.69       22.8590        1.1231       27.5340       28.6571       5.798051       0.73475
  23     57.69       23.1375        1.3228       26.9971       28.3198       5.182336       0.57714
  22     68.43       23.4180        1.5613       26.4694       28.0307       4.612699       0.44781
  21     81.20       23.6707        1.8483       25.9669       27.8152       4.144562       0.30934
  20     96.49       23.8903        2.1929       25.4748       27.6677       3.777413       0.20264
  19     114.6       24.1092        2.5995       24.9506       27.5501       3.440850       0.15715
  18     136.5       24.3423        3.0749       24.3745       27.4494       3.107129       0.12832
  17     162.9       24.5963        3.6329       23.7328       27.3657       2.769457       0.10793
  16     196.4       24.8634        4.3496       22.9761       27.3256       2.462174       0.07735
  15     218.7       25.0147        4.8126       22.5089       27.3215       2.306716       0.05902
  14     243.0       25.1680        5.3087       22.0192       27.3279       2.159897       0.05092
  13     269.0       25.3211        5.8384       21.5077       27.3462       2.025025       0.04375
  12     297.5       25.4733        6.4018       20.9749       27.3768       1.903411       0.03607
  11     328.5       25.6307        6.9985       20.4165       27.4149       1.784279       0.03239
  10     361.9       25.7926        7.6271       19.8338       27.4609       1.668322       0.02934
   9     398.1       25.9591        8.2882       19.2267       27.5149       1.555816       0.02621
   8     437.6       26.1311        8.9804       18.5955       27.5759       1.444775       0.02374
   7     480.5       26.3078        9.7028       17.9419       27.6446       1.336860       0.02119
   6     533.0       26.5161       10.5653       17.1671       27.7324       1.216307       0.01939
   5     589.8       26.7319       11.4617       16.3664       27.8281       1.096250       0.01782
   4     651.6       26.9558       12.3894       15.5420       27.9314       0.975655       0.01649
   3     718.7       27.1877       13.3447       14.6973       28.0420       0.854345       0.01525
   2     792.3       27.4269       14.3217       13.8375       28.1591       0.732272       0.01400
   1     891.5       27.7378       15.5712       12.7437       28.3150       0.577139       0.01320
   0    1013.0       28.0963       16.9678       11.5285       28.4963       0.399947       0.01230



 Wavenumbers: 38000. - 50000. cm-1, ATM      1
 LEVEL PRESSURE   UPWARD FLUX   DIFDOWN FLUX  DIRDOWN FLUX  DOWNWARD FLUX   NET FLUX    HEATING RATE
          mb          W/m2          W/m2          W/m2        W/m2          W/m2       degree/day
  51    .06700        0.0077        0.0000        2.8274        2.8274       2.819732       0.00000
  50    .07753        0.0076        0.0001        2.8250        2.8250       2.817394       1.87426
  49    .09103        0.0076        0.0002        2.8215        2.8216       2.814052       2.08853
  48    0.1069        0.0075        0.0003        2.8169        2.8172       2.809652       2.34203
  47    0.1255        0.0074        0.0004        2.8109        2.8113       2.803854       2.62885
  46    0.1487        0.0073        0.0005        2.8022        2.8027       2.795433       3.06948
  45    0.1794        0.0072        0.0007        2.7889        2.7896       2.782446       3.56531
  44    0.2165        0.0070        0.0009        2.7712        2.7721       2.765088       3.94851
  43    0.2613        0.0068        0.0012        2.7476        2.7487       2.741916       4.36792
  42    0.3336        0.0065        0.0015        2.7038        2.7053       2.698800       5.02689
  41    0.4307        0.0062        0.0020        2.6399        2.6419       2.635738       5.48307
  40    0.5894        0.0056        0.0027        2.5241        2.5268       2.521231       6.08937
  39     1.339        0.0038        0.0042        1.8543        1.8585       1.854685       7.50409
  38     1.782        0.0031        0.0041        1.4655        1.4696       1.466513       7.39018
  37     2.292        0.0024        0.0036        1.0872        1.0908       1.088339       6.26353
  36     2.964        0.0019        0.0030        0.7358        0.7388       0.736859       4.41214
  35     3.853        0.0015        0.0024        0.4711        0.4735       0.472010       2.51347
  34     5.035        0.0012        0.0019        0.2988        0.3008       0.299620       1.23148
  33     6.613        0.0009        0.0016        0.1889        0.1905       0.189608       0.58813
  32     8.786        0.0007        0.0013        0.1196        0.1208       0.120133       0.26981
  31     11.80        0.0005        0.0010        0.0741        0.0751       0.074563       0.12758
  30     15.07        0.0004        0.0008        0.0493        0.0501       0.049700       0.06419
  29     18.79        0.0003        0.0006        0.0330        0.0336       0.033348       0.03707
  28     23.16        0.0002        0.0004        0.0217        0.0221       0.021940       0.02206
  27     28.12        0.0001        0.0003        0.0140        0.0144       0.014212       0.01314
  26     33.73        0.0001        0.0002        0.0091        0.0093       0.009223       0.00750
  25     40.54        0.0001        0.0002        0.0057        0.0059       0.005793       0.00426
  24     48.69        0.0000        0.0001        0.0034        0.0035       0.003483       0.00239
  23     57.69        0.0000        0.0001        0.0020        0.0021       0.002088       0.00131
  22     68.43        0.0000        0.0000        0.0012        0.0012       0.001190       0.00071
  21     81.20        0.0000        0.0000        0.0006        0.0007       0.000647       0.00036
  20     96.49        0.0000        0.0000        0.0003        0.0003       0.000330       0.00018
  19     114.6        0.0000        0.0000        0.0001        0.0002       0.000151       0.00008
  18     136.5        0.0000        0.0000        0.0001        0.0001       0.000060       0.00003
  17     162.9        0.0000        0.0000        0.0000        0.0000       0.000020       0.00001
  16     196.4        0.0000        0.0000        0.0000        0.0000       0.000005       0.00000
  15     218.7        0.0000        0.0000        0.0000        0.0000       0.000002       0.00000
  14     243.0        0.0000        0.0000        0.0000        0.0000       0.000001       0.00000
  13     269.0        0.0000        0.0000        0.0000        0.0000       0.000000       0.00000
  12     297.5        0.0000        0.0000        0.0000        0.0000       0.000000       0.00000
  11     328.5        0.0000        0.0000        0.0000        0.0000       0.000000       0.00000
  10     361.9        0.0000        0.0000        0.0000        0.0000       0.000000       0.00000
   9     398.1        0.0000        0.0000        0.0000        0.0000       0.000000       0.00000
   8     437.6        0.0000        0.0000        0.0000        0.0000       0.000000       0.00000
   7     480.5        0.0000        0.0000        0.0000        0.0000       0.000000       0.00000
   6     533.0        0.0000        0.0000        0.0000        0.0000       0.000000       0.00000
   5     589.8        0.0000        0.0000        0.0000        0.0000       0.000000       0.00000
   4     651.6        0.0000        0.0000        0.0000        0.0000       0.000000       0.00000
   3     718.7        0.0000        0.0000        0.0000        0.0000       0.000000       0.00000
   2     792.3        0.0000        0.0000        0.0000        0.0000       0.000000       0.00000
   1     891.5        0.0000        0.0000        0.0000        0.0000       0.000000       0.00000
   0    1013.0        0.0000        0.0000        0.0000        0.0000       0.000000       0.00000



 Wavenumbers:   820. -  2600. cm-1, ATM      1
 LEVEL PRESSURE   UPWARD FLUX   DIFDOWN FLUX  DIRDOWN FLUX  DOWNWARD FLUX   NET FLUX    HEATING RATE
          mb          W/m2          W/m2          W/m2        W/m2          W/m2       degree/day
  51    .06700        1.8993        0.0000       13.2264       13.2264      11.327095       0.00000
  50    .07753        1.8993        0.0000       13.2194       13.2194      11.320073       5.62799
  49    .09103        1.8993        0.0000       13.2178       13.2178      11.318499       0.98414
  48    0.1069        1.8993        0.0000       13.2167       13.2167      11.317372       0.59961
  47    0.1255        1.8993        0.0000       13.2154       13.2154      11.316081       0.58520
  46    0.1487        1.8993        0.0000       13.2137       13.2137      11.314424       0.60406
  45    0.1794        1.8993        0.0000       13.2114       13.2114      11.312165       0.62017
  44    0.2165        1.8993        0.0000       13.2088       13.2088      11.309547       0.59561
  43    0.2613        1.8993        0.0000       13.2059       13.2059      11.306566       0.56193
  42    0.3336        1.8993        0.0000       13.2013       13.2013      11.302001       0.53215
  41    0.4307        1.8993        0.0000       13.1959       13.1959      11.296630       0.46701
  40    0.5894        1.8993        0.0000       13.1882       13.1882      11.288938       0.40908
  39     1.339        1.8993        0.0000       13.1557       13.1557      11.256396       0.36636
  38     1.782        1.8993        0.0000       13.1371       13.1371      11.237806       0.35393
  37     2.292        1.8993        0.0000       13.1162       13.1162      11.216855       0.34699
  36     2.964        1.8993        0.0000       13.0894       13.0894      11.190096       0.33591
  35     3.853        1.8993        0.0000       13.0549       13.0549      11.155588       0.32748
  34     5.035        1.8993        0.0000       13.0106       13.0106      11.111275       0.31656
  33     6.613        1.8993        0.0000       12.9545       12.9545      11.055146       0.30006
  32     8.786        1.8994        0.0000       12.8834       12.8834      10.984003       0.27630
  31     11.80        1.8994        0.0000       12.7885       12.7885      10.889078       0.26576
  30     15.07        1.8994        0.0000       12.6943       12.6944      10.794947       0.24303
  29     18.79        1.8994        0.0000       12.5999       12.5999      10.700462       0.21423
  28     23.16        1.8995        0.0000       12.5086       12.5086      10.609159       0.17655
  27     28.12        1.8995        0.0000       12.4288       12.4289      10.529345       0.13568
  26     33.73        1.8996        0.0000       12.3650       12.3650      10.465461       0.09605
  25     40.54        1.8996        0.0000       12.3120       12.3120      10.412392       0.06584
  24     48.69        1.8997        0.0000       12.2668       12.2668      10.367180       0.04679
  23     57.69        1.8997        0.0000       12.2260       12.2260      10.326265       0.03835
  22     68.43        1.8998        0.0000       12.1803       12.1803      10.280444       0.03602
  21     81.20        1.8999        0.0000       12.1270       12.1270      10.227101       0.03525
  20     96.49        1.9001        0.0000       12.0640       12.0640      10.163923       0.03487
  19     114.6        1.9002        0.0000       11.9885       11.9886      10.088346       0.03529
  18     136.5        1.9004        0.0000       11.8987       11.8988       9.998363       0.03460
  17     162.9        1.9007        0.0000       11.7817       11.7818       9.881081       0.03749
  16     196.4        1.9012        0.0000       11.5930       11.5930       9.691854       0.04763
  15     218.7        1.9016        0.0000       11.4055       11.4056       9.503954       0.07134
  14     243.0        1.9024        0.0000       11.1045       11.1045       9.202158       0.10467
  13     269.0        1.9035        0.0000       10.6901       10.6901       8.786631       0.13479
  12     297.5        1.9053        0.0000       10.2200       10.2201       8.314762       0.13995
  11     328.5        1.9078        0.0000        9.8187        9.8187       7.910982       0.10979
  10     361.9        1.9110        0.0000        9.4313        9.4313       7.520303       0.09885
   9     398.1        1.9153        0.0000        8.9858        8.9858       7.070458       0.10480
   8     437.6        1.9209        0.0000        8.4654        8.4655       6.544521       0.11245
   7     480.5        1.9278        0.0000        7.9394        7.9395       6.011672       0.10465
   6     533.0        1.9384        0.0001        7.4262        7.4262       5.487829       0.08427
   5     589.8        1.9540        0.0001        7.0503        7.0503       5.096316       0.05811
   4     651.6        1.9816        0.0001        6.7312        6.7313       4.749644       0.04741
   3     718.7        2.0289        0.0001        6.3693        6.3693       4.340434       0.05143
   2     792.3        2.1152        0.0001        5.9171        5.9172       3.801981       0.06175
   1     891.5        2.3365        0.0001        5.2716        5.2716       2.935078       0.07377
   0    1013.0        2.9420        0.0001        4.5136        4.5136       1.571643       0.09467

  Modules and versions used in this calculation:

       rrtmg_sw.1col.f90:  $Revision$                    rrtmg_sw_init.f90:  $Revision$        
     rrtmgsw_cldprop.f90:  $Revision$                  rrtmgsw_cldprmc.f90:  NOT USED          
     rrtmg_sw_reftra.f90:  $Revision$                  rrtmg_sw_spcvrt.f90:  NOT USED          
     rrtmg_sw_spcvmc.f90:  NOT USED                    rrtmgsw_setcoef.f90:  NOT USED          
     rrtmg_sw_taumol.f90:  $Revision$                  rrtmg_sw_vrtqdr.f90:  NOT USED          
                rrtatm.f:  NOT USED                             util_xxx.f:  NOT USED          
                 extra.f:  NOT USED                       rrtmg_sw_k_g.f90:  $Revision$        

