

 Wavenumbers:   820. - 50000. cm-1, ATM      1
 LEVEL PRESSURE   UPWARD FLUX   DIFDOWN FLUX  DIRDOWN FLUX  DOWNWARD FLUX   NET FLUX    HEATING RATE
          mb          W/m2          W/m2          W/m2        W/m2          W/m2       degree/day
  51    .06700      749.9313        0.0000     1178.5299     1178.5299     428.598660       0.00000
  50    .07753      749.9314        0.0018     1178.5089     1178.5106     428.579214      15.58657
  49    .09103      749.9316        0.0040     1178.4899     1178.4939     428.562275      10.58699
  48    0.1069      749.9319        0.0065     1178.4686     1178.4751     428.543169      10.17021
  47    0.1255      749.9323        0.0094     1178.4430     1178.4524     428.520075      10.46971
  46    0.1487      749.9330        0.0130     1178.4083     1178.4214     428.488426      11.53650
  45    0.1794      749.9340        0.0180     1178.3574     1178.3755     428.441457      12.89420
  44    0.2165      749.9354        0.0240     1178.2919     1178.3159     428.380450      13.87797
  43    0.2613      749.9375        0.0309     1178.2073     1178.2383     428.300800      15.01372
  42    0.3336      749.9414        0.0425     1178.0543     1178.0968     428.155403      16.95188
  41    0.4307      749.9474        0.0577     1177.8354     1177.8930     427.945632      18.23912
  40    0.5894      749.9591        0.0824     1177.4438     1177.5262     427.567070      20.13144
  39     1.339      750.0485        0.1956     1175.1487     1175.3443     425.295777      25.57063
  38     1.782      750.1253        0.2599     1173.7104     1173.9702     423.844910      27.62216
  37     2.292      750.2365        0.3332     1172.1429     1172.4761     422.239542      26.58909
  36     2.964      750.4166        0.4286     1170.3569     1170.7854     420.368850      23.48283
  35     3.853      750.7021        0.5539     1168.4542     1169.0081     418.306056      19.57630
  34     5.035      751.1283        0.7198     1166.4877     1167.2074     416.079175      15.90791
  33     6.613      751.7225        0.9407     1164.4480     1165.3887     413.666166      12.89995
  32     8.786      752.5007        1.2376     1162.3192     1163.5568     411.056082      10.13662
  31     11.80      753.5267        1.6613     1159.9454     1161.6067     408.080025       8.33202
  30     15.07      754.5270        2.1154     1157.8685     1159.9839     405.456876       6.77246
  29     18.79      755.5668        2.6272     1155.8508     1158.4780     402.911211       5.77181
  28     23.16      756.6773        3.2239     1153.7890     1157.0129     400.335629       4.98034
  27     28.12      757.8252        3.9053     1151.7101     1155.6154     397.790135       4.32717
  26     33.73      758.9294        4.6678     1149.6810     1154.3488     395.419424       3.56443
  25     40.54      760.0514        5.5890     1147.5303     1153.1193     393.067899       2.91733
  24     48.69      761.1977        6.6991     1145.2129     1151.9120     390.714341       2.43556
  23     57.69      762.2546        7.9179     1142.9116     1150.8295     388.574928       2.00538
  22     68.43      763.2913        9.3687     1140.4143     1149.7830     386.491676       1.63771
  21     81.20      764.2134       11.0980     1137.7366     1148.8346     384.621167       1.23600
  20     96.49      765.0170       13.1577     1134.8117     1147.9694     382.952361       0.92106
  19     114.6      765.8437       15.5968     1131.4727     1147.0695     381.225795       0.80618
  18     136.5      766.7162       18.4729     1127.6357     1146.1086     379.392461       0.70496
  17     162.9      767.6568       21.8776     1123.1331     1145.0107     377.353939       0.65159
  16     196.4      768.6594       26.2742     1117.2568     1143.5311     374.871673       0.62482
  15     218.7      769.2353       29.1356     1112.9479     1142.0835     372.848222       0.76823
  14     243.0      769.8245       32.2278     1107.5903     1139.8181     369.993643       0.99006
  13     269.0      770.4259       35.5581     1100.8208     1136.3789     365.952946       1.31078
  12     297.5      771.0440       39.1329     1092.4079     1131.5408     360.496757       1.61825
  11     328.5      771.7017       42.9671     1083.1122     1126.0793     354.377631       1.66377
  10     361.9      772.4050       47.0628     1073.0789     1120.1417     347.736627       1.68024
   9     398.1      773.1666       51.4335     1062.0456     1113.4791     340.312500       1.72965
   8     437.6      774.0087       56.0846     1049.6608     1105.7454     331.736690       1.83356
   7     480.5      774.9515       61.0228     1036.0163     1097.0391     322.087597       1.89505
   6     533.0      776.2020       67.0353     1018.9355     1085.9708     309.768869       1.98169
   5     589.8      777.7353       73.4364     1000.0628     1073.4992     295.763841       2.07881
   4     651.6      779.7919       80.2271      978.3617     1058.5888     278.796900       2.32027
   3     718.7      782.6430       87.4065      954.5397     1041.9462     259.303205       2.44982
   2     792.3      786.9416       94.9615      928.4592     1023.4207     236.479057       2.61767
   1     891.5      796.1472      104.9387      893.3013      998.2400     202.092716       2.92611
   0    1013.0      817.0698      116.6036      852.5482      969.1518     152.081957       3.47250



 Wavenumbers:  2600. -  3250. cm-1, ATM      1
 LEVEL PRESSURE   UPWARD FLUX   DIFDOWN FLUX  DIRDOWN FLUX  DOWNWARD FLUX   NET FLUX    HEATING RATE
          mb          W/m2          W/m2          W/m2        W/m2          W/m2       degree/day
  51    .06700        0.0179        0.0000       10.3869       10.3869      10.368956       0.00000
  50    .07753        0.0179        0.0000       10.3869       10.3869      10.368948       0.00640
  49    .09103        0.0179        0.0000       10.3868       10.3868      10.368938       0.00627
  48    0.1069        0.0179        0.0000       10.3868       10.3868      10.368926       0.00613
  47    0.1255        0.0179        0.0000       10.3868       10.3868      10.368913       0.00600
  46    0.1487        0.0179        0.0000       10.3868       10.3868      10.368896       0.00608
  45    0.1794        0.0179        0.0000       10.3868       10.3868      10.368874       0.00625
  44    0.2165        0.0179        0.0000       10.3868       10.3868      10.368847       0.00613
  43    0.2613        0.0179        0.0000       10.3867       10.3867      10.368815       0.00601
  42    0.3336        0.0179        0.0000       10.3867       10.3867      10.368762       0.00618
  41    0.4307        0.0179        0.0000       10.3866       10.3866      10.368690       0.00622
  40    0.5894        0.0179        0.0000       10.3865       10.3865      10.368570       0.00640
  39     1.339        0.0179        0.0000       10.3858       10.3858      10.367855       0.00805
  38     1.782        0.0179        0.0000       10.3852       10.3852      10.367301       0.01054
  37     2.292        0.0179        0.0000       10.3845       10.3845      10.366564       0.01221
  36     2.964        0.0179        0.0000       10.3834       10.3834      10.365481       0.01359
  35     3.853        0.0179        0.0000       10.3818       10.3818      10.363911       0.01490
  34     5.035        0.0179        0.0000       10.3796       10.3796      10.361667       0.01603
  33     6.613        0.0179        0.0000       10.3764       10.3764      10.358509       0.01688
  32     8.786        0.0179        0.0000       10.3720       10.3720      10.354142       0.01696
  31     11.80        0.0179        0.0000       10.3658       10.3658      10.347925       0.01740
  30     15.07        0.0179        0.0000       10.3594       10.3594      10.341492       0.01661
  29     18.79        0.0179        0.0000       10.3526       10.3526      10.334713       0.01537
  28     23.16        0.0179        0.0000       10.3453       10.3454      10.327453       0.01404
  27     28.12        0.0179        0.0000       10.3378       10.3378      10.319905       0.01283
  26     33.73        0.0179        0.0000       10.3297       10.3297      10.311828       0.01214
  25     40.54        0.0179        0.0000       10.3200       10.3200      10.302134       0.01203
  24     48.69        0.0179        0.0000       10.3082       10.3082      10.290299       0.01225
  23     57.69        0.0179        0.0000       10.2946       10.2946      10.276718       0.01273
  22     68.43        0.0179        0.0000       10.2773       10.2774      10.259480       0.01355
  21     81.20        0.0179        0.0000       10.2553       10.2553      10.237410       0.01458
  20     96.49        0.0179        0.0000       10.2272       10.2272      10.209358       0.01548
  19     114.6        0.0179        0.0000       10.1911       10.1912      10.173318       0.01683
  18     136.5        0.0179        0.0000       10.1470       10.1471      10.129208       0.01696
  17     162.9        0.0179        0.0001       10.0936       10.0937      10.075812       0.01707
  16     196.4        0.0179        0.0001       10.0240       10.0241      10.006218       0.01752
  15     218.7        0.0178        0.0001        9.9753        9.9754       9.957526       0.01849
  14     243.0        0.0178        0.0001        9.9155        9.9156       9.897759       0.02073
  13     269.0        0.0178        0.0001        9.8402        9.8403       9.822440       0.02443
  12     297.5        0.0179        0.0001        9.7475        9.7476       9.729744       0.02749
  11     328.5        0.0179        0.0001        9.6429        9.6430       9.625163       0.02844
  10     361.9        0.0179        0.0001        9.5262        9.5263       9.508448       0.02953
   9     398.1        0.0179        0.0001        9.3913        9.3914       9.373531       0.03143
   8     437.6        0.0180        0.0001        9.2275        9.2276       9.209683       0.03503
   7     480.5        0.0180        0.0001        9.0239        9.0241       9.006073       0.03999
   6     533.0        0.0181        0.0002        8.7314        8.7316       8.713457       0.04707
   5     589.8        0.0183        0.0002        8.3583        8.3585       8.340176       0.05541
   4     651.6        0.0186        0.0002        7.8873        7.8875       7.868968       0.06444
   3     718.7        0.0190        0.0002        7.3588        7.3590       7.339986       0.06648
   2     792.3        0.0197        0.0002        6.7802        6.7803       6.760640       0.06644
   1     891.5        0.0215        0.0002        5.9862        5.9863       5.964875       0.06772
   0    1013.0        0.0263        0.0002        5.0535        5.0536       5.027359       0.06510



 Wavenumbers:  3250. -  4000. cm-1, ATM      1
 LEVEL PRESSURE   UPWARD FLUX   DIFDOWN FLUX  DIRDOWN FLUX  DOWNWARD FLUX   NET FLUX    HEATING RATE
          mb          W/m2          W/m2          W/m2        W/m2          W/m2       degree/day
  51    .06700        0.0005        0.0000       17.5107       17.5107      17.510221       0.00000
  50    .07753        0.0005        0.0000       17.5052       17.5052      17.504672       4.44766
  49    .09103        0.0005        0.0000       17.5003       17.5003      17.499763       3.06837
  48    0.1069        0.0005        0.0000       17.4963       17.4963      17.495738       2.14254
  47    0.1255        0.0005        0.0000       17.4928       17.4928      17.492238       1.58670
  46    0.1487        0.0005        0.0000       17.4892       17.4892      17.488686       1.29476
  45    0.1794        0.0005        0.0000       17.4851       17.4851      17.484601       1.12145
  44    0.2165        0.0005        0.0000       17.4809       17.4809      17.480367       0.96320
  43    0.2613        0.0005        0.0000       17.4764       17.4764      17.475891       0.84364
  42    0.3336        0.0005        0.0000       17.4700       17.4700      17.469451       0.75090
  41    0.4307        0.0005        0.0000       17.4628       17.4628      17.462276       0.62383
  40    0.5894        0.0005        0.0000       17.4530       17.4530      17.452515       0.51906
  39     1.339        0.0005        0.0000       17.4178       17.4178      17.417243       0.39710
  38     1.782        0.0005        0.0000       17.4010       17.4010      17.400519       0.31841
  37     2.292        0.0005        0.0000       17.3843       17.3843      17.383779       0.27725
  36     2.964        0.0005        0.0000       17.3652       17.3652      17.364719       0.23926
  35     3.853        0.0005        0.0000       17.3431       17.3432      17.342643       0.20951
  34     5.035        0.0005        0.0000       17.3168       17.3168      17.316283       0.18831
  33     6.613        0.0005        0.0000       17.2839       17.2839      17.283439       0.17558
  32     8.786        0.0005        0.0000       17.2404       17.2404      17.239877       0.16918
  31     11.80        0.0005        0.0000       17.1766       17.1766      17.176132       0.17847
  30     15.07        0.0005        0.0000       17.1053       17.1054      17.104875       0.18397
  29     18.79        0.0005        0.0000       17.0217       17.0217      17.021207       0.18970
  28     23.16        0.0005        0.0000       16.9215       16.9216      16.921070       0.19363
  27     28.12        0.0005        0.0000       16.8058       16.8059      16.805409       0.19662
  26     33.73        0.0005        0.0000       16.6782       16.6783      16.677818       0.19184
  25     40.54        0.0005        0.0001       16.5302       16.5303      16.529814       0.18362
  24     48.69        0.0004        0.0001       16.3653       16.3653      16.364893       0.17067
  23     57.69        0.0004        0.0001       16.2011       16.2012      16.200789       0.15382
  22     68.43        0.0004        0.0001       16.0251       16.0252      16.024778       0.13837
  21     81.20        0.0004        0.0001       15.8331       15.8332      15.832827       0.12684
  20     96.49        0.0004        0.0001       15.6170       15.6171      15.616716       0.11928
  19     114.6        0.0004        0.0001       15.3575       15.3576      15.357255       0.12115
  18     136.5        0.0003        0.0002       15.0569       15.0571      15.056721       0.11556
  17     162.9        0.0003        0.0002       14.6938       14.6940      14.693701       0.11604
  16     196.4        0.0003        0.0002       14.1659       14.1662      14.165895       0.13286
  15     218.7        0.0002        0.0002       13.6753       13.6755      13.675286       0.18627
  14     243.0        0.0002        0.0003       12.9913       12.9916      12.991364       0.23721
  13     269.0        0.0002        0.0003       12.0865       12.0868      12.086601       0.29350
  12     297.5        0.0002        0.0003       11.0209       11.0212      11.020974       0.31605
  11     328.5        0.0002        0.0003        9.9695        9.9698       9.969628       0.28586
  10     361.9        0.0001        0.0002        8.9402        8.9404       8.940294       0.26043
   9     398.1        0.0001        0.0002        7.9121        7.9124       7.912255       0.23951
   8     437.6        0.0001        0.0002        6.9128        6.9130       6.912879       0.21367
   7     480.5        0.0001        0.0002        6.0045        6.0047       6.004602       0.17838
   6     533.0        0.0001        0.0002        5.0469        5.0471       5.047066       0.15404
   5     589.8        0.0001        0.0002        4.1343        4.1345       4.134408       0.13547
   4     651.6        0.0001        0.0001        3.2085        3.2086       3.208567       0.12661
   3     718.7        0.0001        0.0001        2.3230        2.3231       2.323060       0.11128
   2     792.3        0.0001        0.0001        1.5041        1.5041       1.504066       0.09393
   1     891.5        0.0002        0.0000        0.7141        0.7142       0.713955       0.06723
   0    1013.0        0.0019        0.0000        0.1903        0.1903       0.188413       0.03649



 Wavenumbers:  4000. -  4650. cm-1, ATM      1
 LEVEL PRESSURE   UPWARD FLUX   DIFDOWN FLUX  DIRDOWN FLUX  DOWNWARD FLUX   NET FLUX    HEATING RATE
          mb          W/m2          W/m2          W/m2        W/m2          W/m2       degree/day
  51    .06700        1.2495        0.0000       20.5629       20.5629      19.313376       0.00000
  50    .07753        1.2495        0.0000       20.5629       20.5629      19.313375       0.00080
  49    .09103        1.2495        0.0000       20.5629       20.5629      19.313374       0.00078
  48    0.1069        1.2495        0.0000       20.5629       20.5629      19.313372       0.00076
  47    0.1255        1.2495        0.0000       20.5629       20.5629      19.313371       0.00075
  46    0.1487        1.2495        0.0000       20.5629       20.5629      19.313369       0.00076
  45    0.1794        1.2495        0.0000       20.5629       20.5629      19.313366       0.00078
  44    0.2165        1.2495        0.0000       20.5629       20.5629      19.313362       0.00076
  43    0.2613        1.2495        0.0000       20.5629       20.5629      19.313358       0.00075
  42    0.3336        1.2495        0.0000       20.5629       20.5629      19.313352       0.00077
  41    0.4307        1.2495        0.0000       20.5629       20.5629      19.313343       0.00077
  40    0.5894        1.2495        0.0000       20.5628       20.5628      19.313328       0.00080
  39     1.339        1.2495        0.0000       20.5627       20.5628      19.313239       0.00101
  38     1.782        1.2495        0.0000       20.5627       20.5627      19.313169       0.00133
  37     2.292        1.2495        0.0000       20.5626       20.5626      19.313075       0.00156
  36     2.964        1.2495        0.0000       20.5624       20.5624      19.312934       0.00176
  35     3.853        1.2495        0.0000       20.5622       20.5622      19.312726       0.00198
  34     5.035        1.2495        0.0000       20.5619       20.5619      19.312419       0.00219
  33     6.613        1.2495        0.0000       20.5614       20.5615      19.311967       0.00242
  32     8.786        1.2495        0.0000       20.5608       20.5608      19.311298       0.00260
  31     11.80        1.2495        0.0000       20.5597       20.5597      19.310246       0.00294
  30     15.07        1.2495        0.0001       20.5584       20.5585      19.309010       0.00319
  29     18.79        1.2495        0.0001       20.5569       20.5570      19.307512       0.00340
  28     23.16        1.2494        0.0001       20.5550       20.5551      19.305647       0.00361
  27     28.12        1.2494        0.0001       20.5527       20.5528      19.303382       0.00385
  26     33.73        1.2494        0.0001       20.5499       20.5500      19.300580       0.00421
  25     40.54        1.2494        0.0002       20.5460       20.5462      19.296765       0.00473
  24     48.69        1.2494        0.0002       20.5409       20.5410      19.291655       0.00529
  23     57.69        1.2494        0.0002       20.5347       20.5349      19.285565       0.00571
  22     68.43        1.2494        0.0003       20.5270       20.5273      19.277895       0.00603
  21     81.20        1.2493        0.0003       20.5174       20.5177      19.268391       0.00628
  20     96.49        1.2493        0.0004       20.5057       20.5061      19.256767       0.00642
  19     114.6        1.2493        0.0004       20.4911       20.4915      19.242161       0.00682
  18     136.5        1.2494        0.0005       20.4733       20.4738      19.224478       0.00680
  17     162.9        1.2494        0.0006       20.4515       20.4522      19.202739       0.00695
  16     196.4        1.2495        0.0007       20.4215       20.4222      19.172664       0.00757
  15     218.7        1.2497        0.0008       20.3984       20.3992      19.149486       0.00880
  14     243.0        1.2499        0.0009       20.3670       20.3679      19.117989       0.01092
  13     269.0        1.2503        0.0010       20.3225       20.3235      19.073183       0.01453
  12     297.5        1.2509        0.0011       20.2611       20.2622      19.011295       0.01836
  11     328.5        1.2518        0.0012       20.1854       20.1866      18.934872       0.02078
  10     361.9        1.2529        0.0013       20.0909       20.0923      18.839349       0.02417
   9     398.1        1.2543        0.0015       19.9678       19.9693      18.714933       0.02899
   8     437.6        1.2562        0.0016       19.8033       19.8049      18.548763       0.03553
   7     480.5        1.2584        0.0017       19.5934       19.5951      18.336657       0.04166
   6     533.0        1.2619        0.0019       19.2986       19.3004      18.038520       0.04796
   5     589.8        1.2668        0.0020       18.9494       18.9514      17.684608       0.05253
   4     651.6        1.2744        0.0022       18.5295       18.5317      17.257327       0.05843
   3     718.7        1.2863        0.0023       18.0248       18.0271      16.740778       0.06492
   2     792.3        1.3064        0.0024       17.3523       17.3547      16.048292       0.07942
   1     891.5        1.3541        0.0026       16.2629       16.2655      14.911378       0.09675
   0    1013.0        1.4803        0.0027       14.9639       14.9666      13.486277       0.09895



 Wavenumbers:  4650. -  5150. cm-1, ATM      1
 LEVEL PRESSURE   UPWARD FLUX   DIFDOWN FLUX  DIRDOWN FLUX  DOWNWARD FLUX   NET FLUX    HEATING RATE
          mb          W/m2          W/m2          W/m2        W/m2          W/m2       degree/day
  51    .06700        0.2465        0.0000       19.4637       19.4637      19.217242       0.00000
  50    .07753        0.2465        0.0000       19.4635       19.4635      19.217006       0.18922
  49    .09103        0.2465        0.0000       19.4632       19.4632      19.216710       0.18494
  48    0.1069        0.2465        0.0000       19.4629       19.4629      19.216371       0.18047
  47    0.1255        0.2465        0.0000       19.4625       19.4625      19.215983       0.17597
  46    0.1487        0.2465        0.0000       19.4620       19.4620      19.215495       0.17778
  45    0.1794        0.2465        0.0000       19.4613       19.4613      19.214833       0.18190
  44    0.2165        0.2465        0.0000       19.4606       19.4606      19.214054       0.17719
  43    0.2613        0.2465        0.0000       19.4596       19.4596      19.213139       0.17245
  42    0.3336        0.2465        0.0000       19.4581       19.4581      19.211643       0.17441
  41    0.4307        0.2465        0.0000       19.4562       19.4562      19.209692       0.16964
  40    0.5894        0.2465        0.0000       19.4531       19.4531      19.206583       0.16532
  39     1.339        0.2465        0.0000       19.4396       19.4396      19.193068       0.15216
  38     1.782        0.2465        0.0000       19.4325       19.4325      19.185971       0.13512
  37     2.292        0.2465        0.0000       19.4249       19.4250      19.178465       0.12430
  36     2.964        0.2465        0.0000       19.4161       19.4161      19.169621       0.11102
  35     3.853        0.2465        0.0000       19.4059       19.4059      19.159433       0.09669
  34     5.035        0.2465        0.0000       19.3945       19.3945      19.148067       0.08119
  33     6.613        0.2465        0.0000       19.3822       19.3822      19.135767       0.06576
  32     8.786        0.2465        0.0000       19.3691       19.3692      19.122725       0.05065
  31     11.80        0.2464        0.0001       19.3545       19.3545      19.108095       0.04096
  30     15.07        0.2464        0.0001       19.3412       19.3412      19.094812       0.03430
  29     18.79        0.2464        0.0001       19.3270       19.3271      19.080651       0.03211
  28     23.16        0.2464        0.0001       19.3101       19.3102      19.063808       0.03257
  27     28.12        0.2464        0.0002       19.2895       19.2897      19.043303       0.03486
  26     33.73        0.2463        0.0002       19.2646       19.2648      19.018489       0.03731
  25     40.54        0.2463        0.0002       19.2320       19.2322      18.985908       0.04042
  24     48.69        0.2463        0.0003       19.1894       19.1897      18.943415       0.04397
  23     57.69        0.2463        0.0003       19.1394       19.1397      18.893452       0.04683
  22     68.43        0.2462        0.0004       19.0764       19.0768      18.830575       0.04943
  21     81.20        0.2462        0.0004       18.9984       18.9988      18.752646       0.05149
  20     96.49        0.2461        0.0005       18.9035       18.9040      18.657853       0.05232
  19     114.6        0.2461        0.0006       18.7910       18.7916      18.545462       0.05248
  18     136.5        0.2461        0.0007       18.6609       18.6617      18.415596       0.04994
  17     162.9        0.2460        0.0009       18.5139       18.5148      18.268712       0.04695
  16     196.4        0.2460        0.0010       18.3374       18.3384      18.092393       0.04438
  15     218.7        0.2461        0.0011       18.2289       18.2300      17.983929       0.04118
  14     243.0        0.2461        0.0012       18.1147       18.1159      17.869844       0.03957
  13     269.0        0.2462        0.0014       17.9917       17.9931      17.746938       0.03987
  12     297.5        0.2463        0.0015       17.8545       17.8560      17.609667       0.04071
  11     328.5        0.2466        0.0016       17.7022       17.7038      17.457230       0.04145
  10     361.9        0.2469        0.0018       17.5308       17.5326      17.285676       0.04340
   9     398.1        0.2474        0.0019       17.3339       17.3359      17.088476       0.04594
   8     437.6        0.2480        0.0021       17.1042       17.1063      16.858274       0.04922
   7     480.5        0.2489        0.0022       16.8350       16.8372      16.588272       0.05303
   6     533.0        0.2503        0.0024       16.4690       16.4714      16.221089       0.05907
   5     589.8        0.2523        0.0026       16.0264       16.0290      15.776716       0.06596
   4     651.6        0.2553        0.0027       15.4763       15.4790      15.223727       0.07562
   3     718.7        0.2599        0.0029       14.8212       14.8240      14.564135       0.08289
   2     792.3        0.2670        0.0030       14.0683       14.0712      13.804229       0.08715
   1     891.5        0.2825        0.0031       13.0394       13.0424      12.759888       0.08887
   0    1013.0        0.3168        0.0031       11.9042       11.9074      11.590557       0.08119



 Wavenumbers:  5150. -  6150. cm-1, ATM      1
 LEVEL PRESSURE   UPWARD FLUX   DIFDOWN FLUX  DIRDOWN FLUX  DOWNWARD FLUX   NET FLUX    HEATING RATE
          mb          W/m2          W/m2          W/m2        W/m2          W/m2       degree/day
  51    .06700        2.8856        0.0000       48.7957       48.7957      45.910116       0.00000
  50    .07753        2.8856        0.0000       48.7956       48.7956      45.910077       0.03157
  49    .09103        2.8856        0.0000       48.7956       48.7956      45.910025       0.03206
  48    0.1069        2.8856        0.0000       48.7955       48.7955      45.909964       0.03257
  47    0.1255        2.8856        0.0000       48.7955       48.7955      45.909891       0.03307
  46    0.1487        2.8856        0.0000       48.7954       48.7954      45.909796       0.03485
  45    0.1794        2.8856        0.0000       48.7952       48.7952      45.909660       0.03710
  44    0.2165        2.8856        0.0000       48.7951       48.7951      45.909495       0.03768
  43    0.2613        2.8856        0.0000       48.7948       48.7949      45.909292       0.03827
  42    0.3336        2.8856        0.0000       48.7945       48.7945      45.908945       0.04045
  41    0.4307        2.8856        0.0000       48.7940       48.7940      45.908473       0.04103
  40    0.5894        2.8856        0.0000       48.7932       48.7932      45.907682       0.04208
  39     1.339        2.8855        0.0000       48.7894       48.7894      45.903854       0.04309
  38     1.782        2.8855        0.0000       48.7871       48.7871      45.901615       0.04264
  37     2.292        2.8855        0.0001       48.7845       48.7846      45.899070       0.04215
  36     2.964        2.8855        0.0001       48.7812       48.7813      45.895821       0.04078
  35     3.853        2.8855        0.0001       48.7771       48.7772      45.891667       0.03943
  34     5.035        2.8855        0.0001       48.7716       48.7717      45.886273       0.03853
  33     6.613        2.8854        0.0002       48.7645       48.7646      45.879202       0.03780
  32     8.786        2.8854        0.0002       48.7551       48.7553      45.869911       0.03608
  31     11.80        2.8854        0.0003       48.7421       48.7425      45.857107       0.03585
  30     15.07        2.8853        0.0004       48.7289       48.7293      45.843987       0.03387
  29     18.79        2.8852        0.0005       48.7147       48.7152      45.829960       0.03180
  28     23.16        2.8852        0.0006       48.6990       48.6997      45.814475       0.02994
  27     28.12        2.8851        0.0007       48.6821       48.6829      45.797757       0.02842
  26     33.73        2.8850        0.0009       48.6645       48.6654      45.780347       0.02618
  25     40.54        2.8849        0.0011       48.6447       48.6458      45.760876       0.02416
  24     48.69        2.8849        0.0013       48.6231       48.6244      45.739527       0.02209
  23     57.69        2.8848        0.0015       48.6011       48.6026      45.717838       0.02033
  22     68.43        2.8847        0.0018       48.5766       48.5785      45.693789       0.01891
  21     81.20        2.8846        0.0022       48.5491       48.5513      45.666730       0.01788
  20     96.49        2.8844        0.0026       48.5176       48.5202      45.635716       0.01712
  19     114.6        2.8843        0.0030       48.4808       48.4838      45.599507       0.01691
  18     136.5        2.8841        0.0036       48.4373       48.4409      45.556751       0.01644
  17     162.9        2.8840        0.0043       48.3717       48.3760      45.491986       0.02070
  16     196.4        2.8838        0.0052       48.2310       48.2362      45.352434       0.03513
  15     218.7        2.8837        0.0057       48.0275       48.0333      45.149597       0.07701
  14     243.0        2.8836        0.0063       47.6487       47.6550      44.771402       0.13117
  13     269.0        2.8836        0.0068       46.9533       46.9601      44.076515       0.22542
  12     297.5        2.8837        0.0074       45.8926       45.9000      43.016318       0.31444
  11     328.5        2.8839        0.0079       44.7499       44.7578      41.873921       0.31061
  10     361.9        2.8843        0.0085       43.5596       43.5681      40.683770       0.30112
   9     398.1        2.8849        0.0090       42.1918       42.2008      39.315811       0.31870
   8     437.6        2.8859        0.0094       40.5731       40.5825      37.696605       0.34620
   7     480.5        2.8874        0.0099       38.8070       38.8168      35.929455       0.34706
   6     533.0        2.8900        0.0104       36.6898       36.7001      33.810152       0.34093
   5     589.8        2.8943        0.0108       34.4960       34.5068      31.612549       0.32620
   4     651.6        2.9023        0.0113       32.2334       32.2447      29.342396       0.31045
   3     718.7        2.9166        0.0118       30.2116       30.2234      27.306824       0.25582
   2     792.3        2.9438        0.0124       28.5107       28.5231      25.579332       0.19812
   1     891.5        3.0181        0.0132       26.7750       26.7882      23.770099       0.15396
   0    1013.0        3.2538        0.0139       24.9336       24.9475      21.693697       0.14418



 Wavenumbers:  6150. -  7700. cm-1, ATM      1
 LEVEL PRESSURE   UPWARD FLUX   DIFDOWN FLUX  DIRDOWN FLUX  DOWNWARD FLUX   NET FLUX    HEATING RATE
          mb          W/m2          W/m2          W/m2        W/m2          W/m2       degree/day
  51    .06700        5.7674        0.0000       90.2495       90.2495      84.482126       0.00000
  50    .07753        5.7674        0.0000       90.2494       90.2494      84.482069       0.04554
  49    .09103        5.7674        0.0000       90.2493       90.2493      84.481995       0.04583
  48    0.1069        5.7673        0.0000       90.2493       90.2493      84.481909       0.04615
  47    0.1255        5.7673        0.0000       90.2491       90.2492      84.481806       0.04646
  46    0.1487        5.7673        0.0000       90.2490       90.2490      84.481673       0.04854
  45    0.1794        5.7673        0.0000       90.2488       90.2488      84.481486       0.05129
  44    0.2165        5.7673        0.0000       90.2486       90.2486      84.481259       0.05170
  43    0.2613        5.7673        0.0000       90.2483       90.2483      84.480982       0.05215
  42    0.3336        5.7673        0.0000       90.2478       90.2478      84.480513       0.05477
  41    0.4307        5.7673        0.0000       90.2472       90.2472      84.479877       0.05530
  40    0.5894        5.7673        0.0001       90.2461       90.2461      84.478815       0.05646
  39     1.339        5.7672        0.0001       90.2408       90.2409      84.473698       0.05760
  38     1.782        5.7672        0.0002       90.2377       90.2379      84.470705       0.05700
  37     2.292        5.7671        0.0003       90.2342       90.2344      84.467293       0.05650
  36     2.964        5.7671        0.0003       90.2297       90.2300      84.462915       0.05495
  35     3.853        5.7670        0.0004       90.2238       90.2243      84.457282       0.05346
  34     5.035        5.7669        0.0006       90.2162       90.2168      84.449936       0.05248
  33     6.613        5.7667        0.0007       90.2062       90.2070      84.440265       0.05170
  32     8.786        5.7665        0.0010       90.1930       90.1940      84.427482       0.04965
  31     11.80        5.7662        0.0013       90.1746       90.1759      84.409700       0.04978
  30     15.07        5.7659        0.0017       90.1555       90.1572      84.391257       0.04762
  29     18.79        5.7656        0.0021       90.1347       90.1368      84.371251       0.04536
  28     23.16        5.7652        0.0026       90.1114       90.1140      84.348824       0.04337
  27     28.12        5.7647        0.0032       90.0857       90.0889      84.324219       0.04183
  26     33.73        5.7642        0.0038       90.0585       90.0623      84.298118       0.03924
  25     40.54        5.7635        0.0046       90.0273       90.0319      84.268378       0.03690
  24     48.69        5.7627        0.0055       89.9923       89.9978      84.235016       0.03452
  23     57.69        5.7619        0.0065       89.9559       89.9624      84.200480       0.03237
  22     68.43        5.7609        0.0077       89.9146       89.9224      84.161502       0.03064
  21     81.20        5.7597        0.0092       89.8675       89.8767      84.117053       0.02937
  20     96.49        5.7582        0.0109       89.8128       89.8237      84.065493       0.02846
  19     114.6        5.7565        0.0129       89.7485       89.7614      84.004903       0.02829
  18     136.5        5.7545        0.0154       89.6719       89.6872      83.932776       0.02773
  17     162.9        5.7520        0.0182       89.5610       89.5792      83.827170       0.03376
  16     196.4        5.7489        0.0219       89.3326       89.3546      83.605634       0.05576
  15     218.7        5.7469        0.0243       89.0078       89.0321      83.285137       0.12168
  14     243.0        5.7449        0.0268       88.4244       88.4512      82.706360       0.20074
  13     269.0        5.7428        0.0293       87.4769       87.5062      81.763409       0.30589
  12     297.5        5.7409        0.0317       85.9565       85.9882      80.247289       0.44966
  11     328.5        5.7393        0.0341       84.0391       84.0732      78.333915       0.52024
  10     361.9        5.7380        0.0366       81.8940       81.9306      76.192554       0.54179
   9     398.1        5.7374        0.0390       79.5482       79.5871      73.849678       0.54584
   8     437.6        5.7380        0.0411       76.8475       76.8886      71.150640       0.57707
   7     480.5        5.7402        0.0432       73.7630       73.8061      68.065884       0.60583
   6     533.0        5.7461        0.0453       69.8611       69.9063      64.160208       0.62830
   5     589.8        5.7583        0.0470       65.6267       65.6738      59.915491       0.63006
   4     651.6        5.7838        0.0483       60.8791       60.9274      55.143643       0.65256
   3     718.7        5.8323        0.0493       56.0705       56.1198      50.287475       0.61029
   2     792.3        5.9263        0.0500       51.3189       51.3689      45.442563       0.55566
   1     891.5        6.1793        0.0506       45.7589       45.8095      39.630260       0.49460
   0    1013.0        6.9662        0.0514       40.4305       40.4819      33.515756       0.42456



 Wavenumbers:  7700. -  8050. cm-1, ATM      1
 LEVEL PRESSURE   UPWARD FLUX   DIFDOWN FLUX  DIRDOWN FLUX  DOWNWARD FLUX   NET FLUX    HEATING RATE
          mb          W/m2          W/m2          W/m2        W/m2          W/m2       degree/day
  51    .06700        9.3717        0.0000       21.3286       21.3286      11.956899       0.00000
  50    .07753        9.3717        0.0000       21.3286       21.3286      11.956875       0.01951
  49    .09103        9.3718        0.0000       21.3286       21.3286      11.956844       0.01912
  48    0.1069        9.3718        0.0000       21.3286       21.3286      11.956809       0.01872
  47    0.1255        9.3718        0.0000       21.3285       21.3285      11.956769       0.01832
  46    0.1487        9.3718        0.0000       21.3285       21.3285      11.956718       0.01859
  45    0.1794        9.3718        0.0000       21.3284       21.3285      11.956648       0.01913
  44    0.2165        9.3718        0.0000       21.3284       21.3284      11.956566       0.01877
  43    0.2613        9.3719        0.0000       21.3283       21.3283      11.956468       0.01842
  42    0.3336        9.3719        0.0000       21.3282       21.3282      11.956306       0.01884
  41    0.4307        9.3720        0.0000       21.3280       21.3280      11.956092       0.01864
  40    0.5894        9.3720        0.0000       21.3278       21.3278      11.955742       0.01862
  39     1.339        9.3725        0.0001       21.3265       21.3266      11.954085       0.01865
  38     1.782        9.3727        0.0001       21.3257       21.3258      11.953111       0.01853
  37     2.292        9.3730        0.0001       21.3249       21.3250      11.951984       0.01867
  36     2.964        9.3734        0.0002       21.3237       21.3239      11.950504       0.01858
  35     3.853        9.3739        0.0002       21.3223       21.3225      11.948548       0.01856
  34     5.035        9.3746        0.0003       21.3203       21.3206      11.945949       0.01857
  33     6.613        9.3756        0.0004       21.3176       21.3180      11.942475       0.01857
  32     8.786        9.3768        0.0006       21.3140       21.3146      11.937791       0.01819
  31     11.80        9.3786        0.0007       21.3089       21.3097      11.931088       0.01877
  30     15.07        9.3805        0.0010       21.3034       21.3044      11.923887       0.01859
  29     18.79        9.3827        0.0012       21.2972       21.2984      11.915749       0.01845
  28     23.16        9.3852        0.0015       21.2900       21.2915      11.906239       0.01839
  27     28.12        9.3882        0.0018       21.2817       21.2835      11.895359       0.01849
  26     33.73        9.3914        0.0021       21.2725       21.2746      11.883180       0.01831
  25     40.54        9.3954        0.0026       21.2613       21.2639      11.868462       0.01826
  24     48.69        9.4003        0.0031       21.2479       21.2510      11.850716       0.01836
  23     57.69        9.4056        0.0037       21.2332       21.2368      11.831221       0.01827
  22     68.43        9.4120        0.0043       21.2157       21.2200      11.808003       0.01825
  21     81.20        9.4197        0.0051       21.1949       21.2001      11.780347       0.01827
  20     96.49        9.4290        0.0061       21.1703       21.1764      11.747402       0.01818
  19     114.6        9.4400        0.0072       21.1411       21.1483      11.708304       0.01826
  18     136.5        9.4534        0.0086       21.1067       21.1153      11.661987       0.01781
  17     162.9        9.4694        0.0102       21.0661       21.0763      11.606862       0.01762
  16     196.4        9.4907        0.0123       21.0138       21.0261      11.535410       0.01799
  15     218.7        9.5049        0.0137       20.9796       20.9933      11.488467       0.01782
  14     243.0        9.5205        0.0152       20.9427       20.9579      11.437364       0.01772
  13     269.0        9.5378        0.0168       20.9028       20.9196      11.381808       0.01802
  12     297.5        9.5569        0.0185       20.8598       20.8783      11.321422       0.01791
  11     328.5        9.5781        0.0204       20.8134       20.8338      11.255708       0.01787
  10     361.9        9.6015        0.0225       20.7633       20.7858      11.184265       0.01808
   9     398.1        9.6277        0.0247       20.7093       20.7340      11.106338       0.01816
   8     437.6        9.6569        0.0270       20.6509       20.6779      11.021004       0.01824
   7     480.5        9.6898        0.0296       20.5876       20.6172      10.927356       0.01839
   6     533.0        9.7327        0.0327       20.5083       20.5409      10.808297       0.01915
   5     589.8        9.7826        0.0361       20.4200       20.4560      10.673448       0.02002
   4     651.6        9.8425        0.0397       20.3192       20.3589      10.516342       0.02148
   3     718.7        9.9160        0.0435       20.2021       20.2457      10.329662       0.02346
   2     792.3       10.0095        0.0476       20.0620       20.1096      10.100115       0.02633
   1     891.5       10.1682        0.0530       19.8434       19.8964       9.728239       0.03164
   0    1013.0       10.4243        0.0594       19.5335       19.5929       9.168520       0.03886



 Wavenumbers:  8050. - 12850. cm-1, ATM      1
 LEVEL PRESSURE   UPWARD FLUX   DIFDOWN FLUX  DIRDOWN FLUX  DOWNWARD FLUX   NET FLUX    HEATING RATE
          mb          W/m2          W/m2          W/m2        W/m2          W/m2       degree/day
  51    .06700      173.9688        0.0000      298.6167      298.6167     124.647826       0.00000
  50    .07753      173.9688        0.0000      298.6166      298.6167     124.647826      -0.00000
  49    .09103      173.9688        0.0001      298.6166      298.6167     124.647826       0.00000
  48    0.1069      173.9688        0.0001      298.6165      298.6167     124.647826       0.00000
  47    0.1255      173.9688        0.0002      298.6164      298.6167     124.647826      -0.00000
  46    0.1487      173.9688        0.0003      298.6163      298.6166     124.647826       0.00000
  45    0.1794      173.9688        0.0004      298.6162      298.6166     124.647826      -0.00000
  44    0.2165      173.9688        0.0005      298.6161      298.6166     124.647826       0.00000
  43    0.2613      173.9688        0.0007      298.6159      298.6166     124.647826       0.00000
  42    0.3336      173.9687        0.0010      298.6156      298.6166     124.647826      -0.00000
  41    0.4307      173.9687        0.0013      298.6152      298.6165     124.647826      -0.00000
  40    0.5894      173.9687        0.0019      298.6146      298.6165     124.647826       0.00000
  39     1.339      173.9684        0.0046      298.6117      298.6162     124.647826       0.00000
  38     1.782      173.9682        0.0061      298.6099      298.6160     124.647826       0.00000
  37     2.292      173.9680        0.0079      298.6079      298.6158     124.647826      -0.00000
  36     2.964      173.9678        0.0103      298.6053      298.6156     124.647826       0.00000
  35     3.853      173.9674        0.0135      298.6018      298.6153     124.647826       0.00000
  34     5.035      173.9670        0.0177      298.5971      298.6148     124.647826       0.00000
  33     6.613      173.9664        0.0233      298.5909      298.6143     124.647826      -0.00000
  32     8.786      173.9656        0.0309      298.5826      298.6135     124.647826       0.00000
  31     11.80      173.9645        0.0418      298.5706      298.6123     124.647826       0.00000
  30     15.07      173.9633        0.0534      298.5577      298.6111     124.647826       0.00000
  29     18.79      173.9619        0.0666      298.5431      298.6098     124.647826       0.00000
  28     23.16      173.9603        0.0821      298.5261      298.6082     124.647826      -0.00000
  27     28.12      173.9585        0.0997      298.5066      298.6063     124.647826      -0.00000
  26     33.73      173.9565        0.1195      298.4848      298.6043     124.647826       0.00000
  25     40.54      173.9540        0.1435      298.4583      298.6018     124.647826      -0.00000
  24     48.69      173.9510        0.1724      298.4264      298.5988     124.647826       0.00000
  23     57.69      173.9477        0.2042      298.3913      298.5955     124.647826       0.00000
  22     68.43      173.9437        0.2422      298.3494      298.5916     124.647826      -0.00000
  21     81.20      173.9390        0.2875      298.2994      298.5869     124.647826       0.00000
  20     96.49      173.9334        0.3416      298.2396      298.5812     124.647826       0.00000
  19     114.6      173.9271        0.4060      298.1625      298.5685     124.641430       0.00299
  18     136.5      173.9195        0.4824      298.0706      298.5530     124.633492       0.00305
  17     162.9      173.9106        0.5737      297.9572      298.5309     124.620332       0.00421
  16     196.4      173.8992        0.6925      297.7933      298.4858     124.586600       0.00849
  15     218.7      173.8921        0.7706      297.6446      298.4152     124.523144       0.02409
  14     243.0      173.8855        0.8556      297.3992      298.2548     124.369396       0.05333
  13     269.0      173.8809        0.9477      296.9778      297.9255     124.044688       0.10533
  12     297.5      173.8810        1.0470      296.3126      297.3597     123.478639       0.16788
  11     328.5      173.8878        1.1543      295.4614      296.6157     122.727870       0.20413
  10     361.9      173.9048        1.2697      294.4349      295.7046     121.799831       0.23480
   9     398.1      173.9380        1.3935      293.1850      294.5785     120.640492       0.27010
   8     437.6      173.9977        1.5256      291.6006      293.1262     119.128518       0.32327
   7     480.5      174.0959        1.6661      289.5976      291.2637     117.167764       0.38508
   6     533.0      174.2818        1.8371      286.6827      288.5198     114.237962       0.47131
   5     589.8      174.6015        2.0180      282.8877      284.9057     110.304218       0.58390
   4     651.6      175.1962        2.2056      277.6589      279.8646     104.668357       0.77072
   3     718.7      176.2542        2.3990      270.9757      273.3746      97.120423       0.94857
   2     792.3      178.1994        2.5940      262.6810      265.2750      87.075581       1.15203
   1     891.5      183.1198        2.8362      250.3819      253.2182      70.098363       1.44468
   0    1013.0      196.2356        3.1023      235.3052      238.4076      42.171936       1.93908



 Wavenumbers: 12850. - 16000. cm-1, ATM      1
 LEVEL PRESSURE   UPWARD FLUX   DIFDOWN FLUX  DIRDOWN FLUX  DOWNWARD FLUX   NET FLUX    HEATING RATE
          mb          W/m2          W/m2          W/m2        W/m2          W/m2       degree/day
  51    .06700      154.0891        0.0000      187.1097      187.1097      33.020659       0.00000
  50    .07753      154.0891        0.0001      187.1089      187.1090      33.019848       0.65018
  49    .09103      154.0892        0.0002      187.1078      187.1080      33.018821       0.64202
  48    0.1069      154.0892        0.0003      187.1065      187.1069      33.017629       0.63431
  47    0.1255      154.0893        0.0005      187.1051      187.1056      33.016245       0.62744
  46    0.1487      154.0895        0.0007      187.1033      187.1040      33.014477       0.64472
  45    0.1794      154.0897        0.0010      187.1008      187.1017      33.012035       0.67023
  44    0.2165      154.0900        0.0013      187.0978      187.0991      33.009114       0.66462
  43    0.2613      154.0904        0.0017      187.0943      187.0960      33.005611       0.66018
  42    0.3336      154.0912        0.0023      187.0886      187.0909      32.999753       0.68297
  41    0.4307      154.0923        0.0031      187.0811      187.0843      32.991947       0.67873
  40    0.5894      154.0945        0.0045      187.0691      187.0736      32.979102       0.68311
  39     1.339      154.1107        0.0109      187.0146      187.0255      32.914820       0.72369
  38     1.782      154.1244        0.0146      186.9834      186.9980      32.873656       0.78369
  37     2.292      154.1442        0.0190      186.9471      186.9661      32.821855       0.85796
  36     2.964      154.1763        0.0247      186.8983      186.9230      32.746644       0.94413
  35     3.853      154.2273        0.0322      186.8316      186.8639      32.636587       1.04446
  34     5.035      154.3034        0.0423      186.7418      186.7841      32.480668       1.11382
  33     6.613      154.4094        0.0556      186.6240      186.6797      32.270313       1.12456
  32     8.786      154.5476        0.0737      186.4741      186.5478      32.000138       1.04926
  31     11.80      154.7288        0.0995      186.2773      186.3768      31.648013       0.98584
  30     15.07      154.9038        0.1272      186.0838      186.2110      31.307163       0.88001
  29     18.79      155.0842        0.1585      185.8805      186.0390      30.954844       0.79882
  28     23.16      155.2746        0.1951      185.6602      185.8553      30.580628       0.72361
  27     28.12      155.4689        0.2370      185.4279      185.6649      30.196005       0.65383
  26     33.73      155.6527        0.2839      185.1960      185.4799      29.827216       0.55448
  25     40.54      155.8357        0.3406      184.9479      185.2885      29.452799       0.46451
  24     48.69      156.0185        0.4091      184.6806      185.0897      29.071266       0.39483
  23     57.69      156.1825        0.4845      184.4182      184.9027      28.720220       0.32905
  22     68.43      156.3381        0.5744      184.1400      184.7144      28.376357       0.27032
  21     81.20      156.4688        0.6818      183.8556      184.5375      28.068612       0.20335
  20     96.49      156.5742        0.8102      183.5626      184.3728      27.798521       0.14907
  19     114.6      156.6988        0.9647      183.2414      184.2061      27.507305       0.13598
  18     136.5      156.8241        1.1482      182.8848      184.0330      27.208875       0.11475
  17     162.9      156.9530        1.3671      182.4825      183.8495      26.896581       0.09982
  16     196.4      157.0766        1.6516      181.9953      183.6468      26.570187       0.08216
  15     218.7      157.1424        1.8388      181.6850      183.5238      26.381392       0.07168
  14     243.0      157.2074        2.0425      181.3486      183.3912      26.183733       0.06856
  13     269.0      157.2720        2.2637      180.9829      183.2466      25.974568       0.06785
  12     297.5      157.3377        2.5032      180.5817      183.0850      25.747228       0.06743
  11     328.5      157.4093        2.7625      180.1400      182.9025      25.493247       0.06906
  10     361.9      157.4888        3.0422      179.6535      182.6958      25.206913       0.07245
   9     398.1      157.5801        3.3439      179.1164      182.4603      24.880201       0.07612
   8     437.6      157.6897        3.6687      178.5199      182.1886      24.498879       0.08153
   7     480.5      157.8242        4.0175      177.8575      181.8749      24.050774       0.08801
   6     533.0      158.0227        4.4478      177.0028      181.4506      23.427847       0.10021
   5     589.8      158.2984        4.9125      176.0158      180.9283      22.629877       0.11844
   4     651.6      158.7206        5.4118      174.8248      180.2366      21.515991       0.15233
   3     718.7      159.3389        5.9440      173.4022      179.3462      20.007341       0.18960
   2     792.3      160.3059        6.5053      171.6540      178.1593      17.853378       0.24704
   1     891.5      162.3567        7.2438      168.8958      176.1396      13.782848       0.34638
   0    1013.0      166.4558        8.1028      165.1348      173.2376       6.781805       0.48612



 Wavenumbers: 16000. - 22650. cm-1, ATM      1
 LEVEL PRESSURE   UPWARD FLUX   DIFDOWN FLUX  DIRDOWN FLUX  DOWNWARD FLUX   NET FLUX    HEATING RATE
          mb          W/m2          W/m2          W/m2        W/m2          W/m2       degree/day
  51    .06700      273.0374        0.0000      298.3258      298.3258      25.288338       0.00000
  50    .07753      273.0376        0.0005      298.3252      298.3257      25.288129       0.16775
  49    .09103      273.0378        0.0012      298.3245      298.3257      25.287825       0.19026
  48    0.1069      273.0382        0.0020      298.3236      298.3256      25.287417       0.21696
  47    0.1255      273.0386        0.0029      298.3226      298.3255      25.286872       0.24731
  46    0.1487      273.0392        0.0040      298.3212      298.3252      25.286068       0.29305
  45    0.1794      273.0401        0.0056      298.3193      298.3249      25.284811       0.34505
  44    0.2165      273.0413        0.0074      298.3170      298.3244      25.283106       0.38780
  43    0.2613      273.0429        0.0095      298.3141      298.3237      25.280793       0.43599
  42    0.3336      273.0459        0.0131      298.3092      298.3223      25.276395       0.51272
  41    0.4307      273.0503        0.0179      298.3022      298.3201      25.269766       0.57637
  40    0.5894      273.0587        0.0256      298.2902      298.3158      25.257124       0.67233
  39     1.339      273.1185        0.0623      298.2199      298.2822      25.163704       1.05174
  38     1.782      273.1685        0.0838      298.1688      298.2526      25.084103       1.51547
  37     2.292      273.2404        0.1087      298.1005      298.2092      24.968852       1.90885
  36     2.964      273.3562        0.1414      297.9968      298.1382      24.782079       2.34456
  35     3.853      273.5392        0.1846      297.8402      298.0248      24.485554       2.81408
  34     5.035      273.8122        0.2420      297.6130      297.8550      24.042800       3.16285
  33     6.613      274.1920        0.3186      297.3002      297.6188      23.426786       3.29321
  32     8.786      274.6882        0.4218      296.8904      297.3122      22.623970       3.11785
  31     11.80      275.3396        0.5694      296.3446      296.9140      21.574372       2.93854
  30     15.07      275.9708        0.7279      295.8053      296.5332      20.562389       2.61274
  29     18.79      276.6224        0.9070      295.2382      296.1452      19.522822       2.35702
  28     23.16      277.3126        1.1162      294.6243      295.7404      18.427870       2.11728
  27     28.12      278.0189        1.3555      293.9780      295.3335      17.314595       1.89249
  26     33.73      278.6903        1.6235      293.3330      294.9565      16.266246       1.57622
  25     40.54      279.3635        1.9477      292.6433      294.5910      15.227469       1.28872
  24     48.69      280.0411        2.3390      291.8984      294.2375      14.196353       1.06704
  23     57.69      280.6557        2.7693      291.1635      293.9328      13.277184       0.86158
  22     68.43      281.2475        3.2824      290.3771      293.6596      12.412100       0.68007
  21     81.20      281.7604        3.8950      289.5601      293.4551      11.694634       0.47409
  20     96.49      282.1931        4.6261      288.6972      293.3233      11.130191       0.31153
  19     114.6      282.6137        5.4944      287.7320      293.2263      10.612630       0.24166
  18     136.5      283.0492        6.5232      286.6280      293.1512      10.102074       0.19632
  17     162.9      283.5096        7.7477      285.3509      293.0987       9.589046       0.16398
  16     196.4      283.9821        9.3355      283.7725      293.1081       9.125946       0.11657
  15     218.7      284.2461       10.3779      282.7653      293.1431       8.897071       0.08690
  14     243.0      284.5109       11.5102      281.6847      293.1949       8.683968       0.07391
  13     269.0      284.7749       12.7367      280.5285      293.2652       8.490337       0.06281
  12     297.5      285.0379       14.0614      279.2934      293.3547       8.316852       0.05145
  11     328.5      285.3107       15.4919      277.9665      293.4583       8.147591       0.04602
  10     361.9      285.5936       17.0309      276.5454      293.5763       7.982772       0.04170
   9     398.1      285.8880       18.6862      275.0229      293.7091       7.821075       0.03767
   8     437.6      286.1975       20.4625      273.3928      293.8552       7.657745       0.03492
   7     480.5      286.5228       22.3652      271.6499      294.0151       7.492310       0.03249
   6     533.0      286.9190       24.7061      269.5074      294.2135       7.294470       0.03183
   5     589.8      287.3492       27.2281      267.1956      294.4237       7.074507       0.03265
   4     651.6      287.8288       29.9386      264.6973      294.6359       6.807089       0.03657
   3     718.7      288.3736       32.8459      261.9959      294.8418       6.468168       0.04259
   2     792.3      289.0202       35.9532      259.0661      295.0192       5.999004       0.05381
   1     891.5      290.0525       40.1345      255.0273      295.1618       5.109287       0.07571
   0    1013.0      291.5581       45.1353      250.0655      295.2009       3.642801       0.10183



 Wavenumbers: 22650. - 29000. cm-1, ATM      1
 LEVEL PRESSURE   UPWARD FLUX   DIFDOWN FLUX  DIRDOWN FLUX  DOWNWARD FLUX   NET FLUX    HEATING RATE
          mb          W/m2          W/m2          W/m2        W/m2          W/m2       degree/day
  51    .06700      111.7002        0.0000      112.5773      112.5773       0.877043       0.00000
  50    .07753      111.7003        0.0006      112.5767      112.5774       0.877043       0.00000
  49    .09103      111.7004        0.0014      112.5760      112.5775       0.877043       0.00000
  48    0.1069      111.7005        0.0023      112.5752      112.5776       0.877043      -0.00000
  47    0.1255      111.7007        0.0034      112.5743      112.5777       0.877043      -0.00000
  46    0.1487      111.7008        0.0047      112.5732      112.5779       0.877043       0.00000
  45    0.1794      111.7011        0.0065      112.5716      112.5781       0.877043       0.00000
  44    0.2165      111.7013        0.0087      112.5697      112.5784       0.877043      -0.00000
  43    0.2613      111.7017        0.0112      112.5675      112.5787       0.877043       0.00000
  42    0.3336      111.7022        0.0154      112.5638      112.5792       0.877043       0.00000
  41    0.4307      111.7029        0.0210      112.5590      112.5799       0.877043       0.00000
  40    0.5894      111.7040        0.0300      112.5510      112.5811       0.877043       0.00000
  39     1.339      111.7095        0.0731      112.5134      112.5865       0.877043      -0.00000
  38     1.782      111.7127        0.0983      112.4913      112.5897       0.877043       0.00000
  37     2.292      111.7163        0.1276      112.4658      112.5934       0.877043      -0.00000
  36     2.964      111.7212        0.1660      112.4322      112.5982       0.877043       0.00000
  35     3.853      111.7276        0.2168      112.3879      112.6046       0.877043      -0.00000
  34     5.035      111.7361        0.2842      112.3290      112.6131       0.877043       0.00000
  33     6.613      111.7475        0.3742      112.2503      112.6245       0.877043       0.00000
  32     8.786      111.7628        0.4956      112.1443      112.6398       0.877043      -0.00000
  31     11.80      111.7847        0.6691      111.9926      112.6617       0.877043       0.00000
  30     15.07      111.8082        0.8554      111.8299      112.6852       0.877043      -0.00000
  29     18.79      111.8347        1.0657      111.6461      112.7118       0.877043       0.00000
  28     23.16      111.8657        1.3111      111.4316      112.7428       0.877043       0.00000
  27     28.12      111.9011        1.5916      111.1865      112.7781       0.877043      -0.00000
  26     33.73      111.9407        1.9051      110.9126      112.8177       0.877043       0.00000
  25     40.54      111.9884        2.2833      110.5821      112.8654       0.877043       0.00000
  24     48.69      112.0458        2.7383      110.1845      112.9228       0.877043       0.00000
  23     57.69      112.1087        3.2370      109.7487      112.9857       0.877043       0.00000
  22     68.43      112.1833        3.8292      109.2312      113.0604       0.877043      -0.00000
  21     81.20      112.2720        4.5321      108.6169      113.1490       0.877043       0.00000
  20     96.49      112.3771        5.3659      107.8882      113.2541       0.877043       0.00000
  19     114.6      112.5011        6.3502      107.0279      113.3782       0.877043      -0.00000
  18     136.5      112.6471        7.5090      106.0151      113.5242       0.877043      -0.00000
  17     162.9      112.8195        8.8776      104.8189      113.6965       0.877043       0.00000
  16     196.4      113.0405       10.6338      103.2838      113.9176       0.877043      -0.00000
  15     218.7      113.1842       11.7758      102.2854      114.0613       0.877043       0.00000
  14     243.0      113.3391       13.0072      101.2089      114.2161       0.877043       0.00000
  13     269.0      113.5054       14.3300      100.0524      114.3825       0.877043       0.00000
  12     297.5      113.6834       15.7461       98.8143      114.5604       0.877043      -0.00000
  11     328.5      113.8736       17.2610       97.4897      114.7507       0.877043      -0.00000
  10     361.9      114.0762       18.8745       96.0787      114.9532       0.877043       0.00000
   9     398.1      114.2916       20.5911       94.5775      115.1686       0.877043       0.00000
   8     437.6      114.5198       22.4119       92.9850      115.3969       0.877043       0.00000
   7     480.5      114.7611       24.3380       91.3002      115.6382       0.877043      -0.00000
   6     533.0      115.0535       26.6735       89.2571      115.9305       0.877043       0.00000
   5     589.8      115.3630       29.1486       87.0914      116.2400       0.877043       0.00000
   4     651.6      115.6895       31.7626       84.8040      116.5665       0.877043      -0.00000
   3     718.7      116.0328       34.5145       82.3953      116.9098       0.877043       0.00000
   2     792.3      116.3922       37.3995       79.8697      117.2692       0.877043       0.00000
   1     891.5      116.8641       41.1946       76.5465      117.7411       0.877043      -0.00000
   0    1013.0      117.4113       45.6066       72.6818      118.2884       0.877043       0.00000



 Wavenumbers: 29000. - 38000. cm-1, ATM      1
 LEVEL PRESSURE   UPWARD FLUX   DIFDOWN FLUX  DIRDOWN FLUX  DOWNWARD FLUX   NET FLUX    HEATING RATE
          mb          W/m2          W/m2          W/m2        W/m2          W/m2       degree/day
  51    .06700       17.5802        0.0000       39.6994       39.6994      22.119185       0.00000
  50    .07753       17.5801        0.0004       39.6951       39.6955      22.115358       3.06752
  49    .09103       17.5800        0.0009       39.6889       39.6898      22.109788       3.48170
  48    0.1069       17.5799        0.0014       39.6808       39.6822      22.102325       3.97234
  47    0.1255       17.5797        0.0020       39.6701       39.6721      22.092336       4.52873
  46    0.1487       17.5796        0.0028       39.6544       39.6572      22.077619       5.36450
  45    0.1794       17.5794        0.0039       39.6302       39.6341      22.054646       6.30663
  44    0.2165       17.5793        0.0052       39.5977       39.6028      22.023576       7.06790
  43    0.2613       17.5791        0.0067       39.5541       39.5607      21.981606       7.91111
  42    0.3336       17.5791        0.0091       39.4724       39.4815      21.902477       9.22572
  41    0.4307       17.5791        0.0124       39.3517       39.3641      21.784973      10.21669
  40    0.5894       17.5797        0.0176       39.1290       39.1466      21.566891      11.59731
  39     1.339       17.5895        0.0405       37.7272       37.7677      20.178282      15.63322
  38     1.782       17.6000        0.0527       36.7932       36.8459      19.245865      17.75171
  37     2.292       17.6164        0.0660       35.7337       35.7997      18.183298      17.59889
  36     2.964       17.6441        0.0826       34.4834       34.5660      16.921881      15.83459
  35     3.853       17.6895        0.1037       33.1337       33.2375      15.547994      13.03844
  34     5.035       17.7583        0.1308       31.7759       31.9067      14.148389       9.99820
  33     6.613       17.8555        0.1660       30.4559       30.6220      12.766530       7.38742
  32     8.786       17.9839        0.2126       29.2069       29.4195      11.435630       5.16873
  31     11.80       18.1553        0.2782       27.9832       28.2613      10.106036       3.72244
  30     15.07       18.3257        0.3476       27.0492       27.3967       9.071075       2.67207
  29     18.79       18.5067        0.4249       26.2430       26.6679       8.161188       2.06299
  28     23.16       18.7052        0.5141       25.5054       26.0195       7.314257       1.63769
  27     28.12       18.9167        0.6153       24.8371       25.4524       6.535647       1.32358
  26     33.73       19.1256        0.7283       24.2529       24.9812       5.855564       1.02252
  25     40.54       19.3429        0.8651       23.6985       24.5636       5.220645       0.78769
  24     48.69       19.5706        1.0297       23.1583       24.1880       4.617435       0.62423
  23     57.69       19.7850        1.2105       22.6715       23.8820       4.096989       0.48784
  22     68.43       19.9984        1.4258       22.1902       23.6161       3.617705       0.37678
  21     81.20       20.1865        1.6842       21.7276       23.4118       3.225316       0.25928
  20     96.49       20.3450        1.9934       21.2703       23.2637       2.918690       0.16924
  19     114.6       20.4997        2.3571       20.7814       23.1385       2.638847       0.13067
  18     136.5       20.6617        2.7809       20.2433       23.0242       2.362464       0.10628
  17     162.9       20.8362        3.2770       19.6439       22.9210       2.084759       0.08877
  16     196.4       21.0149        3.9194       18.9359       22.8553       1.840331       0.06153
  15     218.7       21.1123        4.3266       18.4991       22.8256       1.713266       0.04824
  14     243.0       21.2096        4.7615       18.0418       22.8033       1.593675       0.04148
  13     269.0       21.3052        5.2242       17.5651       22.7894       1.484203       0.03551
  12     297.5       21.3983        5.7145       17.0696       22.7842       1.385834       0.02918
  11     328.5       21.4937        6.2317       16.5518       22.7835       1.289823       0.02611
  10     361.9       21.5910        6.7744       16.0133       22.7877       1.196697       0.02356
   9     398.1       21.6901        7.3424       15.4544       22.7968       1.106671       0.02097
   8     437.6       21.7919        7.9343       14.8758       22.8100       1.018170       0.01892
   7     480.5       21.8955        8.5490       14.2790       22.8280       0.932475       0.01683
   6     533.0       22.0167        9.2779       13.5759       22.8538       0.837090       0.01534
   5     589.8       22.1416       10.0303       12.8538       22.8841       0.742558       0.01403
   4     651.6       22.2708       10.8040       12.1149       22.9188       0.648048       0.01292
   3     718.7       22.4040       11.5930       11.3644       22.9574       0.553357       0.01190
   2     792.3       22.5413       12.3939       10.6061       22.9999       0.458678       0.01086
   1     891.5       22.7195       13.4069        9.6516       23.0585       0.338974       0.01019
   0    1013.0       22.9259       14.5258        8.6032       23.1290       0.203155       0.00943



 Wavenumbers: 38000. - 50000. cm-1, ATM      1
 LEVEL PRESSURE   UPWARD FLUX   DIFDOWN FLUX  DIRDOWN FLUX  DOWNWARD FLUX   NET FLUX    HEATING RATE
          mb          W/m2          W/m2          W/m2        W/m2          W/m2       degree/day
  51    .06700        0.0074        0.0000        2.4486        2.4486       2.441190       0.00000
  50    .07753        0.0074        0.0001        2.4462        2.4462       2.438852       1.87385
  49    .09103        0.0073        0.0002        2.4427        2.4428       2.435512       2.08768
  48    0.1069        0.0072        0.0003        2.4381        2.4384       2.431115       2.34048
  47    0.1255        0.0071        0.0004        2.4321        2.4325       2.425322       2.62623
  46    0.1487        0.0070        0.0005        2.4235        2.4240       2.416914       3.06494
  45    0.1794        0.0069        0.0007        2.4102        2.4108       2.403955       3.55742
  44    0.2165        0.0067        0.0009        2.3925        2.3934       2.386654       3.93563
  43    0.2613        0.0065        0.0012        2.3690        2.3701       2.363590       4.34750
  42    0.3336        0.0063        0.0015        2.3255        2.3270       2.320778       4.99154
  41    0.4307        0.0059        0.0020        2.2623        2.2643       2.258401       5.42350
  40    0.5894        0.0053        0.0027        2.1484        2.1511       2.145732       5.99159
  39     1.339        0.0035        0.0041        1.5115        1.5155       1.512023       7.13441
  38     1.782        0.0028        0.0039        1.1616        1.1655       1.162718       6.65020
  37     2.292        0.0022        0.0034        0.8378        0.8412       0.839022       5.36125
  36     2.964        0.0017        0.0028        0.5542        0.5570       0.555324       3.56128
  35     3.853        0.0013        0.0023        0.3504        0.3527       0.351377       1.93549
  34     5.035        0.0010        0.0018        0.2191        0.2210       0.219975       0.93868
  33     6.613        0.0008        0.0014        0.1358        0.1373       0.136524       0.44613
  32     8.786        0.0006        0.0012        0.0843        0.0855       0.084918       0.20042
  31     11.80        0.0004        0.0009        0.0507        0.0516       0.051201       0.09440
  30     15.07        0.0003        0.0007        0.0324        0.0331       0.032836       0.04742
  29     18.79        0.0002        0.0005        0.0207        0.0212       0.021029       0.02677
  28     23.16        0.0001        0.0004        0.0129        0.0133       0.013123       0.01529
  27     28.12        0.0001        0.0002        0.0079        0.0081       0.008035       0.00865
  26     33.73        0.0001        0.0002        0.0048        0.0050       0.004927       0.00467
  25     40.54        0.0000        0.0001        0.0028        0.0029       0.002909       0.00250
  24     48.69        0.0000        0.0001        0.0016        0.0017       0.001633       0.00132
  23     57.69        0.0000        0.0000        0.0009        0.0009       0.000912       0.00068
  22     68.43        0.0000        0.0000        0.0005        0.0005       0.000480       0.00034
  21     81.20        0.0000        0.0000        0.0002        0.0002       0.000239       0.00016
  20     96.49        0.0000        0.0000        0.0001        0.0001       0.000110       0.00007
  19     114.6        0.0000        0.0000        0.0000        0.0000       0.000045       0.00003
  18     136.5        0.0000        0.0000        0.0000        0.0000       0.000015       0.00001
  17     162.9        0.0000        0.0000        0.0000        0.0000       0.000004       0.00000
  16     196.4        0.0000        0.0000        0.0000        0.0000       0.000001       0.00000
  15     218.7        0.0000        0.0000        0.0000        0.0000       0.000000       0.00000
  14     243.0        0.0000        0.0000        0.0000        0.0000       0.000000       0.00000
  13     269.0        0.0000        0.0000        0.0000        0.0000       0.000000       0.00000
  12     297.5        0.0000        0.0000        0.0000        0.0000       0.000000       0.00000
  11     328.5        0.0000        0.0000        0.0000        0.0000       0.000000       0.00000
  10     361.9        0.0000        0.0000        0.0000        0.0000       0.000000       0.00000
   9     398.1        0.0000        0.0000        0.0000        0.0000       0.000000       0.00000
   8     437.6        0.0000        0.0000        0.0000        0.0000       0.000000       0.00000
   7     480.5        0.0000        0.0000        0.0000        0.0000       0.000000       0.00000
   6     533.0        0.0000        0.0000        0.0000        0.0000       0.000000       0.00000
   5     589.8        0.0000        0.0000        0.0000        0.0000       0.000000       0.00000
   4     651.6        0.0000        0.0000        0.0000        0.0000       0.000000       0.00000
   3     718.7        0.0000        0.0000        0.0000        0.0000       0.000000       0.00000
   2     792.3        0.0000        0.0000        0.0000        0.0000       0.000000       0.00000
   1     891.5        0.0000        0.0000        0.0000        0.0000       0.000000       0.00000
   0    1013.0        0.0000        0.0000        0.0000        0.0000       0.000000       0.00000



 Wavenumbers:   820. -  2600. cm-1, ATM      1
 LEVEL PRESSURE   UPWARD FLUX   DIFDOWN FLUX  DIRDOWN FLUX  DOWNWARD FLUX   NET FLUX    HEATING RATE
          mb          W/m2          W/m2          W/m2        W/m2          W/m2       degree/day
  51    .06700        0.0089        0.0000       11.4544       11.4544      11.445483       0.00000
  50    .07753        0.0089        0.0000       11.4480       11.4480      11.439136       5.08659
  49    .09103        0.0089        0.0000       11.4467       11.4467      11.437812       0.82796
  48    0.1069        0.0089        0.0000       11.4456       11.4456      11.436725       0.57876
  47    0.1255        0.0089        0.0000       11.4444       11.4444      11.435461       0.57275
  46    0.1487        0.0089        0.0000       11.4427       11.4427      11.433848       0.58793
  45    0.1794        0.0089        0.0000       11.4406       11.4406      11.431674       0.59696
  44    0.2165        0.0089        0.0000       11.4381       11.4381      11.429183       0.56657
  43    0.2613        0.0089        0.0000       11.4353       11.4353      11.426386       0.52728
  42    0.3336        0.0089        0.0000       11.4311       11.4311      11.422161       0.49260
  41    0.4307        0.0089        0.0000       11.4261       11.4261      11.417234       0.42840
  40    0.5894        0.0089        0.0000       11.4190       11.4190      11.410119       0.37837
  39     1.339        0.0089        0.0000       11.3879       11.3879      11.379038       0.34991
  38     1.782        0.0089        0.0000       11.3702       11.3702      11.361310       0.33752
  37     2.292        0.0089        0.0000       11.3503       11.3503      11.341415       0.32951
  36     2.964        0.0089        0.0000       11.3250       11.3250      11.316057       0.31832
  35     3.853        0.0089        0.0000       11.2924       11.2924      11.283464       0.30932
  34     5.035        0.0089        0.0000       11.2508       11.2508      11.241880       0.29706
  33     6.613        0.0089        0.0000       11.1984       11.1984      11.189521       0.27991
  32     8.786        0.0089        0.0000       11.1322       11.1322      11.123331       0.25706
  31     11.80        0.0089        0.0000       11.0441       11.0441      11.035241       0.24663
  30     15.07        0.0089        0.0000       10.9581       10.9581      10.949225       0.22208
  29     18.79        0.0089        0.0000       10.8743       10.8743      10.865418       0.19002
  28     23.16        0.0089        0.0000       10.7963       10.7963      10.787368       0.15092
  27     28.12        0.0089        0.0000       10.7305       10.7305      10.721650       0.11171
  26     33.73        0.0089        0.0000       10.6791       10.6791      10.670243       0.07729
  25     40.54        0.0089        0.0000       10.6358       10.6358      10.626871       0.05381
  24     48.69        0.0089        0.0000       10.5962       10.5962      10.587263       0.04099
  23     57.69        0.0089        0.0000       10.5576       10.5576      10.548690       0.03616
  22     68.43        0.0089        0.0000       10.5130       10.5130      10.504144       0.03502
  21     81.20        0.0089        0.0000       10.4610       10.4610      10.452094       0.03439
  20     96.49        0.0089        0.0000       10.3996       10.3996      10.390674       0.03390
  19     114.6        0.0089        0.0000       10.3265       10.3265      10.317586       0.03413
  18     136.5        0.0089        0.0000       10.2399       10.2399      10.230980       0.03330
  17     162.9        0.0089        0.0000       10.1281       10.1281      10.119189       0.03573
  16     196.4        0.0089        0.0000        9.9498        9.9498       9.940917       0.04487
  15     218.7        0.0089        0.0000        9.7757        9.7758       9.766877       0.06608
  14     243.0        0.0089        0.0000        9.5026        9.5026       9.493748       0.09473
  13     269.0        0.0089        0.0000        9.1401        9.1401       9.131212       0.11760
  12     297.5        0.0089        0.0000        8.7433        8.7433       8.734452       0.11767
  11     328.5        0.0089        0.0000        8.4005        8.4005       8.391622       0.09321
  10     361.9        0.0089        0.0000        8.0479        8.0479       8.039014       0.08921
   9     398.1        0.0089        0.0000        7.6349        7.6349       7.625996       0.09622
   8     437.6        0.0090        0.0000        7.1674        7.1674       7.158487       0.09996
   7     480.5        0.0090        0.0000        6.7179        6.7179       6.708934       0.08829
   6     533.0        0.0090        0.0000        6.3047        6.3047       6.295669       0.06648
   5     589.8        0.0091        0.0000        6.0073        6.0073       5.998241       0.04415
   4     651.6        0.0092        0.0000        5.7286        5.7286       5.719402       0.03813
   3     718.7        0.0094        0.0000        5.3943        5.3944       5.384954       0.04203
   2     792.3        0.0098        0.0000        4.9859        4.9860       4.976138       0.04689
   1     891.5        0.0108        0.0000        4.4183        4.4183       4.407508       0.04839
   0    1013.0        0.0135        0.0000        3.7481        3.7481       3.734636       0.04672

  Modules and versions used in this calculation:

       rrtmg_sw.1col.f90:  $Revision$                    rrtmg_sw_init.f90:  $Revision$        
     rrtmgsw_cldprop.f90:  $Revision$                  rrtmgsw_cldprmc.f90:  NOT USED          
     rrtmg_sw_reftra.f90:  $Revision$                  rrtmg_sw_spcvrt.f90:  NOT USED          
     rrtmg_sw_spcvmc.f90:  NOT USED                    rrtmgsw_setcoef.f90:  NOT USED          
     rrtmg_sw_taumol.f90:  $Revision$                  rrtmg_sw_vrtqdr.f90:  NOT USED          
                rrtatm.f:  NOT USED                             util_xxx.f:  NOT USED          
                 extra.f:  NOT USED                       rrtmg_sw_k_g.f90:  $Revision$        

