

 Wavenumbers:   820. - 50000. cm-1, ATM      1
 LEVEL PRESSURE   UPWARD FLUX   DIFDOWN FLUX  DIRDOWN FLUX  DOWNWARD FLUX   NET FLUX    HEATING RATE
          mb          W/m2          W/m2          W/m2        W/m2          W/m2       degree/day
  51    .06700      660.6692        0.0000     1042.4709     1042.4709     381.801678       0.00000
  50    .07753      660.6692        0.0016     1042.4505     1042.4522     381.782917      15.03689
  49    .09103      660.6693        0.0037     1042.4320     1042.4357     381.766458      10.28746
  48    0.1069      660.6694        0.0061     1042.4110     1042.4171     381.747757       9.95445
  47    0.1255      660.6695        0.0088     1042.3858     1042.3946     381.725073      10.28409
  46    0.1487      660.6698        0.0122     1042.3515     1042.3637     381.693874      11.37219
  45    0.1794      660.6704        0.0169     1042.3009     1042.3179     381.647484      12.73530
  44    0.2165      660.6713        0.0225     1042.2360     1042.2585     381.587219      13.70917
  43    0.2613      660.6725        0.0290     1042.1521     1042.1811     381.508587      14.82186
  42    0.3336      660.6751        0.0398     1042.0005     1042.0404     381.365229      16.71413
  41    0.4307      660.6793        0.0541     1041.7840     1041.8381     381.158769      17.95119
  40    0.5894      660.6878        0.0772     1041.3977     1041.4750     380.787199      19.75963
  39     1.339      660.7572        0.1830     1039.1756     1039.3586     378.601447      24.60760
  38     1.782      660.8189        0.2428     1037.8231     1038.0659     377.247014      25.78621
  37     2.292      660.9096        0.3111     1036.3812     1036.6923     375.782752      24.25199
  36     2.964      661.0579        0.3999     1034.7656     1035.1655     374.107609      21.02811
  35     3.853      661.2947        0.5165     1033.0468     1033.5634     372.268691      17.45167
  34     5.035      661.6496        0.6708     1031.2499     1031.9207     370.271091      14.27003
  33     6.613      662.1450        0.8762     1029.3665     1030.2426     368.097603      11.61947
  32     8.786      662.7934        1.1521     1027.3830     1028.5351     365.741744       9.14930
  31     11.80      663.6460        1.5456     1025.1486     1026.6942     363.048160       7.54119
  30     15.07      664.4748        1.9670     1023.1785     1025.1455     360.670773       6.13795
  29     18.79      665.3335        2.4418     1021.2576     1023.6993     358.365846       5.22598
  28     23.16      666.2474        2.9951     1019.2885     1022.2836     356.036189       4.50480
  27     28.12      667.1879        3.6266     1017.2956     1020.9222     353.734294       3.91307
  26     33.73      668.0860        4.3329     1015.3444     1019.6774     351.591334       3.22200
  25     40.54      668.9899        5.1857     1013.2678     1018.4535     349.463518       2.63980
  24     48.69      669.9034        6.2126     1011.0235     1017.2361     347.332698       2.20507
  23     57.69      670.7344        7.3392     1008.7896     1016.1288     345.394412       1.81685
  22     68.43      671.5351        8.6792     1006.3599     1015.0391     343.504038       1.48609
  21     81.20      672.2233       10.2751     1003.7502     1014.0253     341.802033       1.12466
  20     96.49      672.7933       12.1744     1000.8952     1013.0696     340.276283       0.84210
  19     114.6      673.3613       14.4208      997.6356     1012.0565     338.695155       0.73828
  18     136.5      673.9445       17.0667      993.8942     1010.9609     337.016383       0.64553
  17     162.9      674.5579       20.2015      989.5120     1009.7135     335.155528       0.59480
  16     196.4      675.1693       24.2227      983.8102     1008.0329     332.863583       0.57691
  15     218.7      675.5043       26.8427      979.6563     1006.4989     330.994642       0.70957
  14     243.0      675.8394       29.6704      974.5156     1004.1860     328.346574       0.91844
  13     269.0      676.1743       32.7118      968.0356     1000.7474     324.573114       1.22409
  12     297.5      676.5134       35.9719      960.0381      996.0100     319.496571       1.50565
  11     328.5      676.8753       39.4633      951.2558      990.7191     313.843851       1.53696
  10     361.9      677.2655       43.1867      941.7786      984.9654     307.699815       1.55450
   9     398.1      677.6949       47.1538      931.3462      978.5000     300.805058       1.60632
   8     437.6      678.1832       51.3671      919.6553      971.0225     292.839268       1.70314
   7     480.5      678.7484       55.8321      906.8347      962.6668     283.918379       1.75203
   6     533.0      679.5337       61.2562      890.8800      952.1363     272.602545       1.82036
   5     589.8      680.5598       67.0164      873.3127      940.3292     259.769357       1.90487
   4     651.6      682.0508       73.1097      853.1997      926.3093     244.258553       2.12114
   3     718.7      684.2662       79.5337      831.2008      910.7345     226.468286       2.23574
   2     792.3      687.8220       86.2741      807.2067      893.4808     205.658816       2.38661
   1     891.5      695.8670       95.1425      774.8393      869.9818     174.114758       2.68425
   0    1013.0      715.1290      105.4614      737.3868      842.8482     127.719270       3.22148



 Wavenumbers:  2600. -  3250. cm-1, ATM      1
 LEVEL PRESSURE   UPWARD FLUX   DIFDOWN FLUX  DIRDOWN FLUX  DOWNWARD FLUX   NET FLUX    HEATING RATE
          mb          W/m2          W/m2          W/m2        W/m2          W/m2       degree/day
  51    .06700        1.9879        0.0000        9.1877        9.1877       7.199777       0.00000
  50    .07753        1.9879        0.0000        9.1877        9.1877       7.199769       0.00640
  49    .09103        1.9879        0.0000        9.1877        9.1877       7.199758       0.00627
  48    0.1069        1.9879        0.0000        9.1877        9.1877       7.199747       0.00613
  47    0.1255        1.9879        0.0000        9.1877        9.1877       7.199734       0.00600
  46    0.1487        1.9879        0.0000        9.1877        9.1877       7.199717       0.00608
  45    0.1794        1.9879        0.0000        9.1876        9.1876       7.199694       0.00625
  44    0.2165        1.9879        0.0000        9.1876        9.1876       7.199667       0.00613
  43    0.2613        1.9879        0.0000        9.1876        9.1876       7.199635       0.00601
  42    0.3336        1.9879        0.0000        9.1875        9.1875       7.199582       0.00618
  41    0.4307        1.9879        0.0000        9.1875        9.1875       7.199511       0.00622
  40    0.5894        1.9879        0.0000        9.1873        9.1873       7.199391       0.00639
  39     1.339        1.9879        0.0000        9.1866        9.1866       7.198677       0.00804
  38     1.782        1.9879        0.0000        9.1861        9.1861       7.198125       0.01051
  37     2.292        1.9879        0.0000        9.1853        9.1853       7.197391       0.01216
  36     2.964        1.9879        0.0000        9.1843        9.1843       7.196314       0.01351
  35     3.853        1.9879        0.0000        9.1827        9.1827       7.194757       0.01477
  34     5.035        1.9879        0.0000        9.1805        9.1805       7.192542       0.01583
  33     6.613        1.9879        0.0000        9.1774        9.1774       7.189442       0.01657
  32     8.786        1.9879        0.0000        9.1731        9.1731       7.185195       0.01650
  31     11.80        1.9879        0.0000        9.1672        9.1672       7.179223       0.01672
  30     15.07        1.9879        0.0000        9.1611        9.1611       7.173128       0.01574
  29     18.79        1.9879        0.0000        9.1547        9.1547       7.166784       0.01438
  28     23.16        1.9880        0.0000        9.1480        9.1480       7.160082       0.01296
  27     28.12        1.9880        0.0000        9.1411        9.1411       7.153169       0.01175
  26     33.73        1.9880        0.0000        9.1337        9.1337       7.145775       0.01112
  25     40.54        1.9880        0.0000        9.1248        9.1248       7.136813       0.01112
  24     48.69        1.9880        0.0000        9.1136        9.1136       7.125655       0.01155
  23     57.69        1.9880        0.0000        9.1006        9.1006       7.112578       0.01226
  22     68.43        1.9881        0.0000        9.0838        9.0838       7.095736       0.01324
  21     81.20        1.9881        0.0000        9.0621        9.0622       7.074041       0.01434
  20     96.49        1.9882        0.0000        9.0346        9.0347       7.046481       0.01521
  19     114.6        1.9883        0.0001        8.9995        8.9995       7.011217       0.01647
  18     136.5        1.9885        0.0001        8.9568        8.9569       6.968396       0.01647
  17     162.9        1.9887        0.0001        8.9057        8.9058       6.917089       0.01640
  16     196.4        1.9891        0.0001        8.8401        8.8402       6.851060       0.01662
  15     218.7        1.9896        0.0001        8.7947        8.7948       6.805196       0.01741
  14     243.0        1.9903        0.0001        8.7394        8.7395       6.749168       0.01943
  13     269.0        1.9915        0.0001        8.6703        8.6705       6.678997       0.02276
  12     297.5        1.9932        0.0001        8.5859        8.5861       6.592901       0.02554
  11     328.5        1.9955        0.0001        8.4910        8.4912       6.495610       0.02645
  10     361.9        1.9988        0.0002        8.3843        8.3844       6.385652       0.02782
   9     398.1        2.0032        0.0002        8.2588        8.2590       6.255842       0.03024
   8     437.6        2.0092        0.0002        8.1038        8.1040       6.094812       0.03443
   7     480.5        2.0173        0.0002        7.9095        7.9097       5.892384       0.03976
   6     533.0        2.0303        0.0002        7.6309        7.6311       5.600779       0.04691
   5     589.8        2.0497        0.0002        7.2805        7.2807       5.230943       0.05490
   4     651.6        2.0806        0.0002        6.8468        6.8470       4.766382       0.06353
   3     718.7        2.1290        0.0002        6.3689        6.3691       4.240080       0.06614
   2     792.3        2.2097        0.0002        5.8473        5.8476       3.637882       0.06907
   1     891.5        2.3997        0.0002        5.1244        5.1246       2.724882       0.07769
   0    1013.0        2.9053        0.0002        4.2873        4.2875       1.382272       0.09322



 Wavenumbers:  3250. -  4000. cm-1, ATM      1
 LEVEL PRESSURE   UPWARD FLUX   DIFDOWN FLUX  DIRDOWN FLUX  DOWNWARD FLUX   NET FLUX    HEATING RATE
          mb          W/m2          W/m2          W/m2        W/m2          W/m2       degree/day
  51    .06700        0.0014        0.0000       15.4892       15.4892      15.487773       0.00000
  50    .07753        0.0014        0.0000       15.4837       15.4837      15.482336       4.35817
  49    .09103        0.0014        0.0000       15.4791       15.4791      15.477708       2.89263
  48    0.1069        0.0014        0.0000       15.4754       15.4754      15.474007       1.97004
  47    0.1255        0.0014        0.0000       15.4722       15.4722      15.470808       1.45012
  46    0.1487        0.0014        0.0000       15.4689       15.4689      15.467529       1.19534
  45    0.1794        0.0014        0.0000       15.4651       15.4651      15.463711       1.04800
  44    0.2165        0.0014        0.0000       15.4611       15.4611      15.459743       0.90271
  43    0.2613        0.0014        0.0000       15.4569       15.4569      15.455569       0.78685
  42    0.3336        0.0014        0.0000       15.4510       15.4510      15.449615       0.69420
  41    0.4307        0.0014        0.0000       15.4444       15.4444      15.443009       0.57437
  40    0.5894        0.0014        0.0000       15.4353       15.4353      15.433948       0.48183
  39     1.339        0.0014        0.0000       15.4018       15.4018      15.400450       0.37713
  38     1.782        0.0014        0.0000       15.3860       15.3860      15.384671       0.30041
  37     2.292        0.0014        0.0000       15.3704       15.3704      15.369060       0.25856
  36     2.964        0.0014        0.0000       15.3528       15.3528      15.351410       0.22156
  35     3.853        0.0014        0.0000       15.3324       15.3324      15.331020       0.19351
  34     5.035        0.0014        0.0000       15.3079       15.3079      15.306557       0.17475
  33     6.613        0.0014        0.0000       15.2771       15.2771      15.275699       0.16497
  32     8.786        0.0014        0.0000       15.2356       15.2356      15.234216       0.16111
  31     11.80        0.0014        0.0000       15.1742       15.1743      15.172898       0.17167
  30     15.07        0.0014        0.0000       15.1057       15.1057      15.104383       0.17689
  29     18.79        0.0014        0.0000       15.0256       15.0257      15.024319       0.18153
  28     23.16        0.0013        0.0000       14.9302       14.9302      14.928900       0.18451
  27     28.12        0.0013        0.0000       14.8209       14.8210      14.819614       0.18578
  26     33.73        0.0013        0.0000       14.7017       14.7017      14.700410       0.17923
  25     40.54        0.0013        0.0001       14.5654       14.5654      14.564083       0.16913
  24     48.69        0.0013        0.0001       14.4154       14.4154      14.414115       0.15519
  23     57.69        0.0013        0.0001       14.2673       14.2674      14.266092       0.13875
  22     68.43        0.0013        0.0001       14.1078       14.1079      14.106607       0.12538
  21     81.20        0.0013        0.0001       13.9319       13.9320      13.930730       0.11622
  20     96.49        0.0013        0.0001       13.7310       13.7311      13.729884       0.11085
  19     114.6        0.0012        0.0001       13.4881       13.4883      13.487053       0.11338
  18     136.5        0.0012        0.0002       13.2079       13.2081      13.206852       0.10774
  17     162.9        0.0012        0.0002       12.8729       12.8731      12.871906       0.10706
  16     196.4        0.0011        0.0002       12.3889       12.3891      12.387969       0.12181
  15     218.7        0.0011        0.0002       11.9392       11.9395      11.938338       0.17071
  14     243.0        0.0011        0.0003       11.3153       11.3156      11.314494       0.21637
  13     269.0        0.0011        0.0003       10.4992       10.4995      10.498397       0.26474
  12     297.5        0.0011        0.0003        9.5500        9.5502       9.549185       0.28153
  11     328.5        0.0010        0.0003        8.6130        8.6133       8.612249       0.25475
  10     361.9        0.0010        0.0002        7.6889        7.6891       7.688094       0.23382
   9     398.1        0.0010        0.0002        6.7745        6.7747       6.773687       0.21304
   8     437.6        0.0010        0.0002        5.8978        5.8980       5.897020       0.18744
   7     480.5        0.0010        0.0002        5.1057        5.1060       5.104933       0.15556
   6     533.0        0.0010        0.0002        4.2702        4.2704       4.269346       0.13442
   5     589.8        0.0011        0.0002        3.4736        3.4738       3.472679       0.11825
   4     651.6        0.0013        0.0001        2.6654        2.6656       2.664259       0.11055
   3     718.7        0.0017        0.0001        1.8917        1.8918       1.890074       0.09729
   2     792.3        0.0027        0.0001        1.1914        1.1915       1.188756       0.08043
   1     891.5        0.0084        0.0000        0.5303        0.5303       0.521885       0.05675
   0    1013.0        0.0812        0.0000        0.1198        0.1198       0.038632       0.03355



 Wavenumbers:  4000. -  4650. cm-1, ATM      1
 LEVEL PRESSURE   UPWARD FLUX   DIFDOWN FLUX  DIRDOWN FLUX  DOWNWARD FLUX   NET FLUX    HEATING RATE
          mb          W/m2          W/m2          W/m2        W/m2          W/m2       degree/day
  51    .06700        7.4840        0.0000       18.1889       18.1889      10.704971       0.00000
  50    .07753        7.4840        0.0000       18.1889       18.1889      10.704970       0.00080
  49    .09103        7.4840        0.0000       18.1889       18.1889      10.704969       0.00078
  48    0.1069        7.4840        0.0000       18.1889       18.1889      10.704968       0.00076
  47    0.1255        7.4840        0.0000       18.1889       18.1889      10.704966       0.00075
  46    0.1487        7.4840        0.0000       18.1889       18.1889      10.704964       0.00076
  45    0.1794        7.4840        0.0000       18.1889       18.1889      10.704961       0.00078
  44    0.2165        7.4840        0.0000       18.1889       18.1889      10.704958       0.00076
  43    0.2613        7.4840        0.0000       18.1889       18.1889      10.704954       0.00075
  42    0.3336        7.4840        0.0000       18.1889       18.1889      10.704947       0.00077
  41    0.4307        7.4840        0.0000       18.1889       18.1889      10.704938       0.00077
  40    0.5894        7.4840        0.0000       18.1889       18.1889      10.704923       0.00080
  39     1.339        7.4840        0.0000       18.1888       18.1888      10.704834       0.00101
  38     1.782        7.4840        0.0000       18.1887       18.1887      10.704764       0.00133
  37     2.292        7.4840        0.0000       18.1886       18.1886      10.704670       0.00156
  36     2.964        7.4840        0.0000       18.1885       18.1885      10.704530       0.00176
  35     3.853        7.4840        0.0000       18.1883       18.1883      10.704321       0.00198
  34     5.035        7.4840        0.0000       18.1880       18.1880      10.704014       0.00220
  33     6.613        7.4840        0.0000       18.1875       18.1875      10.703561       0.00242
  32     8.786        7.4840        0.0000       18.1868       18.1869      10.702892       0.00260
  31     11.80        7.4840        0.0001       18.1857       18.1858      10.701838       0.00295
  30     15.07        7.4840        0.0001       18.1845       18.1846      10.700599       0.00320
  29     18.79        7.4840        0.0001       18.1830       18.1831      10.699097       0.00341
  28     23.16        7.4840        0.0001       18.1811       18.1812      10.697227       0.00362
  27     28.12        7.4840        0.0001       18.1788       18.1789      10.694955       0.00386
  26     33.73        7.4840        0.0002       18.1759       18.1761      10.692144       0.00423
  25     40.54        7.4840        0.0002       18.1721       18.1723      10.688312       0.00475
  24     48.69        7.4840        0.0003       18.1670       18.1672      10.683179       0.00531
  23     57.69        7.4841        0.0003       18.1609       18.1612      10.677056       0.00574
  22     68.43        7.4842        0.0004       18.1532       18.1535      10.669339       0.00607
  21     81.20        7.4844        0.0004       18.1437       18.1441      10.659764       0.00633
  20     96.49        7.4846        0.0005       18.1321       18.1326      10.648035       0.00647
  19     114.6        7.4849        0.0006       18.1176       18.1182      10.633264       0.00690
  18     136.5        7.4854        0.0007       18.1000       18.1007      10.615329       0.00690
  17     162.9        7.4861        0.0008       18.0785       18.0793      10.593193       0.00708
  16     196.4        7.4874        0.0010       18.0488       18.0498      10.562389       0.00775
  15     218.7        7.4886        0.0011       18.0260       18.0272      10.538555       0.00905
  14     243.0        7.4904        0.0012       17.9954       17.9966      10.506217       0.01122
  13     269.0        7.4931        0.0014       17.9523       17.9536      10.460534       0.01482
  12     297.5        7.4971        0.0015       17.8934       17.8949      10.397812       0.01860
  11     328.5        7.5027        0.0017       17.8208       17.8225      10.319839       0.02120
  10     361.9        7.5099        0.0018       17.7294       17.7313      10.221350       0.02492
   9     398.1        7.5189        0.0020       17.6100       17.6120      10.093111       0.02988
   8     437.6        7.5302        0.0022       17.4516       17.4538       9.923585       0.03625
   7     480.5        7.5443        0.0024       17.2523       17.2547       9.710338       0.04188
   6     533.0        7.5654        0.0026       16.9774       16.9800       9.414517       0.04759
   5     589.8        7.5949        0.0028       16.6573       16.6601       9.065199       0.05185
   4     651.6        7.6400        0.0031       16.2727       16.2758       8.635746       0.05873
   3     718.7        7.7106        0.0033       15.7999       15.8032       8.092525       0.06827
   2     792.3        7.8284        0.0035       15.1649       15.1684       7.339994       0.08631
   1     891.5        8.1048        0.0037       14.1612       14.1649       6.060094       0.10891
   0    1013.0        8.8116        0.0040       12.9994       13.0034       4.191837       0.12972



 Wavenumbers:  4650. -  5150. cm-1, ATM      1
 LEVEL PRESSURE   UPWARD FLUX   DIFDOWN FLUX  DIRDOWN FLUX  DOWNWARD FLUX   NET FLUX    HEATING RATE
          mb          W/m2          W/m2          W/m2        W/m2          W/m2       degree/day
  51    .06700        5.3877        0.0000       17.2167       17.2167      11.828974       0.00000
  50    .07753        5.3877        0.0000       17.2165       17.2165      11.828738       0.18919
  49    .09103        5.3877        0.0000       17.2162       17.2162      11.828442       0.18484
  48    0.1069        5.3877        0.0000       17.2158       17.2158      11.828103       0.18030
  47    0.1255        5.3877        0.0000       17.2154       17.2154      11.827715       0.17572
  46    0.1487        5.3877        0.0000       17.2149       17.2149      11.827229       0.17743
  45    0.1794        5.3877        0.0000       17.2143       17.2143      11.826568       0.18141
  44    0.2165        5.3877        0.0000       17.2135       17.2135      11.825792       0.17655
  43    0.2613        5.3877        0.0000       17.2126       17.2126      11.824881       0.17164
  42    0.3336        5.3877        0.0000       17.2111       17.2111      11.823395       0.17333
  41    0.4307        5.3877        0.0000       17.2092       17.2092      11.821460       0.16822
  40    0.5894        5.3877        0.0000       17.2061       17.2061      11.818387       0.16342
  39     1.339        5.3877        0.0000       17.1929       17.1929      11.805169       0.14880
  38     1.782        5.3877        0.0000       17.1860       17.1860      11.798325       0.13031
  37     2.292        5.3877        0.0000       17.1789       17.1789      11.791164       0.11861
  36     2.964        5.3877        0.0000       17.1705       17.1705      11.782833       0.10457
  35     3.853        5.3877        0.0000       17.1611       17.1611      11.773399       0.08953
  34     5.035        5.3877        0.0000       17.1507       17.1507      11.763038       0.07402
  33     6.613        5.3877        0.0000       17.1397       17.1397      11.752028       0.05886
  32     8.786        5.3877        0.0001       17.1281       17.1282      11.740468       0.04489
  31     11.80        5.3877        0.0001       17.1150       17.1151      11.727404       0.03657
  30     15.07        5.3878        0.0001       17.1028       17.1029      11.715190       0.03153
  29     18.79        5.3878        0.0001       17.0894       17.0895      11.701736       0.03051
  28     23.16        5.3878        0.0002       17.0730       17.0732      11.685337       0.03171
  27     28.12        5.3879        0.0002       17.0528       17.0530      11.665112       0.03438
  26     33.73        5.3880        0.0002       17.0283       17.0285      11.640518       0.03698
  25     40.54        5.3882        0.0003       16.9961       16.9964      11.608220       0.04007
  24     48.69        5.3884        0.0004       16.9542       16.9546      11.566194       0.04349
  23     57.69        5.3886        0.0004       16.9052       16.9056      11.516964       0.04615
  22     68.43        5.3890        0.0005       16.8439       16.8444      11.455342       0.04844
  21     81.20        5.3895        0.0006       16.7684       16.7690      11.379457       0.05014
  20     96.49        5.3903        0.0007       16.6773       16.6780      11.287741       0.05062
  19     114.6        5.3913        0.0008       16.5705       16.5713      11.180016       0.05030
  18     136.5        5.3927        0.0010       16.4485       16.4495      11.056759       0.04740
  17     162.9        5.3947        0.0012       16.3121       16.3133      10.918561       0.04417
  16     196.4        5.3978        0.0014       16.1505       16.1519      10.754076       0.04140
  15     218.7        5.4002        0.0015       16.0516       16.0531      10.652927       0.03840
  14     243.0        5.4034        0.0017       15.9476       15.9493      10.545939       0.03711
  13     269.0        5.4077        0.0019       15.8352       15.8371      10.429362       0.03782
  12     297.5        5.4138        0.0021       15.7086       15.7107      10.296877       0.03929
  11     328.5        5.4217        0.0023       15.5670       15.5692      10.147480       0.04062
  10     361.9        5.4320        0.0025       15.4062       15.4087       9.976683       0.04321
   9     398.1        5.4453        0.0027       15.2201       15.2228       9.777475       0.04641
   8     437.6        5.4626        0.0029       15.0017       15.0046       9.541994       0.05035
   7     480.5        5.4850        0.0031       14.7447       14.7478       9.262869       0.05482
   6     533.0        5.5189        0.0034       14.3963       14.3997       8.880759       0.06147
   5     589.8        5.5658        0.0037       13.9772       13.9809       8.415089       0.06912
   4     651.6        5.6344        0.0039       13.4621       13.4661       7.831645       0.07979
   3     718.7        5.7361        0.0042       12.8570       12.8612       7.125116       0.08879
   2     792.3        5.8923        0.0044       12.1737       12.1780       6.285789       0.09626
   1     891.5        6.2254        0.0046       11.2525       11.2571       5.031721       0.10672
   0    1013.0        6.9413        0.0049       10.2382       10.2431       3.301816       0.12012



 Wavenumbers:  5150. -  6150. cm-1, ATM      1
 LEVEL PRESSURE   UPWARD FLUX   DIFDOWN FLUX  DIRDOWN FLUX  DOWNWARD FLUX   NET FLUX    HEATING RATE
          mb          W/m2          W/m2          W/m2        W/m2          W/m2       degree/day
  51    .06700       13.1278        0.0000       43.1623       43.1623      30.034553       0.00000
  50    .07753       13.1278        0.0000       43.1623       43.1623      30.034514       0.03162
  49    .09103       13.1278        0.0000       43.1622       43.1622      30.034463       0.03211
  48    0.1069       13.1278        0.0000       43.1622       43.1622      30.034401       0.03262
  47    0.1255       13.1278        0.0000       43.1621       43.1621      30.034328       0.03312
  46    0.1487       13.1278        0.0000       43.1620       43.1620      30.034232       0.03490
  45    0.1794       13.1278        0.0000       43.1619       43.1619      30.034097       0.03715
  44    0.2165       13.1278        0.0000       43.1617       43.1617      30.033931       0.03772
  43    0.2613       13.1278        0.0000       43.1615       43.1615      30.033728       0.03831
  42    0.3336       13.1278        0.0000       43.1611       43.1611      30.033381       0.04049
  41    0.4307       13.1278        0.0000       43.1607       43.1607      30.032909       0.04106
  40    0.5894       13.1278        0.0000       43.1599       43.1599      30.032117       0.04211
  39     1.339       13.1277        0.0000       43.1560       43.1560      30.028288       0.04311
  38     1.782       13.1277        0.0001       43.1537       43.1538      30.026048       0.04264
  37     2.292       13.1277        0.0001       43.1512       43.1513      30.023504       0.04214
  36     2.964       13.1277        0.0001       43.1479       43.1480      30.020256       0.04076
  35     3.853       13.1278        0.0001       43.1437       43.1439      30.016106       0.03939
  34     5.035       13.1278        0.0002       43.1383       43.1385      30.010722       0.03846
  33     6.613       13.1278        0.0002       43.1312       43.1314      30.003670       0.03770
  32     8.786       13.1278        0.0003       43.1219       43.1222      29.994419       0.03593
  31     11.80       13.1278        0.0004       43.1091       43.1095      29.981698       0.03562
  30     15.07       13.1279        0.0005       43.0961       43.0966      29.968693       0.03358
  29     18.79       13.1279        0.0006       43.0821       43.0828      29.954824       0.03145
  28     23.16       13.1280        0.0008       43.0668       43.0676      29.939555       0.02953
  27     28.12       13.1281        0.0009       43.0503       43.0512      29.923116       0.02794
  26     33.73       13.1283        0.0011       43.0332       43.0343      29.906033       0.02568
  25     40.54       13.1285        0.0014       43.0141       43.0154      29.886959       0.02366
  24     48.69       13.1288        0.0016       42.9932       42.9948      29.866067       0.02162
  23     57.69       13.1291        0.0019       42.9721       42.9740      29.844864       0.01987
  22     68.43       13.1296        0.0023       42.9488       42.9510      29.821413       0.01844
  21     81.20       13.1302        0.0027       42.9226       42.9253      29.795060       0.01741
  20     96.49       13.1310        0.0032       42.8927       42.8959      29.764901       0.01665
  19     114.6       13.1319        0.0038       42.8579       42.8617      29.729799       0.01639
  18     136.5       13.1331        0.0045       42.8170       42.8215      29.688452       0.01590
  17     162.9       13.1345        0.0054       42.7556       42.7610      29.626515       0.01980
  16     196.4       13.1364        0.0065       42.6255       42.6320      29.495523       0.03297
  15     218.7       13.1378        0.0072       42.4373       42.4445      29.306646       0.07171
  14     243.0       13.1395        0.0079       42.0772       42.0851      28.945619       0.12522
  13     269.0       13.1415        0.0086       41.4080       41.4167      28.275170       0.21749
  12     297.5       13.1442        0.0094       40.4153       40.4247      27.280535       0.29500
  11     328.5       13.1474        0.0101       39.3711       39.3813      26.233816       0.28460
  10     361.9       13.1516        0.0109       38.2712       38.2821      25.130501       0.27915
   9     398.1       13.1568        0.0116       36.9936       37.0052      23.848384       0.29870
   8     437.6       13.1637        0.0124       35.5013       35.5136      22.349896       0.32039
   7     480.5       13.1727        0.0131       33.8979       33.9110      20.738244       0.31652
   6     533.0       13.1871        0.0139       31.9949       32.0088      18.821690       0.30831
   5     589.8       13.2090        0.0148       30.0510       30.0658      16.856776       0.29166
   4     651.6       13.2466        0.0156       28.0832       28.0988      14.852195       0.27413
   3     718.7       13.3116        0.0166       26.3547       26.3713      13.059762       0.22526
   2     792.3       13.4314        0.0177       24.9127       24.9304      11.499020       0.17900
   1     891.5       13.7502        0.0190       23.3962       23.4152       9.665055       0.15606
   0    1013.0       14.7369        0.0205       21.7246       21.7451       7.008238       0.18448



 Wavenumbers:  6150. -  7700. cm-1, ATM      1
 LEVEL PRESSURE   UPWARD FLUX   DIFDOWN FLUX  DIRDOWN FLUX  DOWNWARD FLUX   NET FLUX    HEATING RATE
          mb          W/m2          W/m2          W/m2        W/m2          W/m2       degree/day
  51    .06700       19.7285        0.0000       79.8304       79.8304      60.101852       0.00000
  50    .07753       19.7285        0.0000       79.8303       79.8303      60.101795       0.04553
  49    .09103       19.7285        0.0000       79.8302       79.8302      60.101722       0.04583
  48    0.1069       19.7285        0.0000       79.8301       79.8301      60.101635       0.04615
  47    0.1255       19.7285        0.0000       79.8300       79.8300      60.101533       0.04646
  46    0.1487       19.7285        0.0000       79.8299       79.8299      60.101399       0.04853
  45    0.1794       19.7285        0.0000       79.8297       79.8297      60.101213       0.05129
  44    0.2165       19.7285        0.0000       79.8295       79.8295      60.100985       0.05170
  43    0.2613       19.7285        0.0000       79.8292       79.8292      60.100709       0.05214
  42    0.3336       19.7285        0.0000       79.8287       79.8287      60.100239       0.05476
  41    0.4307       19.7285        0.0000       79.8280       79.8281      60.099603       0.05528
  40    0.5894       19.7285        0.0001       79.8269       79.8270      60.098542       0.05644
  39     1.339       19.7284        0.0002       79.8217       79.8218      60.093429       0.05756
  38     1.782       19.7284        0.0002       79.8186       79.8188      60.090439       0.05693
  37     2.292       19.7283        0.0003       79.8151       79.8154      60.087032       0.05642
  36     2.964       19.7283        0.0004       79.8106       79.8109      60.082663       0.05484
  35     3.853       19.7282        0.0005       79.8047       79.8053      60.077044       0.05332
  34     5.035       19.7281        0.0007       79.7972       79.7979      60.069722       0.05231
  33     6.613       19.7280        0.0009       79.7872       79.7881      60.060092       0.05148
  32     8.786       19.7279        0.0012       79.7741       79.7752      60.047380       0.04937
  31     11.80       19.7276        0.0016       79.7558       79.7574      60.029726       0.04942
  30     15.07       19.7274        0.0020       79.7368       79.7388      60.011454       0.04718
  29     18.79       19.7271        0.0025       79.7163       79.7188      59.991675       0.04485
  28     23.16       19.7268        0.0031       79.6932       79.6963      59.969553       0.04278
  27     28.12       19.7264        0.0038       79.6680       79.6718      59.945342       0.04116
  26     33.73       19.7260        0.0045       79.6412       79.6457      59.919727       0.03851
  25     40.54       19.7255        0.0054       79.6107       79.6161      59.890619       0.03611
  24     48.69       19.7249        0.0065       79.5765       79.5830      59.858064       0.03369
  23     57.69       19.7243        0.0077       79.5410       79.5487      59.824463       0.03150
  22     68.43       19.7235        0.0092       79.5010       79.5101      59.786652       0.02972
  21     81.20       19.7226        0.0109       79.4553       79.4662      59.743668       0.02840
  20     96.49       19.7214        0.0129       79.4024       79.4153      59.693893       0.02747
  19     114.6       19.7201        0.0153       79.3405       79.3558      59.635688       0.02718
  18     136.5       19.7186        0.0182       79.2670       79.2852      59.566631       0.02655
  17     162.9       19.7168        0.0216       79.1609       79.1826      59.465831       0.03222
  16     196.4       19.7145        0.0261       78.9444       78.9705      59.255994       0.05282
  15     218.7       19.7131        0.0289       78.6410       78.6699      58.956738       0.11362
  14     243.0       19.7119        0.0319       78.0979       78.1298      58.417873       0.18690
  13     269.0       19.7110        0.0349       77.1949       77.2299      57.518813       0.29165
  12     297.5       19.7110        0.0379       75.7395       75.7775      56.066453       0.43075
  11     328.5       19.7121        0.0410       73.9445       73.9855      54.273481       0.48750
  10     361.9       19.7147        0.0441       71.9728       72.0170      52.302250       0.49874
   9     398.1       19.7199        0.0473       69.8133       69.8606      50.140682       0.50360
   8     437.6       19.7291        0.0503       67.3063       67.3565      47.627489       0.53734
   7     480.5       19.7439        0.0531       64.4603       64.5134      44.769490       0.56130
   6     533.0       19.7721        0.0563       60.9165       60.9728      41.200701       0.57410
   5     589.8       19.8211        0.0593       57.1055       57.1648      37.343640       0.57251
   4     651.6       19.9139        0.0618       52.8761       52.9379      33.024013       0.59072
   3     718.7       20.0821        0.0641       48.6308       48.6949      28.612832       0.55436
   2     792.3       20.3981        0.0661       44.4516       44.5177      24.119634       0.51532
   1     891.5       21.2283        0.0685       39.5699       39.6384      18.410091       0.48585
   0    1013.0       23.7106        0.0712       34.9086       34.9798      11.269203       0.49583



 Wavenumbers:  7700. -  8050. cm-1, ATM      1
 LEVEL PRESSURE   UPWARD FLUX   DIFDOWN FLUX  DIRDOWN FLUX  DOWNWARD FLUX   NET FLUX    HEATING RATE
          mb          W/m2          W/m2          W/m2        W/m2          W/m2       degree/day
  51    .06700       10.4839        0.0000       18.8663       18.8663       8.382361       0.00000
  50    .07753       10.4839        0.0000       18.8663       18.8663       8.382336       0.02006
  49    .09103       10.4839        0.0000       18.8662       18.8662       8.382304       0.01966
  48    0.1069       10.4840        0.0000       18.8662       18.8662       8.382268       0.01925
  47    0.1255       10.4840        0.0000       18.8662       18.8662       8.382226       0.01884
  46    0.1487       10.4840        0.0000       18.8661       18.8662       8.382174       0.01912
  45    0.1794       10.4840        0.0000       18.8661       18.8661       8.382102       0.01967
  44    0.2165       10.4840        0.0000       18.8660       18.8660       8.382018       0.01930
  43    0.2613       10.4841        0.0000       18.8660       18.8660       8.381917       0.01894
  42    0.3336       10.4841        0.0000       18.8658       18.8659       8.381751       0.01938
  41    0.4307       10.4842        0.0000       18.8657       18.8657       8.381530       0.01917
  40    0.5894       10.4843        0.0000       18.8654       18.8654       8.381170       0.01915
  39     1.339       10.4848        0.0001       18.8641       18.8642       8.379467       0.01918
  38     1.782       10.4850        0.0001       18.8634       18.8635       8.378466       0.01906
  37     2.292       10.4854        0.0001       18.8625       18.8627       8.377307       0.01919
  36     2.964       10.4858        0.0002       18.8614       18.8616       8.375785       0.01911
  35     3.853       10.4864        0.0003       18.8599       18.8602       8.373774       0.01909
  34     5.035       10.4871        0.0003       18.8579       18.8582       8.371101       0.01909
  33     6.613       10.4882        0.0004       18.8553       18.8557       8.367530       0.01909
  32     8.786       10.4896        0.0006       18.8517       18.8523       8.362715       0.01870
  31     11.80       10.4915        0.0008       18.8466       18.8474       8.355824       0.01929
  30     15.07       10.4937        0.0010       18.8411       18.8421       8.348422       0.01911
  29     18.79       10.4961        0.0012       18.8349       18.8361       8.340057       0.01897
  28     23.16       10.4989        0.0015       18.8277       18.8292       8.330284       0.01890
  27     28.12       10.5022        0.0019       18.8194       18.8213       8.319104       0.01900
  26     33.73       10.5058        0.0022       18.8102       18.8124       8.306591       0.01881
  25     40.54       10.5103        0.0027       18.7991       18.8017       8.291472       0.01876
  24     48.69       10.5156        0.0032       18.7857       18.7889       8.273244       0.01886
  23     57.69       10.5216        0.0038       18.7710       18.7748       8.253225       0.01876
  22     68.43       10.5287        0.0045       18.7536       18.7581       8.229389       0.01874
  21     81.20       10.5372        0.0054       18.7329       18.7382       8.201003       0.01876
  20     96.49       10.5475        0.0064       18.7083       18.7147       8.167200       0.01866
  19     114.6       10.5598        0.0076       18.6794       18.6869       8.127097       0.01873
  18     136.5       10.5746        0.0090       18.6452       18.6542       8.079610       0.01826
  17     162.9       10.5924        0.0107       18.6049       18.6156       8.023115       0.01806
  16     196.4       10.6160        0.0128       18.5531       18.5659       7.949925       0.01842
  15     218.7       10.6317        0.0143       18.5193       18.5336       7.901860       0.01825
  14     243.0       10.6491        0.0158       18.4828       18.4986       7.849552       0.01814
  13     269.0       10.6683        0.0175       18.4434       18.4610       7.792701       0.01844
  12     297.5       10.6894        0.0193       18.4010       18.4204       7.730923       0.01832
  11     328.5       10.7129        0.0213       18.3553       18.3766       7.663709       0.01828
  10     361.9       10.7389        0.0234       18.3061       18.3295       7.590644       0.01849
   9     398.1       10.7678        0.0257       18.2530       18.2787       7.510953       0.01857
   8     437.6       10.8002        0.0282       18.1957       18.2239       7.423679       0.01866
   7     480.5       10.8365        0.0308       18.1336       18.1644       7.327893       0.01881
   6     533.0       10.8839        0.0341       18.0559       18.0900       7.206107       0.01959
   5     589.8       10.9391        0.0376       17.9696       18.0072       7.068135       0.02048
   4     651.6       11.0052        0.0414       17.8712       17.9126       6.907367       0.02199
   3     718.7       11.0862        0.0454       17.7571       17.8025       6.716307       0.02401
   2     792.3       11.1891        0.0497       17.6210       17.6707       6.481656       0.02691
   1     891.5       11.3631        0.0553       17.4089       17.4642       6.101115       0.03238
   0    1013.0       11.6426        0.0619       17.1096       17.1715       5.528879       0.03973



 Wavenumbers:  8050. - 12850. cm-1, ATM      1
 LEVEL PRESSURE   UPWARD FLUX   DIFDOWN FLUX  DIRDOWN FLUX  DOWNWARD FLUX   NET FLUX    HEATING RATE
          mb          W/m2          W/m2          W/m2        W/m2          W/m2       degree/day
  51    .06700      126.3905        0.0000      264.1420      264.1420     137.751453       0.00000
  50    .07753      126.3905        0.0000      264.1419      264.1419     137.751453       0.00000
  49    .09103      126.3905        0.0001      264.1419      264.1419     137.751453      -0.00000
  48    0.1069      126.3905        0.0001      264.1418      264.1419     137.751453       0.00000
  47    0.1255      126.3905        0.0002      264.1417      264.1419     137.751453      -0.00000
  46    0.1487      126.3904        0.0003      264.1416      264.1419     137.751453       0.00000
  45    0.1794      126.3904        0.0004      264.1415      264.1419     137.751453      -0.00000
  44    0.2165      126.3904        0.0005      264.1414      264.1418     137.751453      -0.00000
  43    0.2613      126.3903        0.0006      264.1412      264.1418     137.751453       0.00000
  42    0.3336      126.3903        0.0008      264.1409      264.1417     137.751453       0.00000
  41    0.4307      126.3902        0.0011      264.1405      264.1417     137.751453      -0.00000
  40    0.5894      126.3901        0.0016      264.1399      264.1415     137.751453       0.00000
  39     1.339      126.3895        0.0040      264.1369      264.1409     137.751453       0.00000
  38     1.782      126.3891        0.0054      264.1352      264.1406     137.751453       0.00000
  37     2.292      126.3887        0.0070      264.1332      264.1402     137.751453      -0.00000
  36     2.964      126.3882        0.0091      264.1305      264.1396     137.751453       0.00000
  35     3.853      126.3875        0.0119      264.1271      264.1389     137.751453      -0.00000
  34     5.035      126.3865        0.0155      264.1224      264.1380     137.751453       0.00000
  33     6.613      126.3852        0.0205      264.1162      264.1367     137.751453      -0.00000
  32     8.786      126.3835        0.0271      264.1078      264.1350     137.751453      -0.00000
  31     11.80      126.3811        0.0367      264.0959      264.1325     137.751453       0.00000
  30     15.07      126.3784        0.0469      264.0830      264.1299     137.751453      -0.00000
  29     18.79      126.3754        0.0585      264.0684      264.1269     137.751453       0.00000
  28     23.16      126.3720        0.0720      264.0514      264.1234     137.751453      -0.00000
  27     28.12      126.3680        0.0875      264.0319      264.1194     137.751453       0.00000
  26     33.73      126.3635        0.1049      264.0100      264.1149     137.751453      -0.00000
  25     40.54      126.3581        0.1259      263.9836      264.1095     137.751453       0.00000
  24     48.69      126.3515        0.1513      263.9517      264.1030     137.751453       0.00000
  23     57.69      126.3443        0.1792      263.9166      264.0958     137.751453      -0.00000
  22     68.43      126.3357        0.2125      263.8747      264.0872     137.751453       0.00000
  21     81.20      126.3255        0.2523      263.8247      264.0769     137.751453       0.00000
  20     96.49      126.3133        0.2998      263.7649      264.0647     137.751453       0.00000
  19     114.6      126.2989        0.3562      263.6879      264.0441     137.745157       0.00294
  18     136.5      126.2819        0.4233      263.5960      264.0193     137.737338       0.00301
  17     162.9      126.2616        0.5034      263.4826      263.9860     137.724348       0.00415
  16     196.4      126.2354        0.6075      263.3188      263.9264     137.690953       0.00841
  15     218.7      126.2184        0.6761      263.1704      263.8465     137.628049       0.02388
  14     243.0      126.2007        0.7506      262.9261      263.6767     137.475999       0.05274
  13     269.0      126.1833        0.8312      262.5105      263.3418     137.158461       0.10301
  12     297.5      126.1681        0.9182      261.8632      262.7814     136.613277       0.16170
  11     328.5      126.1563        1.0120      261.0460      262.0581     135.901755       0.19346
  10     361.9      126.1504        1.1129      260.0673      261.1801     135.029756       0.22062
   9     398.1      126.1544        1.2209      258.8719      260.0928     133.938393       0.25426
   8     437.6      126.1756        1.3361      257.3477      258.6838     132.508164       0.30579
   7     480.5      126.2223        1.4583      255.4214      256.8797     130.657450       0.36347
   6     533.0      126.3251        1.6066      252.6365      254.2431     127.918013       0.44069
   5     589.8      126.5191        1.7629      249.0286      250.7915     124.272392       0.54113
   4     651.6      126.9028        1.9242      244.0899      246.0141     119.111305       0.70579
   3     718.7      127.6062        2.0893      237.8338      239.9231     112.316945       0.85386
   2     792.3      128.9211        2.2546      230.1592      232.4138     103.492634       1.01205
   1     891.5      132.2648        2.4579      218.8196      221.2775      89.012673       1.23218
   0    1013.0      141.0484        2.6787      205.0199      207.6986      66.650224       1.55274



 Wavenumbers: 12850. - 16000. cm-1, ATM      1
 LEVEL PRESSURE   UPWARD FLUX   DIFDOWN FLUX  DIRDOWN FLUX  DOWNWARD FLUX   NET FLUX    HEATING RATE
          mb          W/m2          W/m2          W/m2        W/m2          W/m2       degree/day
  51    .06700      120.6333        0.0000      165.5083      165.5083      44.874978       0.00000
  50    .07753      120.6333        0.0001      165.5074      165.5075      44.874175       0.64367
  49    .09103      120.6333        0.0002      165.5063      165.5065      44.873161       0.63423
  48    0.1069      120.6334        0.0003      165.5051      165.5054      44.871987       0.62503
  47    0.1255      120.6334        0.0004      165.5036      165.5041      44.870627       0.61650
  46    0.1487      120.6335        0.0006      165.5018      165.5024      44.868894       0.63139
  45    0.1794      120.6337        0.0009      165.4993      165.5002      44.866512       0.65401
  44    0.2165      120.6339        0.0011      165.4964      165.4976      44.863673       0.64584
  43    0.2613      120.6342        0.0015      165.4930      165.4944      44.860286       0.63853
  42    0.3336      120.6347        0.0020      165.4873      165.4893      44.854653       0.65674
  41    0.4307      120.6355        0.0028      165.4799      165.4827      44.847198       0.64813
  40    0.5894      120.6371        0.0040      165.4681      165.4721      44.835054       0.64584
  39     1.339      120.6490        0.0097      165.4152      165.4248      44.775873       0.66626
  38     1.782      120.6593        0.0130      165.3851      165.3981      44.738854       0.70479
  37     2.292      120.6743        0.0169      165.3502      165.3671      44.692777       0.76316
  36     2.964      120.6987        0.0219      165.3031      165.3251      44.626332       0.83408
  35     3.853      120.7377        0.0287      165.2385      165.2671      44.529445       0.91947
  34     5.035      120.7960        0.0376      165.1507      165.1883      44.392274       0.97990
  33     6.613      120.8772        0.0494      165.0348      165.0842      44.206978       0.99059
  32     8.786      120.9832        0.0655      164.8862      164.9517      43.968494       0.92618
  31     11.80      121.1218        0.0884      164.6904      164.7788      43.657063       0.87191
  30     15.07      121.2554        0.1130      164.4977      164.6107      43.355270       0.77917
  29     18.79      121.3927        0.1408      164.2951      164.4359      43.043215       0.70752
  28     23.16      121.5374        0.1733      164.0759      164.2491      42.711735       0.64098
  27     28.12      121.6845        0.2104      163.8451      164.0555      42.370993       0.57924
  26     33.73      121.8228        0.2520      163.6149      163.8669      42.044082       0.49152
  25     40.54      121.9596        0.3023      163.3695      163.6718      41.712245       0.41168
  24     48.69      122.0949        0.3631      163.1058      163.4688      41.373957       0.35007
  23     57.69      122.2148        0.4298      162.8478      163.2776      41.062839       0.29163
  22     68.43      122.3266        0.5095      162.5754      163.0849      40.758337       0.23938
  21     81.20      122.4172        0.6046      162.2987      162.9033      40.486039       0.17993
  20     96.49      122.4859        0.7182      162.0150      162.7332      40.247342       0.13174
  19     114.6      122.5673        0.8549      161.7046      162.5594      39.992191       0.11914
  18     136.5      122.6462        1.0171      161.3598      162.3768      39.730606       0.10059
  17     162.9      122.7241        1.2104      160.9693      162.1797      39.455618       0.08790
  16     196.4      122.7911        1.4616      160.4940      161.9556      39.164525       0.07327
  15     218.7      122.8228        1.6268      160.1900      161.8169      38.994059       0.06472
  14     243.0      122.8522        1.8066      159.8598      161.6664      38.814204       0.06238
  13     269.0      122.8792        2.0017      159.5003      161.5020      38.622757       0.06210
  12     297.5      122.9051        2.2128      159.1063      161.3191      38.413977       0.06192
  11     328.5      122.9332        2.4412      158.6728      161.1140      38.180824       0.06339
  10     361.9      122.9651        2.6875      158.1964      160.8839      37.918800       0.06629
   9     398.1      123.0035        2.9530      157.6716      160.6247      37.621140       0.06935
   8     437.6      123.0532        3.2386      157.0903      160.3289      37.275682       0.07386
   7     480.5      123.1190        3.5451      156.4456      159.9908      36.871722       0.07934
   6     533.0      123.2246        3.9229      155.6153      159.5382      36.313614       0.08978
   5     589.8      123.3843        4.3304      154.6574      158.9878      35.603468       0.10541
   4     651.6      123.6504        4.7675      153.5017      158.2692      34.618745       0.13466
   3     718.7      124.0595        5.2328      152.1246      157.3574      33.297905       0.16599
   2     792.3      124.7253        5.7223      150.4363      156.1586      31.433293       0.21385
   1     891.5      126.1781        6.3646      147.7896      154.1542      27.976073       0.29419
   0    1013.0      129.1197        7.1084      144.2043      151.3127      22.192909       0.40155



 Wavenumbers: 16000. - 22650. cm-1, ATM      1
 LEVEL PRESSURE   UPWARD FLUX   DIFDOWN FLUX  DIRDOWN FLUX  DOWNWARD FLUX   NET FLUX    HEATING RATE
          mb          W/m2          W/m2          W/m2        W/m2          W/m2       degree/day
  51    .06700      240.4320        0.0000      263.8846      263.8846      23.452614       0.00000
  50    .07753      240.4321        0.0005      263.8841      263.8846      23.452420       0.15550
  49    .09103      240.4323        0.0011      263.8833      263.8845      23.452138       0.17637
  48    0.1069      240.4326        0.0019      263.8825      263.8843      23.451760       0.20112
  47    0.1255      240.4329        0.0027      263.8814      263.8841      23.451254       0.22926
  46    0.1487      240.4333        0.0038      263.8801      263.8838      23.450509       0.27166
  45    0.1794      240.4341        0.0052      263.8782      263.8834      23.449344       0.31987
  44    0.2165      240.4350        0.0069      263.8759      263.8828      23.447764       0.35950
  43    0.2613      240.4363        0.0089      263.8730      263.8819      23.445619       0.40416
  42    0.3336      240.4387        0.0123      263.8680      263.8803      23.441543       0.47529
  41    0.4307      240.4424        0.0167      263.8611      263.8778      23.435398       0.53429
  40    0.5894      240.4493        0.0239      263.8491      263.8730      23.423678       0.62324
  39     1.339      240.4999        0.0582      263.7788      263.8370      23.337080       0.97494
  38     1.782      240.5427        0.0783      263.7277      263.8060      23.263294       1.40476
  37     2.292      240.6046        0.1016      263.6594      263.7610      23.156467       1.76934
  36     2.964      240.7046        0.1322      263.5557      263.6879      22.983354       2.17309
  35     3.853      240.8632        0.1726      263.3991      263.5717      22.708537       2.60806
  34     5.035      241.0999        0.2262      263.1720      263.3982      22.298245       2.93095
  33     6.613      241.4297        0.2978      262.8594      263.1572      21.727494       3.05123
  32     8.786      241.8602        0.3943      262.4498      262.8441      20.983835       2.88810
  31     11.80      242.4248        0.5322      261.9045      262.4367      20.011868       2.72120
  30     15.07      242.9710        0.6802      261.3658      262.0461      19.075047       2.41869
  29     18.79      243.5341        0.8475      260.7996      261.6471      18.113013       2.18123
  28     23.16      244.1294        1.0428      260.1867      261.2295      17.100082       1.95868
  27     28.12      244.7373        1.2661      259.5418      260.8079      16.070582       1.75008
  26     33.73      245.3131        1.5163      258.8983      260.4146      15.101480       1.45707
  25     40.54      245.8875        1.8187      258.2104      260.0291      14.141583       1.19086
  24     48.69      246.4622        2.1836      257.4677      259.6513      13.189131       0.98564
  23     57.69      246.9795        2.5847      256.7352      259.3199      12.340411       0.79555
  22     68.43      247.4725        3.0629      255.9515      259.0144      11.541930       0.62771
  21     81.20      247.8912        3.6335      255.1376      258.7711      10.879949       0.43743
  20     96.49      248.2331        4.3144      254.2781      258.5925      10.359346       0.28734
  19     114.6      248.5576        5.1225      253.3171      258.4396       9.882071       0.22285
  18     136.5      248.8867        6.0797      252.2185      258.2981       9.411443       0.18097
  17     162.9      249.2276        7.2181      250.9482      258.1664       8.938750       0.15109
  16     196.4      249.5604        8.6933      249.3794      258.0727       8.512283       0.10735
  15     218.7      249.7382        9.6611      248.3788      258.0398       8.301610       0.07998
  14     243.0      249.9122       10.7118      247.3059      258.0177       8.105526       0.06801
  13     269.0      250.0805       11.8493      246.1586      258.0079       7.927424       0.05778
  12     297.5      250.2429       13.0770      244.9337      258.0108       7.767913       0.04731
  11     328.5      250.4083       14.4019      243.6187      258.0207       7.612347       0.04230
  10     361.9      250.5769       15.8264      242.2114      258.0378       7.460929       0.03831
   9     398.1      250.7495       17.3572      240.7048      258.0619       7.312445       0.03459
   8     437.6      250.9289       18.9985      239.0929      258.0914       7.162531       0.03205
   7     480.5      251.1154       20.7551      237.3711      258.1262       7.010762       0.02981
   6     533.0      251.3412       22.9139      235.2567      258.1706       6.829381       0.02918
   5     589.8      251.5869       25.2369      232.9779      258.2147       6.627883       0.02991
   4     651.6      251.8655       27.7302      230.5185      258.2487       6.383182       0.03346
   3     718.7      252.1900       30.4007      227.8628      258.2635       6.073537       0.03891
   2     792.3      252.5917       33.2503      224.9872      258.2375       5.645846       0.04905
   1     891.5      253.2710       37.0773      221.0308      258.1081       4.837090       0.06882
   0    1013.0      254.3152       41.6426      216.1848      257.8274       3.512211       0.09199



 Wavenumbers: 22650. - 29000. cm-1, ATM      1
 LEVEL PRESSURE   UPWARD FLUX   DIFDOWN FLUX  DIRDOWN FLUX  DOWNWARD FLUX   NET FLUX    HEATING RATE
          mb          W/m2          W/m2          W/m2        W/m2          W/m2       degree/day
  51    .06700       98.2172        0.0000       99.5805       99.5805       1.363246       0.00000
  50    .07753       98.2172        0.0006       99.5799       99.5805       1.363246      -0.00000
  49    .09103       98.2173        0.0013       99.5792       99.5805       1.363246      -0.00000
  48    0.1069       98.2173        0.0022       99.5784       99.5806       1.363246      -0.00000
  47    0.1255       98.2174        0.0032       99.5775       99.5806       1.363246       0.00000
  46    0.1487       98.2175        0.0044       99.5763       99.5807       1.363246       0.00000
  45    0.1794       98.2176        0.0061       99.5748       99.5808       1.363246      -0.00000
  44    0.2165       98.2177        0.0081       99.5729       99.5810       1.363246       0.00000
  43    0.2613       98.2179        0.0104       99.5707       99.5811       1.363246      -0.00000
  42    0.3336       98.2181        0.0143       99.5670       99.5813       1.363246       0.00000
  41    0.4307       98.2184        0.0195       99.5621       99.5817       1.363246       0.00000
  40    0.5894       98.2190        0.0280       99.5542       99.5822       1.363246       0.00000
  39     1.339       98.2215        0.0681       99.5166       99.5847       1.363246       0.00000
  38     1.782       98.2229        0.0917       99.4945       99.5862       1.363246      -0.00000
  37     2.292       98.2246        0.1189       99.4690       99.5879       1.363246      -0.00000
  36     2.964       98.2269        0.1547       99.4354       99.5901       1.363246       0.00000
  35     3.853       98.2298        0.2020       99.3911       99.5931       1.363246       0.00000
  34     5.035       98.2338        0.2648       99.3322       99.5970       1.363246      -0.00000
  33     6.613       98.2390        0.3487       99.2535       99.6022       1.363246       0.00000
  32     8.786       98.2461        0.4618       99.1476       99.6093       1.363246      -0.00000
  31     11.80       98.2562        0.6234       98.9960       99.6194       1.363246       0.00000
  30     15.07       98.2670        0.7968       98.8334       99.6302       1.363246       0.00000
  29     18.79       98.2792        0.9926       98.6498       99.6425       1.363246       0.00000
  28     23.16       98.2935        1.2211       98.4356       99.6567       1.363246       0.00000
  27     28.12       98.3098        1.4821       98.1909       99.6730       1.363246       0.00000
  26     33.73       98.3280        1.7737       97.9175       99.6912       1.363246      -0.00000
  25     40.54       98.3499        2.1253       97.5878       99.7131       1.363246       0.00000
  24     48.69       98.3763        2.5482       97.1913       99.7395       1.363246      -0.00000
  23     57.69       98.4051        3.0114       96.7570       99.7684       1.363246       0.00000
  22     68.43       98.4393        3.5611       96.2415       99.8026       1.363246      -0.00000
  21     81.20       98.4799        4.2131       95.6301       99.8431       1.363246       0.00000
  20     96.49       98.5279        4.9857       94.9054       99.8912       1.363246       0.00000
  19     114.6       98.5845        5.8970       94.0508       99.9478       1.363246       0.00000
  18     136.5       98.6510        6.9684       93.0459      100.0142       1.363246      -0.00000
  17     162.9       98.7292        8.2317       91.8607      100.0924       1.363246       0.00000
  16     196.4       98.8292        9.8498       90.3426      100.1924       1.363246      -0.00000
  15     218.7       98.8940       10.9002       89.3570      100.2572       1.363246      -0.00000
  14     243.0       98.9636       12.0311       88.2958      100.3269       1.363246       0.00000
  13     269.0       99.0382       13.2440       87.1575      100.4015       1.363246       0.00000
  12     297.5       99.1178       14.5401       85.9409      100.4810       1.363246       0.00000
  11     328.5       99.2025       15.9241       84.6416      100.5658       1.363246      -0.00000
  10     361.9       99.2924       17.3953       83.2604      100.6556       1.363246      -0.00000
   9     398.1       99.3875       18.9569       81.7939      100.7508       1.363246       0.00000
   8     437.6       99.4880       20.6094       80.2418      100.8512       1.363246      -0.00000
   7     480.5       99.5936       22.3530       78.6038      100.9568       1.363246      -0.00000
   6     533.0       99.7208       24.4610       76.6230      101.0840       1.363246       0.00000
   5     589.8       99.8546       26.6875       74.5303      101.2178       1.363246      -0.00000
   4     651.6       99.9946       29.0301       72.3277      101.3579       1.363246       0.00000
   3     718.7      100.1406       31.4866       70.0173      101.5039       1.363246       0.00000
   2     792.3      100.2921       34.0508       67.6046      101.6554       1.363246      -0.00000
   1     891.5      100.4888       37.4079       64.4441      101.8521       1.363246       0.00000
   0    1013.0      100.7134       41.2835       60.7932      102.0767       1.363246       0.00000



 Wavenumbers: 29000. - 38000. cm-1, ATM      1
 LEVEL PRESSURE   UPWARD FLUX   DIFDOWN FLUX  DIRDOWN FLUX  DOWNWARD FLUX   NET FLUX    HEATING RATE
          mb          W/m2          W/m2          W/m2        W/m2          W/m2       degree/day
  51    .06700       15.3583        0.0000       35.1162       35.1162      19.757880       0.00000
  50    .07753       15.3582        0.0004       35.1119       35.1123      19.754057       3.06357
  49    .09103       15.3581        0.0008       35.1057       35.1065      19.748495       3.47682
  48    0.1069       15.3579        0.0013       35.0976       35.0989      19.741044       3.96613
  47    0.1255       15.3577        0.0019       35.0868       35.0888      19.731072       4.52069
  46    0.1487       15.3575        0.0027       35.0712       35.0739      19.716385       5.35341
  45    0.1794       15.3573        0.0037       35.0470       35.0507      19.693470       6.29084
  44    0.2165       15.3570        0.0050       35.0146       35.0195      19.662497       7.04582
  43    0.2613       15.3568        0.0064       34.9711       34.9775      19.620693       7.87981
  42    0.3336       15.3565        0.0088       34.8897       34.8985      19.541986       9.17653
  41    0.4307       15.3563        0.0119       34.7698       34.7816      19.425369      10.13956
  40    0.5894       15.3563        0.0169       34.5489       34.5658      19.209503      11.47949
  39     1.339       15.3627        0.0387       33.1853       33.2240      17.861363      15.17761
  38     1.782       15.3706        0.0503       32.3007       32.3509      16.980325      16.77354
  37     2.292       15.3834        0.0628       31.3187       31.3816      15.998147      16.26744
  36     2.964       15.4056        0.0785       30.1831       30.2616      14.855973      14.33773
  35     3.853       15.4425        0.0983       28.9695       29.0678      13.625262      11.67967
  34     5.035       15.4990        0.1237       27.7467       27.8704      12.371414       8.95697
  33     6.613       15.5787        0.1567       26.5565       26.7132      11.134434       6.61290
  32     8.786       15.6841        0.2002       25.4315       25.6317       9.947542       4.60946
  31     11.80       15.8244        0.2612       24.3279       24.5891       8.764697       3.31159
  30     15.07       15.9632        0.3257       23.4834       23.8091       7.845895       2.37217
  29     18.79       16.1101        0.3973       22.7549       23.1522       7.042045       1.82258
  28     23.16       16.2706        0.4799       22.0882       22.5681       6.297414       1.43987
  27     28.12       16.4407        0.5733       21.4824       22.0557       5.614949       1.16015
  26     33.73       16.6075        0.6775       20.9522       21.6297       5.022177       0.89125
  25     40.54       16.7795        0.8033       20.4458       21.2491       4.469603       0.68553
  24     48.69       16.9578        0.9543       19.9504       20.9047       3.946886       0.54093
  23     57.69       17.1238        1.1197       19.5016       20.6213       3.497495       0.42124
  22     68.43       17.2866        1.3162       19.0552       20.3714       3.084800       0.32443
  21     81.20       17.4262        1.5515       18.6237       20.1752       2.748959       0.22192
  20     96.49       17.5388        1.8324       18.1945       20.0270       2.488116       0.14397
  19     114.6       17.6453        2.1619       17.7341       19.8960       2.250731       0.11084
  18     136.5       17.7544        2.5446       17.2273       19.7719       2.017537       0.08967
  17     162.9       17.8704        2.9979       16.6629       19.6608       1.790326       0.07263
  16     196.4       17.9801        3.5623       15.9953       19.5577       1.577604       0.05354
  15     218.7       18.0375        3.9251       15.5842       19.5094       1.471817       0.04016
  14     243.0       18.0934        4.3114       15.1546       19.4660       1.372567       0.03442
  13     269.0       18.1465        4.7209       14.7076       19.4285       1.282015       0.02937
  12     297.5       18.1962        5.1531       14.2440       19.3971       1.200913       0.02405
  11     328.5       18.2462        5.6072       13.7610       19.3682       1.122010       0.02145
  10     361.9       18.2962        6.0815       13.2605       19.3420       1.045733       0.01930
   9     398.1       18.3463        6.5760       12.7426       19.3186       0.972321       0.01710
   8     437.6       18.3969        7.0882       12.2091       19.2973       0.900342       0.01539
   7     480.5       18.4477        7.6174       11.6612       19.2787       0.830945       0.01363
   6     533.0       18.5062        8.2410       11.0192       19.2602       0.753943       0.01239
   5     589.8       18.5660        8.8802       10.3638       19.2440       0.677996       0.01127
   4     651.6       18.6275        9.5314        9.6984       19.2298       0.602363       0.01034
   3     718.7       18.6907       10.1905        9.0272       19.2177       0.526971       0.00947
   2     792.3       18.7560       10.8543        8.3535       19.2079       0.451899       0.00861
   1     891.5       18.8409       11.6832        7.5152       19.1984       0.357473       0.00804
   0    1013.0       18.9405       12.5853        6.6061       19.1915       0.250999       0.00739



 Wavenumbers: 38000. - 50000. cm-1, ATM      1
 LEVEL PRESSURE   UPWARD FLUX   DIFDOWN FLUX  DIRDOWN FLUX  DOWNWARD FLUX   NET FLUX    HEATING RATE
          mb          W/m2          W/m2          W/m2        W/m2          W/m2       degree/day
  51    .06700        0.0072        0.0000        2.1659        2.1659       2.158735       0.00000
  50    .07753        0.0072        0.0001        2.1635        2.1635       2.156398       1.87347
  49    .09103        0.0071        0.0002        2.1600        2.1601       2.153059       2.08688
  48    0.1069        0.0070        0.0002        2.1554        2.1557       2.148665       2.33901
  47    0.1255        0.0069        0.0004        2.1494        2.1498       2.142878       2.62370
  46    0.1487        0.0068        0.0005        2.1408        2.1413       2.134481       3.06055
  45    0.1794        0.0067        0.0007        2.1275        2.1282       2.121551       3.54978
  44    0.2165        0.0065        0.0009        2.1099        2.1108       2.104305       3.92317
  43    0.2613        0.0063        0.0011        2.0865        2.0876       2.081345       4.32773
  42    0.3336        0.0060        0.0015        2.0433        2.0448       2.038825       4.95740
  41    0.4307        0.0056        0.0020        1.9807        1.9827       1.977108       5.36616
  40    0.5894        0.0051        0.0027        1.8688        1.8715       1.866443       5.88502
  39     1.339        0.0033        0.0040        1.2620        1.2660       1.262726       6.79676
  38     1.782        0.0026        0.0038        0.9454        0.9492       0.946622       6.01811
  37     2.292        0.0020        0.0033        0.6659        0.6692       0.667180       4.62829
  36     2.964        0.0015        0.0027        0.4331        0.4359       0.434336       2.92289
  35     3.853        0.0011        0.0022        0.2712        0.2734       0.272217       1.53854
  34     5.035        0.0009        0.0017        0.1671        0.1689       0.168005       0.74445
  33     6.613        0.0006        0.0013        0.1018        0.1032       0.102517       0.35010
  32     8.786        0.0005        0.0011        0.0621        0.0631       0.062658       0.15480
  31     11.80        0.0003        0.0008        0.0361        0.0369       0.036601       0.07295
  30     15.07        0.0002        0.0006        0.0222        0.0227       0.022535       0.03632
  29     18.79        0.0001        0.0004        0.0135        0.0139       0.013785       0.01984
  28     23.16        0.0001        0.0003        0.0080        0.0083       0.008179       0.01084
  27     28.12        0.0001        0.0002        0.0046        0.0048       0.004749       0.00583
  26     33.73        0.0000        0.0001        0.0027        0.0028       0.002762       0.00299
  25     40.54        0.0000        0.0001        0.0015        0.0016       0.001538       0.00152
  24     48.69        0.0000        0.0000        0.0008        0.0008       0.000809       0.00075
  23     57.69        0.0000        0.0000        0.0004        0.0004       0.000422       0.00036
  22     68.43        0.0000        0.0000        0.0002        0.0002       0.000206       0.00017
  21     81.20        0.0000        0.0000        0.0001        0.0001       0.000094       0.00007
  20     96.49        0.0000        0.0000        0.0000        0.0000       0.000039       0.00003
  19     114.6        0.0000        0.0000        0.0000        0.0000       0.000014       0.00001
  18     136.5        0.0000        0.0000        0.0000        0.0000       0.000004       0.00000
  17     162.9        0.0000        0.0000        0.0000        0.0000       0.000001       0.00000
  16     196.4        0.0000        0.0000        0.0000        0.0000       0.000000       0.00000
  15     218.7        0.0000        0.0000        0.0000        0.0000       0.000000       0.00000
  14     243.0        0.0000        0.0000        0.0000        0.0000       0.000000       0.00000
  13     269.0        0.0000        0.0000        0.0000        0.0000       0.000000       0.00000
  12     297.5        0.0000        0.0000        0.0000        0.0000       0.000000       0.00000
  11     328.5        0.0000        0.0000        0.0000        0.0000       0.000000       0.00000
  10     361.9        0.0000        0.0000        0.0000        0.0000       0.000000       0.00000
   9     398.1        0.0000        0.0000        0.0000        0.0000       0.000000       0.00000
   8     437.6        0.0000        0.0000        0.0000        0.0000       0.000000       0.00000
   7     480.5        0.0000        0.0000        0.0000        0.0000       0.000000       0.00000
   6     533.0        0.0000        0.0000        0.0000        0.0000       0.000000       0.00000
   5     589.8        0.0000        0.0000        0.0000        0.0000       0.000000       0.00000
   4     651.6        0.0000        0.0000        0.0000        0.0000       0.000000       0.00000
   3     718.7        0.0000        0.0000        0.0000        0.0000       0.000000       0.00000
   2     792.3        0.0000        0.0000        0.0000        0.0000       0.000000       0.00000
   1     891.5        0.0000        0.0000        0.0000        0.0000       0.000000       0.00000
   0    1013.0        0.0000        0.0000        0.0000        0.0000       0.000000       0.00000



 Wavenumbers:   820. -  2600. cm-1, ATM      1
 LEVEL PRESSURE   UPWARD FLUX   DIFDOWN FLUX  DIRDOWN FLUX  DOWNWARD FLUX   NET FLUX    HEATING RATE
          mb          W/m2          W/m2          W/m2        W/m2          W/m2       degree/day
  51    .06700        1.4295        0.0000       10.1320       10.1320       8.702510       0.00000
  50    .07753        1.4295        0.0000       10.1262       10.1262       8.696710       4.64890
  49    .09103        1.4295        0.0000       10.1250       10.1250       8.695541       0.73103
  48    0.1069        1.4295        0.0000       10.1240       10.1240       8.694474       0.56789
  47    0.1255        1.4295        0.0000       10.1227       10.1227       8.693232       0.56294
  46    0.1487        1.4295        0.0000       10.1211       10.1211       8.691660       0.57303
  45    0.1794        1.4295        0.0000       10.1190       10.1190       8.689561       0.57624
  44    0.2165        1.4295        0.0000       10.1167       10.1167       8.687187       0.53999
  43    0.2613        1.4295        0.0000       10.1140       10.1140       8.684550       0.49701
  42    0.3336        1.4295        0.0000       10.1101       10.1101       8.680613       0.45905
  41    0.4307        1.4295        0.0000       10.1055       10.1055       8.676036       0.39795
  40    0.5894        1.4295        0.0000       10.0988       10.0988       8.669344       0.35589
  39     1.339        1.4295        0.0000       10.0689       10.0689       8.639392       0.33721
  38     1.782        1.4295        0.0000       10.0519       10.0519       8.622382       0.32383
  37     2.292        1.4295        0.0000       10.0329       10.0329       8.603356       0.31512
  36     2.964        1.4295        0.0000       10.0086       10.0086       8.579123       0.30419
  35     3.853        1.4295        0.0000        9.9776        9.9776       8.548108       0.29434
  34     5.035        1.4295        0.0000        9.9383        9.9383       8.508757       0.28110
  33     6.613        1.4295        0.0000        9.8890        9.8890       8.459457       0.26356
  32     8.786        1.4295        0.0000        9.8268        9.8268       8.397232       0.24166
  31     11.80        1.4295        0.0000        9.7442        9.7442       8.314620       0.23129
  30     15.07        1.4296        0.0000        9.6650        9.6650       8.235458       0.20438
  29     18.79        1.4296        0.0000        9.5902        9.5902       8.160597       0.16973
  28     23.16        1.4296        0.0000        9.5227        9.5228       8.093142       0.13044
  27     28.12        1.4296        0.0000        9.4675        9.4675       8.037909       0.09389
  26     33.73        1.4297        0.0000        9.4246        9.4246       7.994935       0.06461
  25     40.54        1.4297        0.0000        9.3871        9.3871       7.957373       0.04660
  24     48.69        1.4297        0.0000        9.3504        9.3504       7.920698       0.03795
  23     57.69        1.4298        0.0000        9.3131        9.3131       7.883303       0.03505
  22     68.43        1.4299        0.0000        9.2694        9.2694       7.839590       0.03436
  21     81.20        1.4299        0.0000        9.2185        9.2185       7.788569       0.03371
  20     96.49        1.4300        0.0000        9.1586        9.1586       7.728605       0.03310
  19     114.6        1.4301        0.0000        9.0877        9.0877       7.657609       0.03315
  18     136.5        1.4303        0.0000        9.0044        9.0044       7.574179       0.03208
  17     162.9        1.4304        0.0000        8.8974        8.8975       7.467027       0.03425
  16     196.4        1.4308        0.0000        8.7288        8.7288       7.298035       0.04254
  15     218.7        1.4311        0.0000        8.5667        8.5667       7.135599       0.06167
  14     243.0        1.4316        0.0000        8.3177        8.3178       6.886170       0.08651
  13     269.0        1.4324        0.0000        7.9976        7.9976       6.565237       0.10411
  12     297.5        1.4337        0.0000        7.6562        7.6562       6.222559       0.10163
  11     328.5        1.4354        0.0000        7.3528        7.3529       5.917484       0.08295
  10     361.9        1.4377        0.0000        7.0238        7.0239       5.586176       0.08382
   9     398.1        1.4407        0.0000        6.6380        6.6381       5.197381       0.09058
   8     437.6        1.4446        0.0000        6.2154        6.2155       4.770829       0.09120
   7     480.5        1.4495        0.0000        5.8276        5.8276       4.378102       0.07713
   6     533.0        1.4570        0.0000        5.4874        5.4875       4.030450       0.05593
   5     589.8        1.4682        0.0001        5.2400        5.2401       3.771909       0.03838
   4     651.6        1.4879        0.0001        4.9860        4.9861       3.498106       0.03744
   3     718.7        1.5220        0.0001        4.6749        4.6749       3.152986       0.04337
   2     792.3        1.5842        0.0001        4.3033        4.3034       2.719166       0.04975
   1     891.5        1.7433        0.0001        3.7966        3.7967       2.053360       0.05666
   0    1013.0        2.1623        0.0001        3.1910        3.1911       1.028805       0.07114

  Modules and versions used in this calculation:

       rrtmg_sw.1col.f90:  $Revision$                    rrtmg_sw_init.f90:  $Revision$        
     rrtmgsw_cldprop.f90:  $Revision$                  rrtmgsw_cldprmc.f90:  NOT USED          
     rrtmg_sw_reftra.f90:  $Revision$                  rrtmg_sw_spcvrt.f90:  NOT USED          
     rrtmg_sw_spcvmc.f90:  NOT USED                    rrtmgsw_setcoef.f90:  NOT USED          
     rrtmg_sw_taumol.f90:  $Revision$                  rrtmg_sw_vrtqdr.f90:  NOT USED          
                rrtatm.f:  NOT USED                             util_xxx.f:  NOT USED          
                 extra.f:  NOT USED                       rrtmg_sw_k_g.f90:  $Revision$        

