

 Wavenumbers:   820. - 50000. cm-1, ATM      1
 LEVEL PRESSURE   UPWARD FLUX   DIFDOWN FLUX  DIRDOWN FLUX  DOWNWARD FLUX   NET FLUX    HEATING RATE
          mb          W/m2          W/m2          W/m2        W/m2          W/m2       degree/day
  51    .06700      143.0764        0.0000      236.3090      236.3090      93.232600       0.00000
  50    .07753      143.0757        0.0011      236.2946      236.2956      93.219985      10.11089
  49    .09103      143.0748        0.0024      236.2795      236.2819      93.207164       8.01331
  48    0.1069      143.0737        0.0040      236.2613      236.2653      93.191528       8.32344
  47    0.1255      143.0726        0.0058      236.2388      236.2446      93.171982       8.86118
  46    0.1487      143.0712        0.0080      236.2080      236.2160      93.144857       9.88731
  45    0.1794      143.0692        0.0111      236.1629      236.1739      93.104675      11.03104
  44    0.2165      143.0670        0.0146      236.1054      236.1200      93.052982      11.75914
  43    0.2613      143.0645        0.0189      236.0322      236.0511      92.986609      12.51108
  42    0.3336      143.0604        0.0258      235.9038      235.9296      92.869276      13.67985
  41    0.4307      143.0551        0.0349      235.7306      235.7655      92.710313      13.82147
  40    0.5894      143.0471        0.0494      235.4518      235.5012      92.454095      13.62535
  39     1.339      143.0171        0.1138      234.3665      234.4803      91.463221      11.15545
  38     1.782      143.0043        0.1499      233.9040      234.0540      91.049638       7.87395
  37     2.292      142.9938        0.1911      233.4404      233.6315      90.637771       6.82159
  36     2.964      142.9860        0.2445      232.8941      233.1386      90.152594       6.09044
  35     3.853      142.9842        0.3141      232.2436      232.5577      89.573417       5.49649
  34     5.035      142.9904        0.4053      231.4736      231.8790      88.888589       4.89213
  33     6.613      143.0037        0.5259      230.5713      231.0972      88.093536       4.25035
  32     8.786      143.0193        0.6866      229.5191      230.2057      87.186328       3.52327
  31     11.80      143.0297        0.9137      228.2260      229.1397      86.109992       3.01340
  30     15.07      143.0266        1.1545      227.0121      228.1666      85.140067       2.50416
  29     18.79      143.0105        1.4232      225.7774      227.2006      84.190085       2.15390
  28     23.16      142.9774        1.7331      224.4692      226.2023      83.224913       1.86633
  27     28.12      142.9227        2.0829      223.1089      225.1918      82.269099       1.62482
  26     33.73      142.8363        2.4697      221.7451      224.2149      81.378619       1.33886
  25     40.54      142.7029        2.9310      220.2664      223.1974      80.494506       1.09684
  24     48.69      142.5157        3.4788      218.6473      222.1261      79.610399       0.91491
  23     57.69      142.2855        4.0708      217.0232      221.0940      78.808522       0.75164
  22     68.43      141.9861        4.7634      215.2546      220.0180      78.031881       0.61054
  21     81.20      141.5944        5.5726      213.3607      218.9334      77.338944       0.45788
  20     96.49      141.0994        6.5153      211.3120      217.8274      76.728012       0.33719
  19     114.6      140.5148        7.6046      209.0128      216.6174      76.102536       0.29205
  18     136.5      139.8308        8.8547      206.4306      215.2853      75.454509       0.24918
  17     162.9      139.0348       10.2880      203.4916      213.7796      74.744781       0.22686
  16     196.4      138.0213       12.0653      199.8304      211.8957      73.874410       0.21908
  15     218.7      137.3730       13.1849      197.3122      210.4971      73.124137       0.28485
  14     243.0      136.6872       14.3618      194.2977      208.6595      71.972292       0.39950
  13     269.0      135.9654       15.5928      190.7201      206.3129      70.347458       0.52709
  12     297.5      135.2106       16.8735      186.6778      203.5514      68.340772       0.59516
  11     328.5      134.4252       18.2042      182.3646      200.5688      66.143681       0.59738
  10     361.9      133.6134       19.5784      177.7795      197.3579      63.744539       0.60701
   9     398.1      132.7774       20.9937      172.9469      193.9406      61.163175       0.60140
   8     437.6      131.9224       22.4452      167.8483      190.2935      58.371086       0.59697
   7     480.5      131.0526       23.9280      162.5529      186.4809      55.428323       0.57795
   6     533.0      130.0470       25.6578      156.2782      181.9360      51.889006       0.56936
   5     589.8      129.0465       27.4116      149.7190      177.1306      48.084076       0.56478
   4     651.6      128.0792       29.1801      142.6044      171.7845      43.705294       0.59881
   3     718.7      127.1770       30.9509      135.0695      166.0204      38.843422       0.61100
   2     792.3      126.4062       32.7083      127.0660      159.7743      33.368080       0.62796
   1     891.5      125.7715       34.8711      116.7666      151.6377      25.866216       0.63837
   0    1013.0      125.7854       37.1857      105.6404      142.8261      17.040711       0.61280



 Wavenumbers:  2600. -  3250. cm-1, ATM      1
 LEVEL PRESSURE   UPWARD FLUX   DIFDOWN FLUX  DIRDOWN FLUX  DOWNWARD FLUX   NET FLUX    HEATING RATE
          mb          W/m2          W/m2          W/m2        W/m2          W/m2       degree/day
  51    .06700        0.3054        0.0000        2.0827        2.0827       1.777268       0.00000
  50    .07753        0.3054        0.0000        2.0827        2.0827       1.777260       0.00640
  49    .09103        0.3054        0.0000        2.0827        2.0827       1.777250       0.00626
  48    0.1069        0.3054        0.0000        2.0827        2.0827       1.777239       0.00612
  47    0.1255        0.3054        0.0000        2.0826        2.0826       1.777225       0.00598
  46    0.1487        0.3054        0.0000        2.0826        2.0826       1.777209       0.00606
  45    0.1794        0.3054        0.0000        2.0826        2.0826       1.777186       0.00622
  44    0.2165        0.3054        0.0000        2.0826        2.0826       1.777159       0.00609
  43    0.2613        0.3054        0.0000        2.0825        2.0825       1.777128       0.00596
  42    0.3336        0.3054        0.0000        2.0825        2.0825       1.777075       0.00612
  41    0.4307        0.3054        0.0000        2.0824        2.0824       1.777005       0.00613
  40    0.5894        0.3054        0.0000        2.0823        2.0823       1.776887       0.00627
  39     1.339        0.3054        0.0000        2.0816        2.0816       1.776203       0.00769
  38     1.782        0.3054        0.0000        2.0811        2.0811       1.775695       0.00967
  37     2.292        0.3054        0.0000        2.0805        2.0805       1.775045       0.01076
  36     2.964        0.3054        0.0000        2.0796        2.0796       1.774140       0.01136
  35     3.853        0.3054        0.0000        2.0783        2.0783       1.772929       0.01149
  34     5.035        0.3054        0.0000        2.0768        2.0768       1.771383       0.01104
  33     6.613        0.3054        0.0000        2.0749        2.0749       1.769522       0.00995
  32     8.786        0.3054        0.0000        2.0728        2.0728       1.767415       0.00818
  31     11.80        0.3054        0.0000        2.0704        2.0704       1.765034       0.00666
  30     15.07        0.3054        0.0000        2.0684        2.0684       1.762951       0.00538
  29     18.79        0.3054        0.0000        2.0662        2.0662       1.760799       0.00488
  28     23.16        0.3054        0.0000        2.0636        2.0636       1.758232       0.00496
  27     28.12        0.3054        0.0000        2.0604        2.0605       1.755043       0.00542
  26     33.73        0.3054        0.0000        2.0563        2.0563       1.750906       0.00622
  25     40.54        0.3054        0.0000        2.0504        2.0504       1.744995       0.00733
  24     48.69        0.3054        0.0000        2.0422        2.0422       1.736822       0.00846
  23     57.69        0.3054        0.0000        2.0323        2.0324       1.726956       0.00925
  22     68.43        0.3054        0.0000        2.0201        2.0201       1.714691       0.00964
  21     81.20        0.3054        0.0000        2.0056        2.0057       1.700256       0.00954
  20     96.49        0.3054        0.0000        1.9896        1.9896       1.684188       0.00887
  19     114.6        0.3054        0.0000        1.9723        1.9724       1.666953       0.00805
  18     136.5        0.3054        0.0001        1.9552        1.9553       1.649847       0.00658
  17     162.9        0.3054        0.0001        1.9386        1.9387       1.633210       0.00532
  16     196.4        0.3055        0.0001        1.9204        1.9205       1.615046       0.00457
  15     218.7        0.3055        0.0001        1.9077        1.9078       1.602248       0.00486
  14     243.0        0.3056        0.0001        1.8900        1.8901       1.584481       0.00616
  13     269.0        0.3057        0.0001        1.8651        1.8652       1.559474       0.00811
  12     297.5        0.3059        0.0001        1.8296        1.8297       1.523777       0.01059
  11     328.5        0.3061        0.0001        1.7832        1.7833       1.477191       0.01267
  10     361.9        0.3065        0.0001        1.7252        1.7254       1.418890       0.01475
   9     398.1        0.3069        0.0001        1.6552        1.6553       1.348390       0.01642
   8     437.6        0.3075        0.0001        1.5741        1.5742       1.266665       0.01747
   7     480.5        0.3084        0.0001        1.4857        1.4858       1.177482       0.01752
   6     533.0        0.3096        0.0002        1.3801        1.3803       1.070650       0.01719
   5     589.8        0.3115        0.0002        1.2660        1.2661       0.954670       0.01722
   4     651.6        0.3143        0.0002        1.1335        1.1337       0.819368       0.01850
   3     718.7        0.3187        0.0002        0.9901        0.9902       0.671564       0.01857
   2     792.3        0.3255        0.0002        0.8422        0.8424       0.516870       0.01774
   1     891.5        0.3403        0.0002        0.6654        0.6656       0.325309       0.01630
   0    1013.0        0.3711        0.0001        0.4896        0.4897       0.118652       0.01435



 Wavenumbers:  3250. -  4000. cm-1, ATM      1
 LEVEL PRESSURE   UPWARD FLUX   DIFDOWN FLUX  DIRDOWN FLUX  DOWNWARD FLUX   NET FLUX    HEATING RATE
          mb          W/m2          W/m2          W/m2        W/m2          W/m2       degree/day
  51    .06700        0.0004        0.0000        3.5111        3.5111       3.510695       0.00000
  50    .07753        0.0004        0.0000        3.5077        3.5077       3.507310       2.71345
  49    .09103        0.0004        0.0000        3.5060        3.5060       3.505603       1.06682
  48    0.1069        0.0004        0.0000        3.5046        3.5046       3.504185       0.75514
  47    0.1255        0.0004        0.0000        3.5033        3.5033       3.502875       0.59376
  46    0.1487        0.0004        0.0000        3.5019        3.5019       3.501534       0.48872
  45    0.1794        0.0004        0.0000        3.5004        3.5004       3.500039       0.41048
  44    0.2165        0.0004        0.0000        3.4989        3.4989       3.498513       0.34720
  43    0.2613        0.0004        0.0000        3.4973        3.4973       3.496848       0.31372
  42    0.3336        0.0004        0.0000        3.4947        3.4947       3.494248       0.30312
  41    0.4307        0.0004        0.0000        3.4915        3.4915       3.491060       0.27720
  40    0.5894        0.0004        0.0000        3.4869        3.4869       3.486454       0.24493
  39     1.339        0.0004        0.0000        3.4724        3.4724       3.471955       0.16323
  38     1.782        0.0004        0.0000        3.4663        3.4663       3.465914       0.11502
  37     2.292        0.0004        0.0000        3.4600        3.4600       3.459600       0.10459
  36     2.964        0.0004        0.0000        3.4521        3.4521       3.451706       0.09909
  35     3.853        0.0004        0.0000        3.4419        3.4419       3.441467       0.09716
  34     5.035        0.0004        0.0000        3.4283        3.4283       3.427899       0.09693
  33     6.613        0.0004        0.0000        3.4102        3.4102       3.409776       0.09688
  32     8.786        0.0004        0.0000        3.3855        3.3855       3.385119       0.09576
  31     11.80        0.0004        0.0000        3.3508        3.3509       3.350465       0.09702
  30     15.07        0.0004        0.0000        3.3159        3.3159       3.315495       0.09029
  29     18.79        0.0004        0.0000        3.2801        3.2801       3.279736       0.08107
  28     23.16        0.0004        0.0000        3.2432        3.2433       3.242885       0.07126
  27     28.12        0.0004        0.0000        3.2059        3.2059       3.205530       0.06350
  26     33.73        0.0004        0.0000        3.1673        3.1674       3.167000       0.05793
  25     40.54        0.0004        0.0001        3.1223        3.1224       3.122022       0.05580
  24     48.69        0.0003        0.0001        3.0691        3.0691       3.068789       0.05509
  23     57.69        0.0003        0.0001        3.0120        3.0121       3.011775       0.05344
  22     68.43        0.0003        0.0001        2.9475        2.9476       2.947292       0.05069
  21     81.20        0.0003        0.0001        2.8764        2.8765       2.876170       0.04700
  20     96.49        0.0003        0.0001        2.7998        2.7999       2.799610       0.04226
  19     114.6        0.0003        0.0001        2.7139        2.7140       2.713750       0.04009
  18     136.5        0.0002        0.0002        2.6240        2.6242       2.623942       0.03453
  17     162.9        0.0002        0.0002        2.5258        2.5260       2.525789       0.03137
  16     196.4        0.0002        0.0002        2.3987        2.3989       2.398715       0.03199
  15     218.7        0.0002        0.0002        2.2843        2.2845       2.284371       0.04341
  14     243.0        0.0001        0.0002        2.1207        2.1209       2.120808       0.05673
  13     269.0        0.0001        0.0002        1.8883        1.8885       1.888390       0.07540
  12     297.5        0.0001        0.0002        1.6139        1.6142       1.614054       0.08137
  11     328.5        0.0001        0.0002        1.3693        1.3695       1.369433       0.06651
  10     361.9        0.0001        0.0002        1.1602        1.1604       1.160312       0.05291
   9     398.1        0.0001        0.0002        0.9753        0.9755       0.975494       0.04306
   8     437.6        0.0000        0.0002        0.8052        0.8054       0.805400       0.03637
   7     480.5        0.0000        0.0002        0.6509        0.6511       0.651108       0.03030
   6     533.0        0.0000        0.0002        0.4854        0.4856       0.485572       0.02663
   5     589.8        0.0000        0.0001        0.3301        0.3302       0.330219       0.02306
   4     651.6        0.0000        0.0001        0.1909        0.1910       0.190962       0.01904
   3     718.7        0.0000        0.0001        0.0840        0.0841       0.084094       0.01343
   2     792.3        0.0000        0.0000        0.0204        0.0205       0.020454       0.00730
   1     891.5        0.0000        0.0000        0.0008        0.0008       0.000821       0.00167
   0    1013.0        0.0000        0.0000        0.0000        0.0000       0.000001       0.00006



 Wavenumbers:  4000. -  4650. cm-1, ATM      1
 LEVEL PRESSURE   UPWARD FLUX   DIFDOWN FLUX  DIRDOWN FLUX  DOWNWARD FLUX   NET FLUX    HEATING RATE
          mb          W/m2          W/m2          W/m2        W/m2          W/m2       degree/day
  51    .06700        1.5468        0.0000        4.1231        4.1231       2.576318       0.00000
  50    .07753        1.5468        0.0000        4.1231        4.1231       2.576317       0.00080
  49    .09103        1.5468        0.0000        4.1231        4.1231       2.576316       0.00078
  48    0.1069        1.5468        0.0000        4.1231        4.1231       2.576315       0.00076
  47    0.1255        1.5468        0.0000        4.1231        4.1231       2.576313       0.00075
  46    0.1487        1.5468        0.0000        4.1231        4.1231       2.576311       0.00076
  45    0.1794        1.5468        0.0000        4.1231        4.1231       2.576308       0.00078
  44    0.2165        1.5468        0.0000        4.1231        4.1231       2.576305       0.00076
  43    0.2613        1.5468        0.0000        4.1231        4.1231       2.576301       0.00075
  42    0.3336        1.5468        0.0000        4.1231        4.1231       2.576294       0.00077
  41    0.4307        1.5468        0.0000        4.1231        4.1231       2.576285       0.00077
  40    0.5894        1.5468        0.0000        4.1230        4.1230       2.576270       0.00079
  39     1.339        1.5468        0.0000        4.1230        4.1230       2.576181       0.00100
  38     1.782        1.5468        0.0000        4.1229        4.1229       2.576111       0.00133
  37     2.292        1.5468        0.0000        4.1228        4.1228       2.576018       0.00155
  36     2.964        1.5468        0.0000        4.1226        4.1226       2.575878       0.00176
  35     3.853        1.5468        0.0000        4.1224        4.1224       2.575671       0.00197
  34     5.035        1.5468        0.0000        4.1221        4.1221       2.575366       0.00218
  33     6.613        1.5468        0.0000        4.1217        4.1217       2.574918       0.00239
  32     8.786        1.5468        0.0000        4.1210        4.1210       2.574260       0.00256
  31     11.80        1.5467        0.0000        4.1199        4.1200       2.573232       0.00288
  30     15.07        1.5467        0.0001        4.1187        4.1188       2.572037       0.00309
  29     18.79        1.5467        0.0001        4.1173        4.1173       2.570603       0.00325
  28     23.16        1.5467        0.0001        4.1155        4.1156       2.568842       0.00341
  27     28.12        1.5467        0.0001        4.1133        4.1134       2.566733       0.00358
  26     33.73        1.5467        0.0001        4.1107        4.1108       2.564167       0.00386
  25     40.54        1.5467        0.0002        4.1072        4.1074       2.560736       0.00426
  24     48.69        1.5466        0.0002        4.1027        4.1029       2.556241       0.00465
  23     57.69        1.5466        0.0002        4.0974        4.0976       2.551003       0.00491
  22     68.43        1.5466        0.0003        4.0909        4.0912       2.544554       0.00507
  21     81.20        1.5466        0.0003        4.0830        4.0833       2.536737       0.00517
  20     96.49        1.5466        0.0004        4.0736        4.0739       2.527369       0.00517
  19     114.6        1.5465        0.0004        4.0619        4.0624       2.515842       0.00538
  18     136.5        1.5465        0.0005        4.0481        4.0487       2.502126       0.00527
  17     162.9        1.5465        0.0006        4.0314        4.0321       2.485518       0.00531
  16     196.4        1.5466        0.0007        4.0088        4.0095       2.462928       0.00569
  15     218.7        1.5467        0.0008        3.9921        3.9929       2.446249       0.00633
  14     243.0        1.5469        0.0009        3.9712        3.9721       2.425204       0.00730
  13     269.0        1.5472        0.0010        3.9440        3.9450       2.397807       0.00889
  12     297.5        1.5476        0.0011        3.9078        3.9089       2.361261       0.01084
  11     328.5        1.5483        0.0012        3.8622        3.8634       2.315131       0.01254
  10     361.9        1.5492        0.0013        3.8071        3.8084       2.259187       0.01415
   9     398.1        1.5504        0.0015        3.7432        3.7447       2.194297       0.01512
   8     437.6        1.5518        0.0016        3.6713        3.6729       2.121077       0.01565
   7     480.5        1.5535        0.0017        3.5920        3.5938       2.040247       0.01587
   6     533.0        1.5560        0.0019        3.4875        3.4893       1.933314       0.01720
   5     589.8        1.5595        0.0020        3.3573        3.3593       1.799831       0.01981
   4     651.6        1.5645        0.0022        3.1884        3.1906       1.626049       0.02377
   3     718.7        1.5721        0.0023        2.9940        2.9963       1.424127       0.02538
   2     792.3        1.5842        0.0024        2.7856        2.7880       1.203784       0.02527
   1     891.5        1.6107        0.0025        2.5097        2.5122       0.901452       0.02573
   0    1013.0        1.6670        0.0026        2.1974        2.2000       0.532969       0.02559



 Wavenumbers:  4650. -  5150. cm-1, ATM      1
 LEVEL PRESSURE   UPWARD FLUX   DIFDOWN FLUX  DIRDOWN FLUX  DOWNWARD FLUX   NET FLUX    HEATING RATE
          mb          W/m2          W/m2          W/m2        W/m2          W/m2       degree/day
  51    .06700        1.0292        0.0000        3.9027        3.9027       2.873532       0.00000
  50    .07753        1.0292        0.0000        3.9025        3.9025       2.873297       0.18830
  49    .09103        1.0292        0.0000        3.9022        3.9022       2.873005       0.18207
  48    0.1069        1.0292        0.0000        3.9019        3.9019       2.872676       0.17541
  47    0.1255        1.0292        0.0000        3.9015        3.9015       2.872304       0.16858
  46    0.1487        1.0292        0.0000        3.9010        3.9010       2.871845       0.16740
  45    0.1794        1.0292        0.0000        3.9004        3.9004       2.871235       0.16746
  44    0.2165        1.0292        0.0000        3.8997        3.8997       2.870537       0.15864
  43    0.2613        1.0292        0.0000        3.8989        3.8989       2.869744       0.14946
  42    0.3336        1.0292        0.0000        3.8977        3.8977       2.868506       0.14439
  41    0.4307        1.0292        0.0000        3.8962        3.8962       2.866988       0.13195
  40    0.5894        1.0292        0.0000        3.8940        3.8940       2.864785       0.11717
  39     1.339        1.0292        0.0000        3.8868        3.8868       2.857594       0.08096
  38     1.782        1.0292        0.0000        3.8841        3.8841       2.854928       0.05076
  37     2.292        1.0292        0.0000        3.8818        3.8818       2.852635       0.03797
  36     2.964        1.0292        0.0000        3.8795        3.8795       2.850358       0.02858
  35     3.853        1.0292        0.0000        3.8771        3.8771       2.847958       0.02278
  34     5.035        1.0292        0.0000        3.8743        3.8743       2.845155       0.02002
  33     6.613        1.0291        0.0000        3.8706        3.8707       2.841535       0.01935
  32     8.786        1.0291        0.0001        3.8656        3.8656       2.836496       0.01957
  31     11.80        1.0291        0.0001        3.8579        3.8579       2.828818       0.02150
  30     15.07        1.0291        0.0001        3.8490        3.8490       2.819942       0.02292
  29     18.79        1.0291        0.0001        3.8382        3.8383       2.809193       0.02437
  28     23.16        1.0291        0.0001        3.8248        3.8249       2.795859       0.02578
  27     28.12        1.0291        0.0002        3.8087        3.8089       2.779827       0.02725
  26     33.73        1.0290        0.0002        3.7901        3.7903       2.761303       0.02785
  25     40.54        1.0290        0.0002        3.7675        3.7678       2.738762       0.02797
  24     48.69        1.0290        0.0003        3.7408        3.7411       2.712118       0.02757
  23     57.69        1.0290        0.0003        3.7130        3.7133       2.684338       0.02604
  22     68.43        1.0290        0.0004        3.6825        3.6829       2.653900       0.02393
  21     81.20        1.0289        0.0005        3.6501        3.6505       2.621599       0.02134
  20     96.49        1.0289        0.0005        3.6164        3.6169       2.587989       0.01855
  19     114.6        1.0289        0.0006        3.5812        3.5818       2.552868       0.01640
  18     136.5        1.0290        0.0007        3.5430        3.5437       2.514738       0.01466
  17     162.9        1.0290        0.0009        3.4986        3.4994       2.470424       0.01416
  16     196.4        1.0291        0.0010        3.4394        3.4404       2.411272       0.01489
  15     218.7        1.0292        0.0012        3.3981        3.3993       2.370052       0.01565
  14     243.0        1.0294        0.0013        3.3502        3.3514       2.322014       0.01666
  13     269.0        1.0297        0.0014        3.2937        3.2951       2.265424       0.01836
  12     297.5        1.0302        0.0015        3.2259        3.2274       2.197254       0.02022
  11     328.5        1.0308        0.0017        3.1484        3.1501       2.119287       0.02120
  10     361.9        1.0316        0.0018        3.0615        3.0633       2.031740       0.02215
   9     398.1        1.0327        0.0019        2.9651        2.9671       1.934368       0.02269
   8     437.6        1.0342        0.0021        2.8597        2.8618       1.827656       0.02282
   7     480.5        1.0361        0.0022        2.7466        2.7488       1.712757       0.02257
   6     533.0        1.0390        0.0024        2.6096        2.6120       1.572976       0.02249
   5     589.8        1.0430        0.0025        2.4647        2.4672       1.424181       0.02209
   4     651.6        1.0489        0.0027        2.3066        2.3092       1.260320       0.02241
   3     718.7        1.0575        0.0028        2.1374        2.1403       1.082764       0.02231
   2     792.3        1.0702        0.0029        1.9594        1.9623       0.892136       0.02186
   1     891.5        1.0953        0.0030        1.7338        1.7368       0.641543       0.02132
   0    1013.0        1.1407        0.0031        1.5022        1.5053       0.364628       0.01923



 Wavenumbers:  5150. -  6150. cm-1, ATM      1
 LEVEL PRESSURE   UPWARD FLUX   DIFDOWN FLUX  DIRDOWN FLUX  DOWNWARD FLUX   NET FLUX    HEATING RATE
          mb          W/m2          W/m2          W/m2        W/m2          W/m2       degree/day
  51    .06700        2.9971        0.0000        9.7841        9.7841       6.786955       0.00000
  50    .07753        2.9971        0.0000        9.7841        9.7841       6.786915       0.03156
  49    .09103        2.9971        0.0000        9.7840        9.7840       6.786864       0.03204
  48    0.1069        2.9971        0.0000        9.7839        9.7839       6.786803       0.03254
  47    0.1255        2.9971        0.0000        9.7839        9.7839       6.786730       0.03302
  46    0.1487        2.9971        0.0000        9.7838        9.7838       6.786635       0.03477
  45    0.1794        2.9971        0.0000        9.7836        9.7836       6.786500       0.03699
  44    0.2165        2.9971        0.0000        9.7835        9.7835       6.786335       0.03752
  43    0.2613        2.9971        0.0000        9.7833        9.7833       6.786133       0.03805
  42    0.3336        2.9971        0.0000        9.7829        9.7829       6.785789       0.04014
  41    0.4307        2.9971        0.0000        9.7825        9.7825       6.785322       0.04058
  40    0.5894        2.9971        0.0000        9.7817        9.7817       6.784543       0.04142
  39     1.339        2.9971        0.0000        9.7779        9.7780       6.780844       0.04165
  38     1.782        2.9971        0.0000        9.7758        9.7758       6.778729       0.04027
  37     2.292        2.9971        0.0001        9.7734        9.7735       6.776369       0.03908
  36     2.964        2.9971        0.0001        9.7704        9.7705       6.773423       0.03698
  35     3.853        2.9971        0.0001        9.7667        9.7668       6.769760       0.03476
  34     5.035        2.9970        0.0001        9.7621        9.7622       6.765175       0.03276
  33     6.613        2.9970        0.0002        9.7563        9.7565       6.759449       0.03061
  32     8.786        2.9970        0.0002        9.7491        9.7493       6.752351       0.02756
  31     11.80        2.9969        0.0003        9.7400        9.7403       6.743337       0.02524
  30     15.07        2.9969        0.0004        9.7314        9.7318       6.734938       0.02169
  29     18.79        2.9968        0.0005        9.7231        9.7236       6.726758       0.01854
  28     23.16        2.9967        0.0006        9.7147        9.7153       6.718593       0.01579
  27     28.12        2.9967        0.0007        9.7065        9.7073       6.710611       0.01357
  26     33.73        2.9966        0.0009        9.6987        9.6996       6.703035       0.01139
  25     40.54        2.9965        0.0011        9.6906        9.6917       6.695215       0.00970
  24     48.69        2.9964        0.0013        9.6823        9.6836       6.687169       0.00833
  23     57.69        2.9963        0.0015        9.6741        9.6756       6.679346       0.00733
  22     68.43        2.9962        0.0018        9.6652        9.6670       6.670853       0.00668
  21     81.20        2.9960        0.0022        9.6552        9.6574       6.661327       0.00629
  20     96.49        2.9959        0.0026        9.6435        9.6461       6.650200       0.00614
  19     114.6        2.9957        0.0030        9.6294        9.6324       6.636695       0.00631
  18     136.5        2.9955        0.0036        9.6117        9.6153       6.619754       0.00651
  17     162.9        2.9953        0.0043        9.5837        9.5880       6.592742       0.00863
  16     196.4        2.9950        0.0051        9.5177        9.5229       6.527870       0.01633
  15     218.7        2.9948        0.0057        9.4058        9.4115       6.416615       0.04224
  14     243.0        2.9947        0.0063        9.1870        9.1933       6.198580       0.07562
  13     269.0        2.9946        0.0068        8.8839        8.8907       5.896126       0.09811
  12     297.5        2.9946        0.0073        8.5201        8.5274       5.532852       0.10774
  11     328.5        2.9947        0.0078        8.1097        8.1175       5.122867       0.11147
  10     361.9        2.9948        0.0083        7.6773        7.6856       4.690731       0.10933
   9     398.1        2.9952        0.0088        7.2394        7.2482       4.253052       0.10197
   8     437.6        2.9957        0.0092        6.8032        6.8124       3.816709       0.09329
   7     480.5        2.9965        0.0096        6.4031        6.4127       3.416204       0.07866
   6     533.0        2.9979        0.0100        6.0075        6.0175       3.019617       0.06380
   5     589.8        3.0002        0.0105        5.6776        5.6881       2.687933       0.04923
   4     651.6        3.0041        0.0110        5.3861        5.3971       2.392979       0.04034
   3     718.7        3.0108        0.0115        5.1041        5.1156       2.104772       0.03622
   2     792.3        3.0226        0.0121        4.7866        4.7987       1.776131       0.03769
   1     891.5        3.0495        0.0128        4.4088        4.4215       1.372070       0.03438
   0    1013.0        3.1069        0.0135        4.0863        4.0998       0.992890       0.02633



 Wavenumbers:  6150. -  7700. cm-1, ATM      1
 LEVEL PRESSURE   UPWARD FLUX   DIFDOWN FLUX  DIRDOWN FLUX  DOWNWARD FLUX   NET FLUX    HEATING RATE
          mb          W/m2          W/m2          W/m2        W/m2          W/m2       degree/day
  51    .06700        4.2124        0.0000       18.0961       18.0961      13.883681       0.00000
  50    .07753        4.2124        0.0000       18.0960       18.0960      13.883624       0.04553
  49    .09103        4.2124        0.0000       18.0959       18.0959      13.883551       0.04581
  48    0.1069        4.2124        0.0000       18.0958       18.0959      13.883464       0.04611
  47    0.1255        4.2124        0.0000       18.0957       18.0957      13.883362       0.04641
  46    0.1487        4.2124        0.0000       18.0956       18.0956      13.883229       0.04846
  45    0.1794        4.2124        0.0000       18.0954       18.0954      13.883042       0.05119
  44    0.2165        4.2124        0.0000       18.0952       18.0952      13.882816       0.05156
  43    0.2613        4.2124        0.0000       18.0949       18.0949      13.882540       0.05195
  42    0.3336        4.2124        0.0000       18.0944       18.0944      13.882073       0.05450
  41    0.4307        4.2124        0.0000       18.0938       18.0938      13.881441       0.05491
  40    0.5894        4.2123        0.0001       18.0927       18.0927      13.880390       0.05590
  39     1.339        4.2123        0.0001       18.0875       18.0876      13.875379       0.05642
  38     1.782        4.2122        0.0002       18.0845       18.0847      13.872488       0.05504
  37     2.292        4.2122        0.0002       18.0812       18.0814      13.869230       0.05396
  36     2.964        4.2121        0.0003       18.0769       18.0772      13.865107       0.05176
  35     3.853        4.2120        0.0004       18.0715       18.0719      13.859893       0.04947
  34     5.035        4.2119        0.0006       18.0646       18.0651      13.853248       0.04747
  33     6.613        4.2117        0.0007       18.0558       18.0565      13.844756       0.04539
  32     8.786        4.2115        0.0010       18.0445       18.0455      13.833954       0.04195
  31     11.80        4.2112        0.0013       18.0296       18.0309      13.819711       0.03988
  30     15.07        4.2109        0.0017       18.0150       18.0167      13.805768       0.03600
  29     18.79        4.2106        0.0021       18.0000       18.0021      13.791560       0.03221
  28     23.16        4.2101        0.0026       17.9842       17.9868      13.776667       0.02880
  27     28.12        4.2096        0.0031       17.9679       17.9710      13.761403       0.02595
  26     33.73        4.2091        0.0037       17.9517       17.9554      13.746300       0.02271
  25     40.54        4.2084        0.0045       17.9342       17.9387      13.730240       0.01992
  24     48.69        4.2077        0.0054       17.9157       17.9210      13.713394       0.01743
  23     57.69        4.2068        0.0064       17.8974       17.9038      13.697001       0.01537
  22     68.43        4.2057        0.0075       17.8776       17.8852      13.679429       0.01381
  21     81.20        4.2045        0.0089       17.8558       17.8647      13.660177       0.01272
  20     96.49        4.2030        0.0106       17.8308       17.8414      13.638404       0.01202
  19     114.6        4.2013        0.0126       17.8016       17.8141      13.612863       0.01193
  18     136.5        4.1992        0.0149       17.7664       17.7813      13.582120       0.01182
  17     162.9        4.1967        0.0177       17.7148       17.7326      13.535845       0.01479
  16     196.4        4.1935        0.0213       17.6088       17.6302      13.436605       0.02498
  15     218.7        4.1915        0.0237       17.4579       17.4815      13.290028       0.05565
  14     243.0        4.1893        0.0261       17.1531       17.1791      12.989835       0.10412
  13     269.0        4.1871        0.0284       16.6553       16.6838      12.496700       0.15997
  12     297.5        4.1848        0.0307       16.0308       16.0615      11.876682       0.18389
  11     328.5        4.1826        0.0329       15.3564       15.3893      11.206666       0.18218
  10     361.9        4.1805        0.0351       14.6013       14.6364      10.455883       0.18996
   9     398.1        4.1787        0.0372       13.7934       13.8306       9.651931       0.18730
   8     437.6        4.1771        0.0390       12.9514       12.9904       8.813267       0.17931
   7     480.5        4.1761        0.0407       12.1138       12.1545       7.978313       0.16398
   6     533.0        4.1761        0.0424       11.1881       11.2305       7.054438       0.14862
   5     589.8        4.1780        0.0438       10.2865       10.3303       6.152358       0.13390
   4     651.6        4.1839        0.0448        9.3596        9.4044       5.220444       0.12744
   3     718.7        4.1967        0.0455        8.4713        8.5168       4.320146       0.11314
   2     792.3        4.2219        0.0460        7.6251        7.6711       3.449248       0.09988
   1     891.5        4.2847        0.0463        6.6699        6.7162       2.431497       0.08661
   0    1013.0        4.4297        0.0468        5.7972        5.8440       1.414299       0.07063



 Wavenumbers:  7700. -  8050. cm-1, ATM      1
 LEVEL PRESSURE   UPWARD FLUX   DIFDOWN FLUX  DIRDOWN FLUX  DOWNWARD FLUX   NET FLUX    HEATING RATE
          mb          W/m2          W/m2          W/m2        W/m2          W/m2       degree/day
  51    .06700        2.1866        0.0000        4.2766        4.2766       2.090014       0.00000
  50    .07753        2.1866        0.0000        4.2766        4.2766       2.089995       0.01530
  49    .09103        2.1866        0.0000        4.2766        4.2766       2.089971       0.01499
  48    0.1069        2.1866        0.0000        4.2766        4.2766       2.089944       0.01467
  47    0.1255        2.1866        0.0000        4.2765        4.2765       2.089912       0.01436
  46    0.1487        2.1866        0.0000        4.2765        4.2765       2.089872       0.01457
  45    0.1794        2.1866        0.0000        4.2764        4.2765       2.089817       0.01499
  44    0.2165        2.1866        0.0000        4.2764        4.2764       2.089753       0.01471
  43    0.2613        2.1866        0.0000        4.2763        4.2763       2.089676       0.01443
  42    0.3336        2.1866        0.0000        4.2762        4.2762       2.089550       0.01476
  41    0.4307        2.1867        0.0000        4.2760        4.2760       2.089382       0.01460
  40    0.5894        2.1867        0.0000        4.2758        4.2758       2.089107       0.01458
  39     1.339        2.1867        0.0001        4.2745        4.2745       2.087811       0.01459
  38     1.782        2.1868        0.0001        4.2737        4.2738       2.087050       0.01448
  37     2.292        2.1868        0.0001        4.2729        4.2730       2.086170       0.01457
  36     2.964        2.1869        0.0001        4.2718        4.2719       2.085016       0.01449
  35     3.853        2.1870        0.0002        4.2703        4.2705       2.083493       0.01445
  34     5.035        2.1871        0.0002        4.2683        4.2685       2.081473       0.01443
  33     6.613        2.1872        0.0003        4.2657        4.2660       2.078781       0.01439
  32     8.786        2.1874        0.0004        4.2622        4.2626       2.075164       0.01405
  31     11.80        2.1877        0.0005        4.2571        4.2577       2.070013       0.01442
  30     15.07        2.1880        0.0007        4.2518        4.2525       2.064513       0.01420
  29     18.79        2.1883        0.0009        4.2458        4.2466       2.058338       0.01400
  28     23.16        2.1887        0.0011        4.2388        4.2398       2.051176       0.01385
  27     28.12        2.1891        0.0013        4.2309        4.2322       2.043054       0.01381
  26     33.73        2.1896        0.0015        4.2221        4.2237       2.034050       0.01354
  25     40.54        2.1902        0.0018        4.2117        4.2135       2.023290       0.01335
  24     48.69        2.1910        0.0022        4.1992        4.2014       2.010487       0.01325
  23     57.69        2.1918        0.0026        4.1858        4.1884       1.996631       0.01299
  22     68.43        2.1927        0.0031        4.1701        4.1731       1.980405       0.01276
  21     81.20        2.1939        0.0037        4.1517        4.1554       1.961451       0.01252
  20     96.49        2.1953        0.0043        4.1304        4.1347       1.939377       0.01218
  19     114.6        2.1970        0.0051        4.1057        4.1109       1.913821       0.01193
  18     136.5        2.1991        0.0061        4.0775        4.0835       1.884451       0.01129
  17     162.9        2.2016        0.0072        4.0450        4.0521       1.850584       0.01083
  16     196.4        2.2048        0.0086        4.0046        4.0132       1.808371       0.01063
  15     218.7        2.2070        0.0096        3.9790        3.9886       1.781508       0.01020
  14     243.0        2.2095        0.0106        3.9519        3.9625       1.753006       0.00989
  13     269.0        2.2122        0.0117        3.9233        3.9349       1.722770       0.00981
  12     297.5        2.2152        0.0129        3.8930        3.9059       1.690725       0.00950
  11     328.5        2.2185        0.0141        3.8611        3.8752       1.656693       0.00925
  10     361.9        2.2222        0.0155        3.8273        3.8427       1.620535       0.00915
   9     398.1        2.2264        0.0169        3.7914        3.8083       1.581960       0.00899
   8     437.6        2.2311        0.0185        3.7531        3.7716       1.540536       0.00886
   7     480.5        2.2364        0.0201        3.7122        3.7323       1.495918       0.00876
   6     533.0        2.2434        0.0221        3.6615        3.6836       1.440272       0.00895
   5     589.8        2.2516        0.0243        3.6057        3.6300       1.378369       0.00919
   4     651.6        2.2616        0.0265        3.5427        3.5692       1.307587       0.00968
   3     718.7        2.2740        0.0289        3.4702        3.4992       1.225169       0.01036
   2     792.3        2.2898        0.0314        3.3848        3.4162       1.126407       0.01133
   1     891.5        2.3164        0.0346        3.2539        3.2885       0.972104       0.01313
   0    1013.0        2.3580        0.0382        3.0719        3.1102       0.752207       0.01527



 Wavenumbers:  8050. - 12850. cm-1, ATM      1
 LEVEL PRESSURE   UPWARD FLUX   DIFDOWN FLUX  DIRDOWN FLUX  DOWNWARD FLUX   NET FLUX    HEATING RATE
          mb          W/m2          W/m2          W/m2        W/m2          W/m2       degree/day
  51    .06700       28.7984        0.0000       59.8761       59.8761      31.077694       0.00000
  50    .07753       28.7984        0.0000       59.8761       59.8761      31.077694      -0.00000
  49    .09103       28.7984        0.0001       59.8760       59.8761      31.077694      -0.00000
  48    0.1069       28.7984        0.0001       59.8760       59.8761      31.077694       0.00000
  47    0.1255       28.7983        0.0001       59.8759       59.8760      31.077694       0.00000
  46    0.1487       28.7983        0.0002       59.8758       59.8760      31.077694      -0.00000
  45    0.1794       28.7982        0.0003       59.8757       59.8759      31.077694      -0.00000
  44    0.2165       28.7982        0.0003       59.8755       59.8759      31.077694       0.00000
  43    0.2613       28.7981        0.0004       59.8754       59.8758      31.077694      -0.00000
  42    0.3336       28.7980        0.0006       59.8751       59.8757      31.077694      -0.00000
  41    0.4307       28.7978        0.0008       59.8747       59.8755      31.077694       0.00000
  40    0.5894       28.7975        0.0012       59.8741       59.8752      31.077694      -0.00000
  39     1.339       28.7963        0.0029       59.8711       59.8740      31.077694      -0.00000
  38     1.782       28.7955        0.0038       59.8694       59.8732      31.077694       0.00000
  37     2.292       28.7946        0.0050       59.8673       59.8723      31.077694       0.00000
  36     2.964       28.7935        0.0065       59.8647       59.8712      31.077694       0.00000
  35     3.853       28.7920        0.0085       59.8612       59.8697      31.077694      -0.00000
  34     5.035       28.7900        0.0111       59.8566       59.8677      31.077694       0.00000
  33     6.613       28.7873        0.0146       59.8504       59.8650      31.077694      -0.00000
  32     8.786       28.7837        0.0194       59.8420       59.8614      31.077694       0.00000
  31     11.80       28.7785        0.0262       59.8300       59.8562      31.077694       0.00000
  30     15.07       28.7730        0.0335       59.8172       59.8507      31.077694       0.00000
  29     18.79       28.7667        0.0418       59.8026       59.8444      31.077694       0.00000
  28     23.16       28.7593        0.0514       59.7856       59.8370      31.077694       0.00000
  27     28.12       28.7509        0.0625       59.7661       59.8286      31.077694       0.00000
  26     33.73       28.7415        0.0749       59.7443       59.8192      31.077694       0.00000
  25     40.54       28.7301        0.0898       59.7179       59.8078      31.077694      -0.00000
  24     48.69       28.7163        0.1079       59.6861       59.7940      31.077694       0.00000
  23     57.69       28.7012        0.1278       59.6511       59.7789      31.077694       0.00000
  22     68.43       28.6831        0.1515       59.6093       59.7608      31.077694       0.00000
  21     81.20       28.6616        0.1798       59.5595       59.7393      31.077694       0.00000
  20     96.49       28.6359        0.2136       59.5000       59.7136      31.077694      -0.00000
  19     114.6       28.6054        0.2537       59.4234       59.6771      31.071653       0.00282
  18     136.5       28.5692        0.3012       59.3322       59.6334      31.064209       0.00286
  17     162.9       28.5260        0.3580       59.2200       59.5780      31.051949       0.00392
  16     196.4       28.4700        0.4316       59.0594       59.4910      31.021032       0.00778
  15     218.7       28.4332        0.4800       58.9190       59.3990      30.965789       0.02097
  14     243.0       28.3933        0.5324       58.7074       59.2398      30.846503       0.04137
  13     269.0       28.3504        0.5890       58.4023       58.9913      30.640930       0.06669
  12     297.5       28.3045        0.6496       58.0009       58.6505      30.345981       0.08748
  11     328.5       28.2557        0.7148       57.5121       58.2269      29.971237       0.10189
  10     361.9       28.2042        0.7843       56.9077       57.6920      29.487797       0.12231
   9     398.1       28.1503        0.8581       56.1661       57.0242      28.873956       0.14301
   8     437.6       28.0948        0.9360       55.2583       56.1942      28.099386       0.16561
   7     480.5       28.0388        1.0175       54.1814       55.1989      27.160102       0.18447
   6     533.0       27.9760        1.1149       52.7401       53.8550      25.879015       0.20609
   5     589.8       27.9190        1.2153       51.0488       52.2640      24.345010       0.22770
   4     651.6       27.8792        1.3160       48.9639       50.2799      22.400724       0.26589
   3     718.7       27.8702        1.4157       46.5266       47.9423      20.072099       0.29264
   2     792.3       27.9214        1.5112       43.7387       45.2499      17.328504       0.31466
   1     891.5       28.1384        1.6213       40.0387       41.6600      13.521569       0.32395
   0    1013.0       28.7218        1.7329       36.0907       37.8236       9.101754       0.30689



 Wavenumbers: 12850. - 16000. cm-1, ATM      1
 LEVEL PRESSURE   UPWARD FLUX   DIFDOWN FLUX  DIRDOWN FLUX  DOWNWARD FLUX   NET FLUX    HEATING RATE
          mb          W/m2          W/m2          W/m2        W/m2          W/m2       degree/day
  51    .06700       26.2245        0.0000       37.5177       37.5177      11.293165       0.00000
  50    .07753       26.2245        0.0001       37.5168       37.5169      11.292391       0.61983
  49    .09103       26.2244        0.0001       37.5158       37.5159      11.291438       0.59549
  48    0.1069       26.2244        0.0002       37.5146       37.5148      11.290368       0.56981
  47    0.1255       26.2244        0.0003       37.5132       37.5135      11.289168       0.54387
  46    0.1487       26.2243        0.0004       37.5116       37.5120      11.287697       0.53615
  45    0.1794       26.2242        0.0006       37.5094       37.5100      11.285764       0.53078
  44    0.2165       26.2241        0.0007       37.5070       37.5077      11.283583       0.49624
  43    0.2613       26.2240        0.0010       37.5042       37.5052      11.281135       0.46129
  42    0.3336       26.2239        0.0013       37.5000       37.5013      11.277370       0.43898
  41    0.4307       26.2238        0.0018       37.4948       37.4966      11.272853       0.39277
  40    0.5894       26.2235        0.0026       37.4873       37.4898      11.266300       0.34846
  39     1.339       26.2235        0.0062       37.4561       37.4624      11.238877       0.30873
  38     1.782       26.2241        0.0084       37.4370       37.4454      11.221280       0.33503
  37     2.292       26.2254        0.0109       37.4123       37.4232      11.197743       0.38982
  36     2.964       26.2282        0.0142       37.3754       37.3895      11.161386       0.45640
  35     3.853       26.2331        0.0185       37.3201       37.3386      11.105476       0.53059
  34     5.035       26.2410        0.0242       37.2404       37.2646      11.023679       0.58432
  33     6.613       26.2522        0.0319       37.1317       37.1635      10.911358       0.60047
  32     8.786       26.2666        0.0421       36.9907       37.0328      10.766243       0.56357
  31     11.80       26.2846        0.0567       36.8057       36.8624      10.577844       0.52746
  30     15.07       26.3009        0.0723       36.6261       36.6984      10.397502       0.46561
  29     18.79       26.3167        0.0899       36.4406       36.5305      10.213794       0.41652
  28     23.16       26.3320        0.1103       36.2436       36.3540      10.021954       0.37096
  27     28.12       26.3459        0.1336       36.0409       36.1744       9.828534       0.32880
  26     33.73       26.3563        0.1595       35.8440       36.0035       9.647211       0.27262
  25     40.54       26.3628        0.1906       35.6400       35.8307       9.467909       0.22244
  24     48.69       26.3648        0.2281       35.4269       35.6550       9.290160       0.18394
  23     57.69       26.3614        0.2691       35.2234       35.4924       9.131015       0.14917
  22     68.43       26.3513        0.3177       35.0126       35.3303       8.978989       0.11951
  21     81.20       26.3310        0.3755       34.8024       35.1778       8.846868       0.08730
  20     96.49       26.2991        0.4441       34.5883       35.0324       8.733337       0.06266
  19     114.6       26.2631        0.5260       34.3469       34.8729       8.609849       0.05766
  18     136.5       26.2168        0.6225       34.0733       34.6958       8.478994       0.05032
  17     162.9       26.1585        0.7368       33.7591       34.4959       8.337396       0.04526
  16     196.4       26.0760        0.8842       33.3787       34.2629       8.186879       0.03789
  15     218.7       26.0194        0.9804       33.1395       34.1198       8.100399       0.03283
  14     243.0       25.9570        1.0845       32.8843       33.9688       8.011807       0.03073
  13     269.0       25.8884        1.1967       32.6124       33.8091       7.920752       0.02954
  12     297.5       25.8136        1.3174       32.3214       33.6388       7.825166       0.02835
  11     328.5       25.7329        1.4471       32.0076       33.4547       7.721720       0.02813
  10     361.9       25.6464        1.5859       31.6686       33.2544       7.608034       0.02876
   9     398.1       25.5539        1.7342       31.3014       33.0355       7.481593       0.02946
   8     437.6       25.4561        1.8923       30.9004       32.7927       7.336600       0.03100
   7     480.5       25.3531        2.0603       30.4634       32.5237       7.170614       0.03260
   6     533.0       25.2301        2.2649       29.9133       32.1782       6.948074       0.03580
   5     589.8       25.1042        2.4826       29.2997       31.7823       6.678110       0.04007
   4     651.6       24.9815        2.7125       28.5952       31.3078       6.326302       0.04811
   3     718.7       24.8665        2.9526       27.8079       30.7605       5.894015       0.05433
   2     792.3       24.7729        3.1993       26.9100       30.1093       5.336396       0.06395
   1     891.5       24.7134        3.5129       25.6017       29.1146       4.401218       0.07958
   0    1013.0       24.7614        3.8596       23.9517       27.8113       3.049879       0.09383



 Wavenumbers: 16000. - 22650. cm-1, ATM      1
 LEVEL PRESSURE   UPWARD FLUX   DIFDOWN FLUX  DIRDOWN FLUX  DOWNWARD FLUX   NET FLUX    HEATING RATE
          mb          W/m2          W/m2          W/m2        W/m2          W/m2       degree/day
  51    .06700       50.2154        0.0000       59.8178       59.8178       9.602352       0.00000
  50    .07753       50.2153        0.0003       59.8172       59.8175       9.602247       0.08427
  49    .09103       50.2151        0.0007       59.8165       59.8172       9.602094       0.09558
  48    0.1069       50.2148        0.0011       59.8156       59.8167       9.601889       0.10900
  47    0.1255       50.2146        0.0016       59.8146       59.8162       9.601615       0.12424
  46    0.1487       50.2143        0.0022       59.8133       59.8155       9.601211       0.14722
  45    0.1794       50.2139        0.0031       59.8114       59.8144       9.600580       0.17334
  44    0.2165       50.2134        0.0041       59.8090       59.8131       9.599723       0.19481
  43    0.2613       50.2129        0.0053       59.8062       59.8115       9.598562       0.21900
  42    0.3336       50.2121        0.0073       59.8012       59.8085       9.596353       0.25753
  41    0.4307       50.2111        0.0099       59.7943       59.8042       9.593023       0.28948
  40    0.5894       50.2098        0.0142       59.7822       59.7964       9.586675       0.33762
  39     1.339       50.2068        0.0345       59.7120       59.7466       9.539792       0.52781
  38     1.782       50.2076        0.0465       59.6610       59.7075       9.499886       0.75976
  37     2.292       50.2110        0.0603       59.5929       59.6532       9.442168       0.95596
  36     2.964       50.2193        0.0784       59.4896       59.5680       9.348776       1.17234
  35     3.853       50.2354        0.1023       59.3340       59.4362       9.200863       1.40372
  34     5.035       50.2620        0.1339       59.1089       59.2428       8.980804       1.57201
  33     6.613       50.3003        0.1760       58.8005       58.9765       8.676193       1.62845
  32     8.786       50.3493        0.2324       58.3988       58.6312       8.281915       1.53123
  31     11.80       50.4095        0.3127       57.8679       58.1806       7.771038       1.43030
  30     15.07       50.4627        0.3983       57.3477       57.7461       7.283394       1.25900
  29     18.79       50.5124        0.4944       56.8055       57.2999       6.787496       1.12435
  28     23.16       50.5587        0.6059       56.2235       56.8294       6.270703       0.99931
  27     28.12       50.5978        0.7324       55.6165       56.3489       5.751094       0.88330
  26     33.73       50.6217        0.8729       55.0160       55.8889       5.267230       0.72750
  25     40.54       50.6276        1.0415       54.3792       55.4207       4.793131       0.58817
  24     48.69       50.6128        1.2430       53.6977       54.9408       4.327986       0.48135
  23     57.69       50.5755        1.4625       53.0311       54.4936       3.918129       0.38418
  22     68.43       50.5087        1.7215       52.3239       54.0454       3.536784       0.29979
  21     81.20       50.3983        2.0273       51.5951       53.6224       3.224114       0.20661
  20     96.49       50.2391        2.3880       50.8320       53.2199       2.980878       0.13425
  19     114.6       50.0383        2.8105       49.9869       52.7974       2.759072       0.10357
  18     136.5       49.7944        3.3035       49.0339       52.3374       2.542985       0.08309
  17     162.9       49.5007        3.8798       47.9498       51.8296       2.328893       0.06843
  16     196.4       49.1089        4.6108       46.6370       51.2477       2.138800       0.04785
  15     218.7       48.8499        5.0812       45.8149       50.8961       2.046207       0.03515
  14     243.0       48.5697        5.5840       44.9467       50.5307       1.960979       0.02956
  13     269.0       48.2682        6.1191       44.0336       50.1527       1.884457       0.02482
  12     297.5       47.9454        6.6863       43.0759       49.7622       1.816741       0.02008
  11     328.5       47.6023        7.2864       42.0673       49.3538       1.751537       0.01773
  10     361.9       47.2395        7.9182       41.0102       48.9284       1.688927       0.01584
   9     398.1       46.8570        8.5818       39.9036       48.4854       1.628404       0.01410
   8     437.6       46.4559        9.2763       38.7478       48.0241       1.568232       0.01287
   7     480.5       46.0367       10.0002       37.5448       47.5450       1.508335       0.01176
   6     533.0       45.5359       10.8639       36.1103       46.9741       1.438211       0.01128
   5     589.8       45.0161       11.7605       34.6179       46.3784       1.362321       0.01126
   4     651.6       44.4801       12.6876       33.0657       45.7533       1.273191       0.01219
   3     718.7       43.9321       13.6404       31.4571       45.0975       1.165382       0.01355
   2     792.3       43.3793       14.6123       29.7924       44.4046       1.025312       0.01606
   1     891.5       42.6929       15.8479       27.6272       43.4751       0.782221       0.02069
   0    1013.0       41.9597       17.2176       25.1722       42.3898       0.430110       0.02445



 Wavenumbers: 22650. - 29000. cm-1, ATM      1
 LEVEL PRESSURE   UPWARD FLUX   DIFDOWN FLUX  DIRDOWN FLUX  DOWNWARD FLUX   NET FLUX    HEATING RATE
          mb          W/m2          W/m2          W/m2        W/m2          W/m2       degree/day
  51    .06700       22.3919        0.0000       22.5731       22.5731       0.181168       0.00000
  50    .07753       22.3917        0.0003       22.5725       22.5729       0.181168      -0.00000
  49    .09103       22.3914        0.0008       22.5718       22.5726       0.181168       0.00000
  48    0.1069       22.3911        0.0013       22.5710       22.5723       0.181168       0.00000
  47    0.1255       22.3908        0.0019       22.5701       22.5720       0.181168       0.00000
  46    0.1487       22.3904        0.0026       22.5689       22.5715       0.181168       0.00000
  45    0.1794       22.3898        0.0036       22.5674       22.5709       0.181168      -0.00000
  44    0.2165       22.3891        0.0048       22.5655       22.5703       0.181168       0.00000
  43    0.2613       22.3883        0.0062       22.5633       22.5694       0.181168       0.00000
  42    0.3336       22.3869        0.0085       22.5596       22.5681       0.181168      -0.00000
  41    0.4307       22.3851        0.0115       22.5548       22.5663       0.181168       0.00000
  40    0.5894       22.3822        0.0165       22.5468       22.5633       0.181168       0.00000
  39     1.339       22.3682        0.0401       22.5093       22.5494       0.181168      -0.00000
  38     1.782       22.3601        0.0540       22.4873       22.5412       0.181168       0.00000
  37     2.292       22.3506        0.0700       22.4618       22.5318       0.181168       0.00000
  36     2.964       22.3382        0.0910       22.4284       22.5194       0.181168       0.00000
  35     3.853       22.3219        0.1187       22.3844       22.5031       0.181168      -0.00000
  34     5.035       22.3003        0.1555       22.3259       22.4814       0.181168       0.00000
  33     6.613       22.2714        0.2044       22.2481       22.4526       0.181168       0.00000
  32     8.786       22.2327        0.2702       22.1436       22.4138       0.181168      -0.00000
  31     11.80       22.1775        0.3637       21.9949       22.3587       0.181168       0.00000
  30     15.07       22.1187        0.4635       21.8363       22.2999       0.181168       0.00000
  29     18.79       22.0527        0.5755       21.6584       22.2339       0.181168       0.00000
  28     23.16       21.9763        0.7051       21.4524       22.1575       0.181168      -0.00000
  27     28.12       21.8897        0.8519       21.2190       22.0709       0.181168       0.00000
  26     33.73       21.7940        1.0144       20.9608       21.9751       0.181168       0.00000
  25     40.54       21.6798        1.2080       20.6529       21.8610       0.181168       0.00000
  24     48.69       21.5443        1.4378       20.2877       21.7255       0.181168       0.00000
  23     57.69       21.3982        1.6855       19.8939       21.5794       0.181168      -0.00000
  22     68.43       21.2280        1.9742       19.4349       21.4091       0.181168       0.00000
  21     81.20       21.0302        2.3094       18.9020       21.2114       0.181168       0.00000
  20     96.49       20.8018        2.6966       18.2863       20.9830       0.181168      -0.00000
  19     114.6       20.5404        3.1396       17.5820       20.7216       0.181168       0.00000
  18     136.5       20.2437        3.6423       16.7826       20.4249       0.181168       0.00000
  17     162.9       19.9082        4.2104       15.8790       20.0894       0.181168      -0.00000
  16     196.4       19.5004        4.9009       14.7806       19.6815       0.181168      -0.00000
  15     218.7       19.2484        5.3272       14.1024       19.4296       0.181168       0.00000
  14     243.0       18.9881        5.7676       13.4017       19.1692       0.181168       0.00000
  13     269.0       18.7206        6.2197       12.6821       18.9018       0.181168       0.00000
  12     297.5       18.4481        6.6802       11.9491       18.6293       0.181168       0.00000
  11     328.5       18.1713        7.1477       11.2047       18.3524       0.181168       0.00000
  10     361.9       17.8926        7.6180       10.4557       18.0738       0.181168       0.00000
   9     398.1       17.6136        8.0884        9.7064       17.7948       0.181168      -0.00000
   8     437.6       17.3363        8.5557        8.9618       17.5174       0.181168       0.00000
   7     480.5       17.0624        9.0165        8.2270       17.2436       0.181168       0.00000
   6     533.0       16.7557        9.5320        7.4048       16.9368       0.181168      -0.00000
   5     589.8       16.4591       10.0295        6.6108       16.6403       0.181168       0.00000
   4     651.6       16.1747       10.5056        5.8503       16.3559       0.181168       0.00000
   3     718.7       15.9051       10.9557        5.1306       16.0863       0.181168       0.00000
   2     792.3       15.6522       11.3766        4.4568       15.8334       0.181168      -0.00000
   1     891.5       15.3610       11.8590        3.6831       15.5421       0.181168       0.00000
   0    1013.0       15.0749       12.3296        2.9265       15.2560       0.181168       0.00000



 Wavenumbers: 29000. - 38000. cm-1, ATM      1
 LEVEL PRESSURE   UPWARD FLUX   DIFDOWN FLUX  DIRDOWN FLUX  DOWNWARD FLUX   NET FLUX    HEATING RATE
          mb          W/m2          W/m2          W/m2        W/m2          W/m2       degree/day
  51    .06700        2.9845        0.0000        7.9602        7.9602       4.975677       0.00000
  50    .07753        2.9843        0.0003        7.9559        7.9562       4.971886       3.03873
  49    .09103        2.9840        0.0006        7.9497        7.9504       4.966386       3.43749
  48    0.1069        2.9837        0.0010        7.9417        7.9427       4.959052       3.90390
  47    0.1255        2.9833        0.0015        7.9311        7.9326       4.949295       4.42362
  46    0.1487        2.9828        0.0021        7.9158        7.9179       4.935042       5.19533
  45    0.1794        2.9822        0.0029        7.8924        7.8953       4.913079       6.02920
  44    0.2165        2.9814        0.0038        7.8615        7.8653       4.883918       6.63380
  43    0.2613        2.9806        0.0049        7.8211        7.8261       4.845484       7.24453
  42    0.3336        2.9792        0.0067        7.7483        7.7550       4.775838       8.12005
  41    0.4307        2.9774        0.0090        7.6473        7.6563       4.678881       8.43022
  40    0.5894        2.9747        0.0126        7.4789        7.4915       4.516881       8.61496
  39     1.339        2.9640        0.0273        6.7697        6.7971       3.833087       7.69828
  38     1.782        2.9590        0.0348        6.4617        6.4965       3.537503       5.62744
  37     2.292        2.9542        0.0428        6.1653        6.2082       3.253951       4.69635
  36     2.964        2.9492        0.0526        5.8405        5.8931       2.943870       3.89245
  35     3.853        2.9444        0.0644        5.4960        5.5604       2.616056       3.11102
  34     5.035        2.9397        0.0790        5.1482        5.2273       2.287517       2.34695
  33     6.613        2.9352        0.0973        4.8119        4.9092       1.974014       1.67598
  32     8.786        2.9299        0.1205        4.4930        4.6136       1.683683       1.12754
  31     11.80        2.9224        0.1519        4.1736        4.3256       1.403143       0.78542
  30     15.07        2.9143        0.1838        3.9229        4.1068       1.192446       0.54398
  29     18.79        2.9052        0.2180        3.7028        3.9207       1.015580       0.40101
  28     23.16        2.8944        0.2559        3.4983        3.7542       0.859803       0.30122
  27     28.12        2.8818        0.2971        3.3094        3.6066       0.724796       0.22950
  26     33.73        2.8664        0.3416        3.1386        3.4802       0.613774       0.16693
  25     40.54        2.8465        0.3931        2.9693        3.3624       0.515973       0.12133
  24     48.69        2.8215        0.4525        2.7977        3.2503       0.428787       0.09022
  23     57.69        2.7934        0.5147        2.6366        3.1514       0.358023       0.06633
  22     68.43        2.7595        0.5852        2.4712        3.0564       0.296910       0.04804
  21     81.20        2.7179        0.6649        2.3031        2.9680       0.250053       0.03096
  20     96.49        2.6684        0.7545        2.1297        2.8842       0.215794       0.01891
  19     114.6        2.6128        0.8528        1.9466        2.7994       0.186576       0.01364
  18     136.5        2.5520        0.9590        1.7529        2.7118       0.159813       0.01029
  17     162.9        2.4869        1.0721        1.5498        2.6218       0.134956       0.00795
  16     196.4        2.4115        1.2006        1.3252        2.5258       0.114300       0.00520
  15     218.7        2.3674        1.2749        1.1972        2.4721       0.104696       0.00365
  14     243.0        2.3239        1.3479        1.0721        2.4200       0.096123       0.00297
  13     269.0        2.2815        1.4186        0.9516        2.3702       0.088689       0.00241
  12     297.5        2.2407        1.4862        0.8369        2.3231       0.082349       0.00188
  11     328.5        2.2020        1.5501        0.7284        2.2784       0.076476       0.00160
  10     361.9        2.1657        1.6096        0.6271        2.2367       0.071055       0.00137
   9     398.1        2.1320        1.6645        0.5336        2.1981       0.066061       0.00116
   8     437.6        2.1013        1.7142        0.4484        2.1627       0.061366       0.00100
   7     480.5        2.0736        1.7587        0.3719        2.1306       0.057009       0.00086
   6     533.0        2.0458        1.8030        0.2951        2.0981       0.052356       0.00075
   5     589.8        2.0220        1.8403        0.2296        2.0699       0.047928       0.00066
   4     651.6        2.0022        1.8709        0.1749        2.0458       0.043652       0.00058
   3     718.7        1.9861        1.8952        0.1304        2.0256       0.039500       0.00052
   2     792.3        1.9733        1.9139        0.0948        2.0087       0.035455       0.00046
   1     891.5        1.9614        1.9305        0.0614        1.9919       0.030471       0.00042
   0    1013.0        1.9528        1.9417        0.0361        1.9778       0.024963       0.00038



 Wavenumbers: 38000. - 50000. cm-1, ATM      1
 LEVEL PRESSURE   UPWARD FLUX   DIFDOWN FLUX  DIRDOWN FLUX  DOWNWARD FLUX   NET FLUX    HEATING RATE
          mb          W/m2          W/m2          W/m2        W/m2          W/m2       degree/day
  51    .06700        0.0040        0.0000        0.4910        0.4910       0.486966       0.00000
  50    .07753        0.0040        0.0001        0.4885        0.4886       0.484638       1.86603
  49    .09103        0.0039        0.0002        0.4851        0.4852       0.481330       2.06753
  48    0.1069        0.0038        0.0002        0.4805        0.4808       0.477009       2.30025
  47    0.1255        0.0037        0.0004        0.4747        0.4751       0.471373       2.55491
  46    0.1487        0.0036        0.0005        0.4664        0.4669       0.463310       2.93916
  45    0.1794        0.0034        0.0007        0.4539        0.4546       0.451152       3.33778
  44    0.2165        0.0032        0.0009        0.4378        0.4387       0.435417       3.57928
  43    0.2613        0.0030        0.0011        0.4173        0.4184       0.415321       3.78810
  42    0.3336        0.0027        0.0014        0.3817        0.3831       0.380400       4.07140
  41    0.4307        0.0024        0.0018        0.3355        0.3373       0.334891       3.95694
  40    0.5894        0.0019        0.0022        0.2665        0.2687       0.266807       3.62059
  39     1.339        0.0008        0.0024        0.0834        0.0858       0.084977       2.04707
  38     1.782        0.0005        0.0021        0.0479        0.0500       0.049494       0.67554
  37     2.292        0.0003        0.0017        0.0275        0.0292       0.028865       0.34167
  36     2.964        0.0002        0.0013        0.0145        0.0158       0.015605       0.16645
  35     3.853        0.0001        0.0010        0.0070        0.0080       0.007861       0.07350
  34     5.035        0.0000        0.0007        0.0029        0.0035       0.003505       0.03111
  33     6.613        0.0000        0.0004        0.0009        0.0014       0.001359       0.01147
  32     8.786        0.0000        0.0003        0.0002        0.0005       0.000494       0.00336
  31     11.80        0.0000        0.0001        0.0000        0.0002       0.000174       0.00089
  30     15.07        0.0000        0.0001        0.0000        0.0001       0.000077       0.00025
  29     18.79        0.0000        0.0000        0.0000        0.0000       0.000037       0.00009
  28     23.16        0.0000        0.0000        0.0000        0.0000       0.000018       0.00004
  27     28.12        0.0000        0.0000        0.0000        0.0000       0.000008       0.00002
  26     33.73        0.0000        0.0000        0.0000        0.0000       0.000004       0.00001
  25     40.54        0.0000        0.0000        0.0000        0.0000       0.000002       0.00000
  24     48.69        0.0000        0.0000        0.0000        0.0000       0.000001       0.00000
  23     57.69        0.0000        0.0000        0.0000        0.0000       0.000000       0.00000
  22     68.43        0.0000        0.0000        0.0000        0.0000       0.000000       0.00000
  21     81.20        0.0000        0.0000        0.0000        0.0000       0.000000       0.00000
  20     96.49        0.0000        0.0000        0.0000        0.0000       0.000000       0.00000
  19     114.6        0.0000        0.0000        0.0000        0.0000       0.000000       0.00000
  18     136.5        0.0000        0.0000        0.0000        0.0000       0.000000       0.00000
  17     162.9        0.0000        0.0000        0.0000        0.0000       0.000000       0.00000
  16     196.4        0.0000        0.0000        0.0000        0.0000       0.000000       0.00000
  15     218.7        0.0000        0.0000        0.0000        0.0000       0.000000       0.00000
  14     243.0        0.0000        0.0000        0.0000        0.0000       0.000000       0.00000
  13     269.0        0.0000        0.0000        0.0000        0.0000       0.000000       0.00000
  12     297.5        0.0000        0.0000        0.0000        0.0000       0.000000       0.00000
  11     328.5        0.0000        0.0000        0.0000        0.0000       0.000000       0.00000
  10     361.9        0.0000        0.0000        0.0000        0.0000       0.000000       0.00000
   9     398.1        0.0000        0.0000        0.0000        0.0000       0.000000       0.00000
   8     437.6        0.0000        0.0000        0.0000        0.0000       0.000000       0.00000
   7     480.5        0.0000        0.0000        0.0000        0.0000       0.000000       0.00000
   6     533.0        0.0000        0.0000        0.0000        0.0000       0.000000       0.00000
   5     589.8        0.0000        0.0000        0.0000        0.0000       0.000000       0.00000
   4     651.6        0.0000        0.0000        0.0000        0.0000       0.000000       0.00000
   3     718.7        0.0000        0.0000        0.0000        0.0000       0.000000       0.00000
   2     792.3        0.0000        0.0000        0.0000        0.0000       0.000000       0.00000
   1     891.5        0.0000        0.0000        0.0000        0.0000       0.000000       0.00000
   0    1013.0        0.0000        0.0000        0.0000        0.0000       0.000000       0.00000



 Wavenumbers:   820. -  2600. cm-1, ATM      1
 LEVEL PRESSURE   UPWARD FLUX   DIFDOWN FLUX  DIRDOWN FLUX  DOWNWARD FLUX   NET FLUX    HEATING RATE
          mb          W/m2          W/m2          W/m2        W/m2          W/m2       degree/day
  51    .06700        0.1796        0.0000        2.2967        2.2967       2.117115       0.00000
  50    .07753        0.1796        0.0000        2.2949        2.2949       2.115243       1.50070
  49    .09103        0.1796        0.0000        2.2941        2.2941       2.114493       0.46845
  48    0.1069        0.1796        0.0000        2.2933        2.2933       2.113723       0.40971
  47    0.1255        0.1796        0.0000        2.2926        2.2926       2.112948       0.35168
  46    0.1487        0.1796        0.0000        2.2917        2.2917       2.112101       0.30870
  45    0.1794        0.1796        0.0000        2.2907        2.2907       2.111111       0.27183
  44    0.2165        0.1796        0.0000        2.2897        2.2897       2.110062       0.23853
  43    0.2613        0.1796        0.0000        2.2885        2.2885       2.108875       0.22384
  42    0.3336        0.1796        0.0000        2.2865        2.2865       2.106918       0.22809
  41    0.4307        0.1796        0.0000        2.2839        2.2839       2.104320       0.22593
  40    0.5894        0.1796        0.0000        2.2798        2.2798       2.100133       0.22264
  39     1.339        0.1796        0.0000        2.2613        2.2613       2.081658       0.20800
  38     1.782        0.1796        0.0000        2.2513        2.2513       2.071698       0.18961
  37     2.292        0.1796        0.0000        2.2407        2.2407       2.061115       0.17529
  36     2.964        0.1796        0.0000        2.2281        2.2281       2.048467       0.15877
  35     3.853        0.1796        0.0000        2.2127        2.2127       2.033128       0.14557
  34     5.035        0.1796        0.0000        2.1941        2.1941       2.014523       0.13290
  33     6.613        0.1796        0.0000        2.1726        2.1726       1.993013       0.11499
  32     8.786        0.1796        0.0000        2.1500        2.1500       1.970373       0.08793
  31     11.80        0.1796        0.0000        2.1279        2.1279       1.948321       0.06174
  30     15.07        0.1796        0.0000        2.1118        2.1118       1.932143       0.04177
  29     18.79        0.1796        0.0000        2.0970        2.0970       1.917328       0.03359
  28     23.16        0.1796        0.0000        2.0809        2.0809       1.901318       0.03096
  27     28.12        0.1796        0.0000        2.0632        2.0632       1.883604       0.03011
  26     33.73        0.1796        0.0000        2.0444        2.0444       1.864777       0.02831
  25     40.54        0.1796        0.0000        2.0230        2.0230       1.843371       0.02656
  24     48.69        0.1796        0.0000        1.9992        1.9992       1.819585       0.02461
  23     57.69        0.1796        0.0000        1.9751        1.9751       1.795444       0.02263
  22     68.43        0.1796        0.0000        1.9488        1.9488       1.769212       0.02062
  21     81.20        0.1796        0.0000        1.9210        1.9210       1.741331       0.01842
  20     96.49        0.1796        0.0000        1.8916        1.8916       1.712004       0.01619
  19     114.6        0.1796        0.0000        1.8611        1.8611       1.681426       0.01428
  18     136.5        0.1797        0.0000        1.8300        1.8300       1.650363       0.01194
  17     162.9        0.1797        0.0000        1.7959        1.7960       1.616308       0.01089
  16     196.4        0.1797        0.0000        1.7511        1.7511       1.571425       0.01130
  15     218.7        0.1797        0.0000        1.7145        1.7145       1.534806       0.01390
  14     243.0        0.1797        0.0000        1.6615        1.6615       1.481784       0.01839
  13     269.0        0.1798        0.0000        1.5845        1.5845       1.404771       0.02498
  12     297.5        0.1798        0.0000        1.4726        1.4726       1.292762       0.03322
  11     328.5        0.1799        0.0000        1.3542        1.3542       1.174275       0.03222
  10     361.9        0.1801        0.0000        1.2503        1.2504       1.070280       0.02631
   9     398.1        0.1803        0.0000        1.1728        1.1728       0.992502       0.01812
   8     437.6        0.1806        0.0000        1.1136        1.1136       0.933023       0.01272
   7     480.5        0.1809        0.0000        1.0600        1.0600       0.879065       0.01060
   6     533.0        0.1815        0.0000        0.9948        0.9948       0.813343       0.01057
   5     589.8        0.1824        0.0000        0.9243        0.9244       0.741979       0.01059
   4     651.6        0.1841        0.0000        0.8466        0.8467       0.662548       0.01086
   3     718.7        0.1872        0.0000        0.7658        0.7658       0.578623       0.01055
   2     792.3        0.1929        0.0000        0.6691        0.6692       0.476216       0.01174
   1     891.5        0.2075        0.0000        0.5122        0.5122       0.304774       0.01459
   0    1013.0        0.2414        0.0000        0.3185        0.3186       0.077191       0.01580

  Modules and versions used in this calculation:

       rrtmg_sw.1col.f90:  $Revision$                    rrtmg_sw_init.f90:  $Revision$        
     rrtmgsw_cldprop.f90:  $Revision$                  rrtmgsw_cldprmc.f90:  NOT USED          
     rrtmg_sw_reftra.f90:  $Revision$                  rrtmg_sw_spcvrt.f90:  NOT USED          
     rrtmg_sw_spcvmc.f90:  NOT USED                    rrtmgsw_setcoef.f90:  NOT USED          
     rrtmg_sw_taumol.f90:  $Revision$                  rrtmg_sw_vrtqdr.f90:  NOT USED          
                rrtatm.f:  NOT USED                             util_xxx.f:  NOT USED          
                 extra.f:  NOT USED                       rrtmg_sw_k_g.f90:  $Revision$        

