

 Wavenumbers:   820. - 50000. cm-1, ATM      1
 LEVEL PRESSURE   UPWARD FLUX   DIFDOWN FLUX  DIRDOWN FLUX  DOWNWARD FLUX   NET FLUX    HEATING RATE
          mb          W/m2          W/m2          W/m2        W/m2          W/m2       degree/day
  51    .06700      558.3879        0.0000      874.7370      874.7370     316.349075       0.00000
  50    .07753      558.3877        0.0015      874.7175      874.7190     316.331253      14.28495
  49    .09103      558.3876        0.0035      874.6995      874.7030     316.315397       9.91016
  48    0.1069      558.3875        0.0057      874.6790      874.6847     316.297228       9.67145
  47    0.1255      558.3874        0.0082      874.6542      874.6624     316.275050      10.05471
  46    0.1487      558.3874        0.0114      874.6203      874.6318     316.244400      11.17207
  45    0.1794      558.3874        0.0158      874.5704      874.5862     316.198747      12.53287
  44    0.2165      558.3877        0.0210      874.5062      874.5272     316.139456      13.48766
  43    0.2613      558.3882        0.0271      874.4233      874.4504     316.062182      14.56578
  42    0.3336      558.3896        0.0372      874.2740      874.3111     315.921546      16.39681
  41    0.4307      558.3919        0.0504      874.0610      874.1115     315.719555      17.56264
  40    0.5894      558.3971        0.0719      873.6831      873.7550     315.357862      19.23436
  39     1.339      558.4472        0.1700      871.5747      871.7446     313.297447      23.19654
  38     1.782      558.4945        0.2253      870.3484      870.5737     312.079225      23.19298
  37     2.292      558.5656        0.2884      869.0800      869.3684     310.802770      21.14142
  36     2.964      558.6839        0.3705      867.6840      868.0544     309.370554      17.97864
  35     3.853      558.8748        0.4782      866.1909      866.6691     307.794236      14.95955
  34     5.035      559.1627        0.6205      864.6016      865.2221     306.059405      12.39291
  33     6.613      559.5653        0.8099      862.9119      863.7218     304.156540      10.17272
  32     8.786      560.0914        1.0642      861.1084      862.1726     302.081185       8.05993
  31     11.80      560.7807        1.4266      859.0501      860.4767     299.695945       6.67792
  30     15.07      561.4472        1.8145      857.2192      859.0337     297.586455       5.44629
  29     18.79      562.1344        2.2511      855.4225      857.6736     295.539245       4.64165
  28     23.16      562.8613        2.7596      853.5719      856.3315     293.470218       4.00083
  27     28.12      563.6038        3.3395      851.6891      855.0286     291.424771       3.47712
  26     33.73      564.3042        3.9875      849.8359      853.8234     289.519153       2.86515
  25     40.54      564.9977        4.7692      847.8542      852.6234     287.625649       2.34911
  24     48.69      565.6853        5.7098      845.7051      851.4149     285.729568       1.96215
  23     57.69      566.2957        6.7406      843.5593      850.2999     284.004225       1.61725
  22     68.43      566.8643        7.9652      841.2204      849.1856     282.321354       1.32296
  21     81.20      567.3200        9.4215      838.7015      848.1230     280.802956       1.00333
  20     96.49      567.6557       11.1547      835.9421      847.0968     279.441135       0.75163
  19     114.6      567.9672       13.1985      832.7942      845.9927     278.025503       0.66100
  18     136.5      568.2620       15.6019      829.1890      844.7909     276.528955       0.57546
  17     162.9      568.5454       18.4363      824.9786      843.4149     274.869459       0.53044
  16     196.4      568.7631       22.0734      819.5251      841.5985     272.835448       0.51198
  15     218.7      568.8517       24.4378      815.5861      840.0239     271.172189       0.63148
  14     243.0      568.9244       26.9852      810.7409      837.7261     268.801682       0.82217
  13     269.0      568.9798       29.7199      804.6552      834.3750     265.395229       1.10504
  12     297.5      569.0204       32.6452      797.2228      829.8680     260.847623       1.34877
  11     328.5      569.0602       35.7717      789.1226      824.8943     255.834091       1.36317
  10     361.9      569.1035       39.0985      780.3806      819.4790     250.375588       1.38106
   9     398.1      569.1572       42.6343      770.7476      813.3819     244.224715       1.43302
   8     437.6      569.2362       46.3805      759.9960      806.3765     237.140363       1.51468
   7     480.5      569.3536       50.3395      748.3017      798.6412     229.287626       1.54225
   6     533.0      569.5669       55.1346      733.8493      788.9839     219.417022       1.58787
   5     589.8      569.9324       60.2098      718.0123      778.2221     208.289670       1.65166
   4     651.6      570.6138       65.5578      699.9917      765.5495     194.935703       1.82619
   3     718.7      571.7933       71.1750      680.4004      751.5754     179.782115       1.90439
   2     792.3      573.9080       77.0421      659.1145      736.1566     162.248618       2.01090
   1     891.5      579.0233       84.7195      630.3766      715.0960     136.072709       2.22744
   0    1013.0      591.2481       93.5952      597.2970      690.8921      99.643960       2.52943



 Wavenumbers:  2600. -  3250. cm-1, ATM      1
 LEVEL PRESSURE   UPWARD FLUX   DIFDOWN FLUX  DIRDOWN FLUX  DOWNWARD FLUX   NET FLUX    HEATING RATE
          mb          W/m2          W/m2          W/m2        W/m2          W/m2       degree/day
  51    .06700        0.0238        0.0000        7.7094        7.7094       7.685642       0.00000
  50    .07753        0.0238        0.0000        7.7094        7.7094       7.685634       0.00640
  49    .09103        0.0238        0.0000        7.7094        7.7094       7.685624       0.00627
  48    0.1069        0.0238        0.0000        7.7094        7.7094       7.685613       0.00613
  47    0.1255        0.0238        0.0000        7.7094        7.7094       7.685600       0.00600
  46    0.1487        0.0238        0.0000        7.7094        7.7094       7.685583       0.00608
  45    0.1794        0.0238        0.0000        7.7093        7.7093       7.685560       0.00625
  44    0.2165        0.0238        0.0000        7.7093        7.7093       7.685533       0.00613
  43    0.2613        0.0238        0.0000        7.7093        7.7093       7.685501       0.00600
  42    0.3336        0.0238        0.0000        7.7092        7.7092       7.685448       0.00618
  41    0.4307        0.0238        0.0000        7.7091        7.7091       7.685377       0.00621
  40    0.5894        0.0238        0.0000        7.7090        7.7090       7.685257       0.00638
  39     1.339        0.0238        0.0000        7.7083        7.7083       7.684545       0.00802
  38     1.782        0.0238        0.0000        7.7078        7.7078       7.683995       0.01046
  37     2.292        0.0238        0.0000        7.7070        7.7070       7.683266       0.01207
  36     2.964        0.0238        0.0000        7.7060        7.7060       7.682200       0.01338
  35     3.853        0.0238        0.0000        7.7044        7.7044       7.680667       0.01456
  34     5.035        0.0238        0.0000        7.7023        7.7023       7.678497       0.01550
  33     6.613        0.0238        0.0000        7.6993        7.6993       7.675491       0.01607
  32     8.786        0.0238        0.0000        7.6952        7.6952       7.671427       0.01578
  31     11.80        0.0238        0.0000        7.6896        7.6896       7.665820       0.01570
  30     15.07        0.0238        0.0000        7.6840        7.6840       7.660234       0.01442
  29     18.79        0.0238        0.0000        7.6783        7.6783       7.654547       0.01289
  28     23.16        0.0238        0.0000        7.6724        7.6724       7.648646       0.01141
  27     28.12        0.0238        0.0000        7.6664        7.6664       7.642604       0.01027
  26     33.73        0.0238        0.0000        7.6598        7.6599       7.636097       0.00978
  25     40.54        0.0238        0.0000        7.6518        7.6518       7.628031       0.01001
  24     48.69        0.0238        0.0000        7.6414        7.6414       7.617661       0.01073
  23     57.69        0.0238        0.0000        7.6289        7.6289       7.605177       0.01170
  22     68.43        0.0237        0.0000        7.6126        7.6126       7.588874       0.01282
  21     81.20        0.0237        0.0000        7.5915        7.5916       7.567824       0.01391
  20     96.49        0.0237        0.0000        7.5649        7.5650       7.541241       0.01467
  19     114.6        0.0237        0.0000        7.5313        7.5313       7.507595       0.01571
  18     136.5        0.0237        0.0000        7.4910        7.4911       7.467357       0.01547
  17     162.9        0.0237        0.0001        7.4436        7.4437       7.419969       0.01515
  16     196.4        0.0237        0.0001        7.3840        7.3840       7.360312       0.01502
  15     218.7        0.0237        0.0001        7.3434        7.3435       7.319754       0.01540
  14     243.0        0.0237        0.0001        7.2945        7.2946       7.270847       0.01696
  13     269.0        0.0237        0.0001        7.2341        7.2342       7.210458       0.01959
  12     297.5        0.0237        0.0001        7.1608        7.1609       7.137134       0.02175
  11     328.5        0.0237        0.0001        7.0779        7.0781       7.054306       0.02252
  10     361.9        0.0238        0.0001        6.9830        6.9831       6.959322       0.02403
   9     398.1        0.0238        0.0001        6.8682        6.8683       6.844507       0.02675
   8     437.6        0.0239        0.0001        6.7233        6.7234       6.699558       0.03099
   7     480.5        0.0240        0.0001        6.5407        6.5409       6.516937       0.03587
   6     533.0        0.0241        0.0002        6.2823        6.2824       6.258347       0.04160
   5     589.8        0.0243        0.0002        5.9654        5.9656       5.941275       0.04706
   4     651.6        0.0246        0.0002        5.5846        5.5848       5.560174       0.05212
   3     718.7        0.0252        0.0002        5.1728        5.1730       5.147801       0.05182
   2     792.3        0.0260        0.0002        4.7207        4.7209       4.694805       0.05195
   1     891.5        0.0281        0.0002        4.0892        4.0894       4.061229       0.05391
   0    1013.0        0.0335        0.0002        3.3791        3.3792       3.345759       0.04968



 Wavenumbers:  3250. -  4000. cm-1, ATM      1
 LEVEL PRESSURE   UPWARD FLUX   DIFDOWN FLUX  DIRDOWN FLUX  DOWNWARD FLUX   NET FLUX    HEATING RATE
          mb          W/m2          W/m2          W/m2        W/m2          W/m2       degree/day
  51    .06700        0.0005        0.0000       12.9969       12.9969      12.996452       0.00000
  50    .07753        0.0005        0.0000       12.9917       12.9917      12.991197       4.21209
  49    .09103        0.0005        0.0000       12.9875       12.9875      12.986980       2.63549
  48    0.1069        0.0005        0.0000       12.9842       12.9842      12.983719       1.73620
  47    0.1255        0.0005        0.0000       12.9814       12.9814      12.980892       1.28132
  46    0.1487        0.0005        0.0000       12.9784       12.9784      12.977943       1.07509
  45    0.1794        0.0005        0.0000       12.9750       12.9750      12.974468       0.95394
  44    0.2165        0.0005        0.0000       12.9714       12.9714      12.970862       0.82035
  43    0.2613        0.0005        0.0000       12.9676       12.9676      12.967109       0.70745
  42    0.3336        0.0005        0.0000       12.9623       12.9623      12.961812       0.61759
  41    0.4307        0.0005        0.0000       12.9564       12.9564      12.955935       0.51095
  40    0.5894        0.0005        0.0000       12.9482       12.9482      12.947716       0.43710
  39     1.339        0.0005        0.0000       12.9171       12.9171      12.916586       0.35047
  38     1.782        0.0005        0.0000       12.9027       12.9027      12.902214       0.27362
  37     2.292        0.0005        0.0000       12.8887       12.8887      12.888199       0.23212
  36     2.964        0.0005        0.0000       12.8730       12.8730      12.872481       0.19731
  35     3.853        0.0005        0.0000       12.8548       12.8548      12.854272       0.17280
  34     5.035        0.0005        0.0000       12.8326       12.8326      12.832144       0.15808
  33     6.613        0.0005        0.0000       12.8041       12.8041      12.803663       0.15226
  32     8.786        0.0005        0.0000       12.7652       12.7652      12.764714       0.15126
  31     11.80        0.0005        0.0000       12.7073       12.7073      12.706794       0.16216
  30     15.07        0.0005        0.0000       12.6427       12.6428      12.642284       0.16655
  29     18.79        0.0005        0.0000       12.5678       12.5678      12.567364       0.16986
  28     23.16        0.0005        0.0000       12.4793       12.4793      12.478879       0.17110
  27     28.12        0.0005        0.0000       12.3793       12.3793      12.378859       0.17003
  26     33.73        0.0004        0.0000       12.2722       12.2722      12.271795       0.16097
  25     40.54        0.0004        0.0001       12.1520       12.1521      12.151635       0.14907
  24     48.69        0.0004        0.0001       12.0219       12.0220      12.021541       0.13463
  23     57.69        0.0004        0.0001       11.8938       11.8939      11.893444       0.12007
  22     68.43        0.0004        0.0001       11.7544       11.7545      11.754091       0.10955
  21     81.20        0.0004        0.0001       11.5974       11.5975      11.597162       0.10370
  20     96.49        0.0004        0.0001       11.4152       11.4154      11.414988       0.10055
  19     114.6        0.0003        0.0001       11.1946       11.1948      11.194413       0.10299
  18     136.5        0.0003        0.0002       10.9437       10.9439      10.943590       0.09645
  17     162.9        0.0003        0.0002       10.6475       10.6477      10.647429       0.09466
  16     196.4        0.0003        0.0002       10.2224       10.2226      10.222361       0.10699
  15     218.7        0.0002        0.0002        9.8264        9.8267       9.826451       0.15031
  14     243.0        0.0002        0.0002        9.2828        9.2831       9.282870       0.18853
  13     269.0        0.0002        0.0003        8.5835        8.5837       8.583560       0.22685
  12     297.5        0.0002        0.0003        7.7797        7.7799       7.779779       0.23839
  11     328.5        0.0001        0.0002        6.9795        6.9798       6.979613       0.21756
  10     361.9        0.0001        0.0002        6.1878        6.1880       6.187898       0.20031
   9     398.1        0.0001        0.0002        5.4186        5.4188       5.418691       0.17921
   8     437.6        0.0001        0.0002        4.6951        4.6953       4.695262       0.15467
   7     480.5        0.0001        0.0002        4.0435        4.0437       4.043662       0.12797
   6     533.0        0.0001        0.0002        3.3554        3.3556       3.355518       0.11070
   5     589.8        0.0000        0.0002        2.6998        2.7000       2.699939       0.09731
   4     651.6        0.0000        0.0001        2.0330        2.0331       2.033106       0.09119
   3     718.7        0.0000        0.0001        1.3973        1.3974       1.397413       0.07989
   2     792.3        0.0000        0.0001        0.8426        0.8426       0.842602       0.06363
   1     891.5        0.0001        0.0000        0.3344        0.3345       0.334364       0.04325
   0    1013.0        0.0010        0.0000        0.0572        0.0572       0.056193       0.01931



 Wavenumbers:  4000. -  4650. cm-1, ATM      1
 LEVEL PRESSURE   UPWARD FLUX   DIFDOWN FLUX  DIRDOWN FLUX  DOWNWARD FLUX   NET FLUX    HEATING RATE
          mb          W/m2          W/m2          W/m2        W/m2          W/m2       degree/day
  51    .06700        1.2833        0.0000       15.2623       15.2623      13.978989       0.00000
  50    .07753        1.2833        0.0000       15.2623       15.2623      13.978988       0.00080
  49    .09103        1.2833        0.0000       15.2623       15.2623      13.978986       0.00078
  48    0.1069        1.2833        0.0000       15.2623       15.2623      13.978985       0.00076
  47    0.1255        1.2833        0.0000       15.2623       15.2623      13.978983       0.00075
  46    0.1487        1.2833        0.0000       15.2623       15.2623      13.978981       0.00076
  45    0.1794        1.2833        0.0000       15.2623       15.2623      13.978978       0.00078
  44    0.2165        1.2833        0.0000       15.2623       15.2623      13.978975       0.00076
  43    0.2613        1.2833        0.0000       15.2623       15.2623      13.978971       0.00075
  42    0.3336        1.2833        0.0000       15.2623       15.2623      13.978964       0.00077
  41    0.4307        1.2833        0.0000       15.2623       15.2623      13.978956       0.00077
  40    0.5894        1.2833        0.0000       15.2623       15.2623      13.978941       0.00080
  39     1.339        1.2833        0.0000       15.2622       15.2622      13.978851       0.00101
  38     1.782        1.2833        0.0000       15.2621       15.2621      13.978781       0.00133
  37     2.292        1.2833        0.0000       15.2620       15.2620      13.978687       0.00156
  36     2.964        1.2833        0.0000       15.2619       15.2619      13.978547       0.00176
  35     3.853        1.2833        0.0000       15.2617       15.2617      13.978339       0.00197
  34     5.035        1.2833        0.0000       15.2613       15.2614      13.978032       0.00219
  33     6.613        1.2833        0.0000       15.2609       15.2609      13.977580       0.00242
  32     8.786        1.2833        0.0000       15.2602       15.2602      13.976913       0.00259
  31     11.80        1.2833        0.0000       15.2591       15.2592      13.975863       0.00294
  30     15.07        1.2833        0.0001       15.2579       15.2579      13.974630       0.00318
  29     18.79        1.2833        0.0001       15.2564       15.2564      13.973138       0.00338
  28     23.16        1.2833        0.0001       15.2545       15.2546      13.971282       0.00359
  27     28.12        1.2833        0.0001       15.2522       15.2523      13.969032       0.00382
  26     33.73        1.2833        0.0001       15.2494       15.2495      13.966253       0.00418
  25     40.54        1.2832        0.0002       15.2456       15.2457      13.962475       0.00469
  24     48.69        1.2832        0.0002       15.2405       15.2406      13.957427       0.00522
  23     57.69        1.2832        0.0002       15.2344       15.2346      13.951426       0.00563
  22     68.43        1.2832        0.0003       15.2268       15.2271      13.943887       0.00593
  21     81.20        1.2832        0.0003       15.2174       15.2177      13.934572       0.00616
  20     96.49        1.2832        0.0004       15.2060       15.2064      13.923211       0.00627
  19     114.6        1.2832        0.0004       15.1917       15.1921      13.908973       0.00665
  18     136.5        1.2832        0.0005       15.1745       15.1750      13.891789       0.00661
  17     162.9        1.2832        0.0006       15.1533       15.1539      13.870708       0.00674
  16     196.4        1.2834        0.0007       15.1243       15.1250      13.841643       0.00732
  15     218.7        1.2835        0.0008       15.1021       15.1029      13.819411       0.00844
  14     243.0        1.2837        0.0009       15.0724       15.0733      13.789634       0.01033
  13     269.0        1.2841        0.0010       15.0314       15.0324      13.748296       0.01341
  12     297.5        1.2847        0.0011       14.9760       14.9771      13.692446       0.01656
  11     328.5        1.2855        0.0012       14.9073       14.9085      13.623025       0.01888
  10     361.9        1.2866        0.0013       14.8200       14.8213      13.534678       0.02235
   9     398.1        1.2880        0.0015       14.7060       14.7074      13.419408       0.02686
   8     437.6        1.2898        0.0016       14.5570       14.5585      13.268747       0.03221
   7     480.5        1.2920        0.0017       14.3733       14.3750      13.083007       0.03648
   6     533.0        1.2954        0.0019       14.1268       14.1287      12.833287       0.04017
   5     589.8        1.3001        0.0020       13.8455       13.8475      12.547443       0.04243
   4     651.6        1.3073        0.0022       13.5043       13.5065      12.199151       0.04763
   3     718.7        1.3187        0.0023       13.0704       13.0727      11.754032       0.05594
   2     792.3        1.3377        0.0024       12.4891       12.4916      11.153852       0.06883
   1     891.5        1.3821        0.0026       11.6064       11.6090      10.226894       0.07888
   0    1013.0        1.4914        0.0027       10.6194       10.6220       9.130677       0.07612



 Wavenumbers:  4650. -  5150. cm-1, ATM      1
 LEVEL PRESSURE   UPWARD FLUX   DIFDOWN FLUX  DIRDOWN FLUX  DOWNWARD FLUX   NET FLUX    HEATING RATE
          mb          W/m2          W/m2          W/m2        W/m2          W/m2       degree/day
  51    .06700        0.2966        0.0000       14.4465       14.4465      14.149874       0.00000
  50    .07753        0.2966        0.0000       14.4463       14.4463      14.149638       0.18914
  49    .09103        0.2966        0.0000       14.4460       14.4460      14.149343       0.18469
  48    0.1069        0.2966        0.0000       14.4456       14.4456      14.149005       0.18002
  47    0.1255        0.2966        0.0000       14.4453       14.4453      14.148618       0.17531
  46    0.1487        0.2966        0.0000       14.4448       14.4448      14.148133       0.17685
  45    0.1794        0.2966        0.0000       14.4441       14.4441      14.147475       0.18059
  44    0.2165        0.2966        0.0000       14.4433       14.4433      14.146703       0.17548
  43    0.2613        0.2966        0.0000       14.4424       14.4424      14.145800       0.17030
  42    0.3336        0.2966        0.0000       14.4410       14.4410      14.144329       0.17154
  41    0.4307        0.2966        0.0000       14.4391       14.4391      14.142421       0.16589
  40    0.5894        0.2966        0.0000       14.4360       14.4360      14.139407       0.16029
  39     1.339        0.2966        0.0000       14.4233       14.4233      14.126675       0.14334
  38     1.782        0.2966        0.0000       14.4169       14.4169      14.120234       0.12263
  37     2.292        0.2966        0.0000       14.4102       14.4102      14.113611       0.10969
  36     2.964        0.2966        0.0000       14.4027       14.4027      14.106060       0.09478
  35     3.853        0.2966        0.0000       14.3943       14.3943      14.097711       0.07924
  34     5.035        0.2966        0.0000       14.3854       14.3854      14.088791       0.06372
  33     6.613        0.2966        0.0000       14.3761       14.3761      14.079519       0.04957
  32     8.786        0.2966        0.0000       14.3664       14.3665      14.069851       0.03755
  31     11.80        0.2966        0.0001       14.3552       14.3552      14.058635       0.03140
  30     15.07        0.2966        0.0001       14.3441       14.3442      14.047601       0.02849
  29     18.79        0.2966        0.0001       14.3314       14.3315      14.034910       0.02877
  28     23.16        0.2965        0.0001       14.3155       14.3156      14.019054       0.03066
  27     28.12        0.2965        0.0002       14.2957       14.2958      13.999305       0.03357
  26     33.73        0.2965        0.0002       14.2716       14.2718      13.975266       0.03614
  25     40.54        0.2965        0.0002       14.2400       14.2403      13.943797       0.03904
  24     48.69        0.2964        0.0003       14.1993       14.1995      13.903093       0.04212
  23     57.69        0.2964        0.0003       14.1518       14.1521      13.855724       0.04440
  22     68.43        0.2964        0.0004       14.0930       14.0934      13.797044       0.04613
  21     81.20        0.2963        0.0004       14.0216       14.0220      13.725666       0.04717
  20     96.49        0.2963        0.0005       13.9366       13.9371      13.640781       0.04685
  19     114.6        0.2963        0.0006       13.8383       13.8389      13.542631       0.04583
  18     136.5        0.2962        0.0007       13.7282       13.7289      13.432709       0.04227
  17     162.9        0.2962        0.0009       13.6074       13.6082      13.312003       0.03858
  16     196.4        0.2962        0.0010       13.4662       13.4672      13.170952       0.03550
  15     218.7        0.2962        0.0011       13.3802       13.3813      13.085037       0.03262
  14     243.0        0.2963        0.0012       13.2893       13.2905      12.994221       0.03150
  13     269.0        0.2964        0.0014       13.1900       13.1913      12.894943       0.03221
  12     297.5        0.2966        0.0015       13.0764       13.0779      12.781313       0.03370
  11     328.5        0.2969        0.0016       12.9475       12.9491      12.652269       0.03509
  10     361.9        0.2972        0.0018       12.7993       12.8011      12.503862       0.03755
   9     398.1        0.2978        0.0019       12.6259       12.6278      12.330045       0.04050
   8     437.6        0.2985        0.0021       12.4217       12.4238      12.125329       0.04377
   7     480.5        0.2995        0.0022       12.1817       12.1839      11.884414       0.04731
   6     533.0        0.3010        0.0024       11.8580       11.8604      11.559363       0.05229
   5     589.8        0.3032        0.0026       11.4734       11.4760      11.172807       0.05738
   4     651.6        0.3064        0.0027       11.0091       11.0118      10.705372       0.06392
   3     718.7        0.3113        0.0028       10.4749       10.4777      10.166411       0.06773
   2     792.3        0.3190        0.0029        9.8845        9.8875       9.568537       0.06857
   1     891.5        0.3353        0.0030        9.0999        9.1029       8.767667       0.06815
   0    1013.0        0.3698        0.0031        8.2332        8.2363       7.866489       0.06257



 Wavenumbers:  5150. -  6150. cm-1, ATM      1
 LEVEL PRESSURE   UPWARD FLUX   DIFDOWN FLUX  DIRDOWN FLUX  DOWNWARD FLUX   NET FLUX    HEATING RATE
          mb          W/m2          W/m2          W/m2        W/m2          W/m2       degree/day
  51    .06700        2.8474        0.0000       36.2175       36.2175      33.370094       0.00000
  50    .07753        2.8474        0.0000       36.2174       36.2174      33.370055       0.03157
  49    .09103        2.8474        0.0000       36.2174       36.2174      33.370004       0.03206
  48    0.1069        2.8474        0.0000       36.2173       36.2173      33.369942       0.03257
  47    0.1255        2.8474        0.0000       36.2173       36.2173      33.369870       0.03307
  46    0.1487        2.8474        0.0000       36.2172       36.2172      33.369774       0.03484
  45    0.1794        2.8474        0.0000       36.2170       36.2170      33.369639       0.03709
  44    0.2165        2.8474        0.0000       36.2169       36.2169      33.369473       0.03766
  43    0.2613        2.8474        0.0000       36.2166       36.2167      33.369270       0.03825
  42    0.3336        2.8474        0.0000       36.2163       36.2163      33.368924       0.04042
  41    0.4307        2.8474        0.0000       36.2158       36.2158      33.368452       0.04099
  40    0.5894        2.8474        0.0000       36.2150       36.2150      33.367662       0.04203
  39     1.339        2.8474        0.0000       36.2112       36.2112      33.363846       0.04296
  38     1.782        2.8474        0.0000       36.2089       36.2090      33.361618       0.04242
  37     2.292        2.8473        0.0001       36.2064       36.2064      33.359090       0.04187
  36     2.964        2.8473        0.0001       36.2031       36.2032      33.355869       0.04043
  35     3.853        2.8473        0.0001       36.1990       36.1991      33.351760       0.03900
  34     5.035        2.8473        0.0001       36.1936       36.1937      33.346442       0.03799
  33     6.613        2.8473        0.0002       36.1866       36.1868      33.339500       0.03711
  32     8.786        2.8472        0.0002       36.1774       36.1777      33.330427       0.03524
  31     11.80        2.8472        0.0003       36.1649       36.1652      33.318016       0.03475
  30     15.07        2.8471        0.0004       36.1521       36.1525      33.305405       0.03256
  29     18.79        2.8471        0.0005       36.1386       36.1391      33.292042       0.03030
  28     23.16        2.8470        0.0006       36.1238       36.1244      33.277430       0.02825
  27     28.12        2.8469        0.0007       36.1080       36.1087      33.261814       0.02655
  26     33.73        2.8468        0.0009       36.0917       36.0926      33.245718       0.02420
  25     40.54        2.8468        0.0011       36.0736       36.0747      33.227928       0.02207
  24     48.69        2.8467        0.0013       36.0539       36.0552      33.208578       0.02002
  23     57.69        2.8466        0.0015       36.0341       36.0357      33.189107       0.01825
  22     68.43        2.8465        0.0018       36.0124       36.0142      33.167784       0.01676
  21     81.20        2.8463        0.0022       35.9882       35.9904      33.144015       0.01571
  20     96.49        2.8462        0.0026       35.9607       35.9633      33.117062       0.01488
  19     114.6        2.8461        0.0030       35.9290       35.9320      33.085949       0.01453
  18     136.5        2.8459        0.0036       35.8918       35.8954      33.049533       0.01400
  17     162.9        2.8457        0.0043       35.8366       35.8409      32.995165       0.01738
  16     196.4        2.8455        0.0052       35.7206       35.7257      32.880269       0.02892
  15     218.7        2.8453        0.0057       35.5513       35.5570      32.711661       0.06401
  14     243.0        2.8452        0.0063       35.2126       35.2189      32.373666       0.11723
  13     269.0        2.8452        0.0068       34.5819       34.5888      31.743557       0.20440
  12     297.5        2.8453        0.0073       33.6875       33.6949      30.849597       0.26514
  11     328.5        2.8454        0.0079       32.7697       32.7776      29.932124       0.24946
  10     361.9        2.8458        0.0084       31.7810       31.7895      28.943708       0.25008
   9     398.1        2.8463        0.0089       30.6253       30.6342      27.787913       0.26927
   8     437.6        2.8471        0.0094       29.3058       29.3152      26.468054       0.28219
   7     480.5        2.8484        0.0098       27.9161       27.9259      25.077511       0.27310
   6     533.0        2.8506        0.0103       26.2895       26.2998      23.449170       0.26195
   5     589.8        2.8543        0.0108       24.6657       24.6765      21.822222       0.24149
   4     651.6        2.8610        0.0112       23.0654       23.0766      20.215578       0.21971
   3     718.7        2.8731        0.0117       21.6929       21.7046      18.831506       0.17394
   2     792.3        2.8957        0.0123       20.5500       20.5624      17.666660       0.13359
   1     891.5        2.9559        0.0131       19.2771       19.2902      16.334293       0.11338
   0    1013.0        3.1386        0.0138       17.8293       17.8431      14.704513       0.11316



 Wavenumbers:  6150. -  7700. cm-1, ATM      1
 LEVEL PRESSURE   UPWARD FLUX   DIFDOWN FLUX  DIRDOWN FLUX  DOWNWARD FLUX   NET FLUX    HEATING RATE
          mb          W/m2          W/m2          W/m2        W/m2          W/m2       degree/day
  51    .06700        4.9465        0.0000       66.9856       66.9856      62.039094       0.00000
  50    .07753        4.9465        0.0000       66.9856       66.9856      62.039037       0.04553
  49    .09103        4.9465        0.0000       66.9855       66.9855      62.038964       0.04583
  48    0.1069        4.9465        0.0000       66.9854       66.9854      62.038877       0.04614
  47    0.1255        4.9465        0.0000       66.9853       66.9853      62.038775       0.04645
  46    0.1487        4.9465        0.0000       66.9851       66.9852      62.038642       0.04853
  45    0.1794        4.9465        0.0000       66.9850       66.9850      62.038455       0.05128
  44    0.2165        4.9465        0.0000       66.9847       66.9847      62.038228       0.05169
  43    0.2613        4.9465        0.0000       66.9844       66.9845      62.037951       0.05213
  42    0.3336        4.9465        0.0000       66.9839       66.9840      62.037481       0.05475
  41    0.4307        4.9465        0.0000       66.9833       66.9833      62.036846       0.05526
  40    0.5894        4.9465        0.0001       66.9822       66.9823      62.035785       0.05641
  39     1.339        4.9464        0.0001       66.9769       66.9771      62.030678       0.05750
  38     1.782        4.9464        0.0002       66.9739       66.9741      62.027693       0.05682
  37     2.292        4.9463        0.0003       66.9704       66.9706      62.024295       0.05628
  36     2.964        4.9462        0.0003       66.9659       66.9662      62.019941       0.05467
  35     3.853        4.9462        0.0004       66.9601       66.9605      62.014345       0.05310
  34     5.035        4.9460        0.0006       66.9525       66.9531      62.007063       0.05202
  33     6.613        4.9459        0.0007       66.9427       66.9434      61.997502       0.05111
  32     8.786        4.9457        0.0010       66.9296       66.9306      61.984906       0.04892
  31     11.80        4.9454        0.0013       66.9115       66.9129      61.967466       0.04883
  30     15.07        4.9451        0.0017       66.8929       66.8945      61.949475       0.04645
  29     18.79        4.9447        0.0021       66.8727       66.8748      61.930069       0.04400
  28     23.16        4.9443        0.0026       66.8502       66.8527      61.908448       0.04181
  27     28.12        4.9438        0.0032       66.8255       66.8287      61.884882       0.04006
  26     33.73        4.9433        0.0038       66.7996       66.8033      61.860056       0.03733
  25     40.54        4.9426        0.0045       66.7701       66.7746      61.831973       0.03484
  24     48.69        4.9418        0.0054       66.7371       66.7426      61.800717       0.03235
  23     57.69        4.9410        0.0064       66.7032       66.7096      61.768614       0.03009
  22     68.43        4.9400        0.0076       66.6650       66.6726      61.732665       0.02826
  21     81.20        4.9387        0.0091       66.6217       66.6308      61.692062       0.02683
  20     96.49        4.9373        0.0108       66.5718       66.5825      61.645263       0.02583
  19     114.6        4.9355        0.0128       66.5134       66.5262      61.590646       0.02550
  18     136.5        4.9335        0.0152       66.4444       66.4596      61.526149       0.02480
  17     162.9        4.9310        0.0180       66.3456       66.3636      61.432622       0.02989
  16     196.4        4.9278        0.0217       66.1464       66.1681      61.240276       0.04842
  15     218.7        4.9258        0.0240       65.8725       65.8965      60.970685       0.10235
  14     243.0        4.9237        0.0265       65.3806       65.4070      60.483368       0.16902
  13     269.0        4.9215        0.0289       64.5319       64.5608      59.639306       0.27381
  12     297.5        4.9195        0.0313       63.1705       63.2018      58.282355       0.40246
  11     328.5        4.9176        0.0337       61.5522       61.5858      56.668239       0.43887
  10     361.9        4.9160        0.0361       59.8097       59.8458      54.929776       0.43985
   9     398.1        4.9149        0.0384       57.8831       57.9214      53.006551       0.44807
   8     437.6        4.9146        0.0405       55.6283       55.6687      50.754096       0.48159
   7     480.5        4.9157        0.0424       53.1112       53.1536      48.237900       0.49417
   6     533.0        4.9193        0.0444       50.0391       50.0834      45.164126       0.49447
   5     589.8        4.9277        0.0461       46.7741       46.8202      41.892428       0.48563
   4     651.6        4.9462        0.0473       43.2007       43.2480      38.301763       0.49103
   3     718.7        4.9819        0.0481       39.6522       39.7004      34.718430       0.45033
   2     792.3        5.0512        0.0487       36.1772       36.2259      31.174740       0.40642
   1     891.5        5.2344        0.0492       32.1325       32.1817      26.947330       0.35973
   0    1013.0        5.7657        0.0499       28.2888       28.3386      22.572942       0.30374



 Wavenumbers:  7700. -  8050. cm-1, ATM      1
 LEVEL PRESSURE   UPWARD FLUX   DIFDOWN FLUX  DIRDOWN FLUX  DOWNWARD FLUX   NET FLUX    HEATING RATE
          mb          W/m2          W/m2          W/m2        W/m2          W/m2       degree/day
  51    .06700        7.4816        0.0000       15.8307       15.8307       8.349140       0.00000
  50    .07753        7.4816        0.0000       15.8307       15.8307       8.349117       0.01831
  49    .09103        7.4816        0.0000       15.8307       15.8307       8.349088       0.01794
  48    0.1069        7.4816        0.0000       15.8306       15.8306       8.349055       0.01757
  47    0.1255        7.4816        0.0000       15.8306       15.8306       8.349017       0.01719
  46    0.1487        7.4816        0.0000       15.8306       15.8306       8.348969       0.01744
  45    0.1794        7.4816        0.0000       15.8305       15.8305       8.348904       0.01795
  44    0.2165        7.4816        0.0000       15.8304       15.8304       8.348827       0.01761
  43    0.2613        7.4816        0.0000       15.8304       15.8304       8.348735       0.01728
  42    0.3336        7.4817        0.0000       15.8302       15.8303       8.348583       0.01768
  41    0.4307        7.4817        0.0000       15.8301       15.8301       8.348382       0.01749
  40    0.5894        7.4818        0.0000       15.8298       15.8298       8.348054       0.01747
  39     1.339        7.4821        0.0001       15.8285       15.8286       8.346499       0.01750
  38     1.782        7.4823        0.0001       15.8278       15.8279       8.345586       0.01739
  37     2.292        7.4825        0.0001       15.8269       15.8271       8.344529       0.01751
  36     2.964        7.4828        0.0002       15.8258       15.8260       8.343141       0.01743
  35     3.853        7.4832        0.0002       15.8243       15.8245       8.341306       0.01741
  34     5.035        7.4838        0.0003       15.8223       15.8226       8.338869       0.01741
  33     6.613        7.4845        0.0004       15.8197       15.8201       8.335613       0.01741
  32     8.786        7.4854        0.0005       15.8161       15.8166       8.331224       0.01704
  31     11.80        7.4867        0.0007       15.8110       15.8117       8.324946       0.01758
  30     15.07        7.4882        0.0009       15.8055       15.8064       8.318205       0.01740
  29     18.79        7.4899        0.0011       15.7993       15.8004       8.310591       0.01726
  28     23.16        7.4918        0.0014       15.7921       15.7935       8.301700       0.01719
  27     28.12        7.4940        0.0017       15.7839       15.7855       8.291537       0.01728
  26     33.73        7.4965        0.0020       15.7747       15.7767       8.280171       0.01709
  25     40.54        7.4995        0.0024       15.7636       15.7660       8.266450       0.01702
  24     48.69        7.5032        0.0029       15.7503       15.7531       8.249926       0.01710
  23     57.69        7.5072        0.0034       15.7357       15.7390       8.231800       0.01699
  22     68.43        7.5121        0.0040       15.7183       15.7223       8.210249       0.01694
  21     81.20        7.5179        0.0048       15.6978       15.7025       8.184627       0.01693
  20     96.49        7.5249        0.0056       15.6735       15.6791       8.154175       0.01681
  19     114.6        7.5333        0.0067       15.6448       15.6515       8.118131       0.01683
  18     136.5        7.5434        0.0080       15.6110       15.6190       8.075564       0.01637
  17     162.9        7.5556        0.0094       15.5712       15.5807       8.025083       0.01614
  16     196.4        7.5717        0.0114       15.5202       15.5316       7.959932       0.01640
  15     218.7        7.5824        0.0126       15.4870       15.4997       7.917298       0.01619
  14     243.0        7.5942        0.0140       15.4512       15.4653       7.871030       0.01605
  13     269.0        7.6073        0.0155       15.4127       15.4282       7.820897       0.01626
  12     297.5        7.6217        0.0171       15.3712       15.3883       7.766595       0.01611
  11     328.5        7.6377        0.0189       15.3266       15.3455       7.707715       0.01601
  10     361.9        7.6555        0.0207       15.2787       15.2994       7.643940       0.01614
   9     398.1        7.6752        0.0227       15.2271       15.2499       7.574642       0.01614
   8     437.6        7.6973        0.0249       15.1715       15.1964       7.499048       0.01616
   7     480.5        7.7222        0.0272       15.1114       15.1386       7.416413       0.01623
   6     533.0        7.7546        0.0301       15.0363       15.0664       7.311819       0.01683
   5     589.8        7.7923        0.0332       14.9530       14.9862       7.193912       0.01750
   4     651.6        7.8376        0.0365       14.8584       14.8948       7.057251       0.01869
   3     718.7        7.8930        0.0400       14.7488       14.7888       6.895731       0.02030
   2     792.3        7.9634        0.0437       14.6185       14.6622       6.698741       0.02259
   1     891.5        8.0824        0.0486       14.4164       14.4651       6.382704       0.02689
   0    1013.0        8.2724        0.0543       14.1328       14.1872       5.914765       0.03249



 Wavenumbers:  8050. - 12850. cm-1, ATM      1
 LEVEL PRESSURE   UPWARD FLUX   DIFDOWN FLUX  DIRDOWN FLUX  DOWNWARD FLUX   NET FLUX    HEATING RATE
          mb          W/m2          W/m2          W/m2        W/m2          W/m2       degree/day
  51    .06700      130.6637        0.0000      221.6414      221.6414      90.977727       0.00000
  50    .07753      130.6637        0.0000      221.6414      221.6414      90.977727      -0.00000
  49    .09103      130.6637        0.0001      221.6413      221.6414      90.977727       0.00000
  48    0.1069      130.6637        0.0001      221.6413      221.6414      90.977727      -0.00000
  47    0.1255      130.6636        0.0002      221.6412      221.6414      90.977727       0.00000
  46    0.1487      130.6636        0.0003      221.6411      221.6414      90.977727      -0.00000
  45    0.1794      130.6636        0.0004      221.6410      221.6413      90.977727       0.00000
  44    0.2165      130.6636        0.0005      221.6408      221.6413      90.977727      -0.00000
  43    0.2613      130.6635        0.0006      221.6406      221.6413      90.977727       0.00000
  42    0.3336      130.6635        0.0009      221.6404      221.6412      90.977727      -0.00000
  41    0.4307      130.6634        0.0012      221.6400      221.6411      90.977727      -0.00000
  40    0.5894      130.6633        0.0017      221.6394      221.6410      90.977727       0.00000
  39     1.339      130.6627        0.0040      221.6364      221.6404      90.977727      -0.00000
  38     1.782      130.6624        0.0054      221.6347      221.6401      90.977727       0.00000
  37     2.292      130.6620        0.0071      221.6326      221.6397      90.977727       0.00000
  36     2.964      130.6615        0.0092      221.6300      221.6392      90.977727       0.00000
  35     3.853      130.6608        0.0120      221.6265      221.6385      90.977727      -0.00000
  34     5.035      130.6599        0.0157      221.6219      221.6376      90.977727       0.00000
  33     6.613      130.6587        0.0207      221.6157      221.6364      90.977727      -0.00000
  32     8.786      130.6571        0.0275      221.6073      221.6348      90.977727       0.00000
  31     11.80      130.6547        0.0371      221.5953      221.6325      90.977727      -0.00000
  30     15.07      130.6522        0.0475      221.5824      221.6300      90.977727       0.00000
  29     18.79      130.6494        0.0592      221.5679      221.6271      90.977727       0.00000
  28     23.16      130.6461        0.0730      221.5509      221.6238      90.977727      -0.00000
  27     28.12      130.6423        0.0887      221.5314      221.6200      90.977727       0.00000
  26     33.73      130.6381        0.1063      221.5095      221.6158      90.977727       0.00000
  25     40.54      130.6329        0.1276      221.4831      221.6106      90.977727       0.00000
  24     48.69      130.6267        0.1533      221.4512      221.6044      90.977727      -0.00000
  23     57.69      130.6199        0.1816      221.4160      221.5976      90.977727      -0.00000
  22     68.43      130.6117        0.2153      221.3742      221.5895      90.977727       0.00000
  21     81.20      130.6020        0.2556      221.3242      221.5797      90.977727      -0.00000
  20     96.49      130.5904        0.3037      221.2645      221.5681      90.977727       0.00000
  19     114.6      130.5768        0.3608      221.1874      221.5483      90.971429       0.00294
  18     136.5      130.5607        0.4288      221.0955      221.5243      90.963613       0.00301
  17     162.9      130.5415        0.5099      220.9822      221.4921      90.950640       0.00415
  16     196.4      130.5167        0.6154      220.8187      221.4340      90.917350       0.00838
  15     218.7      130.5006        0.6848      220.6707      221.3555      90.854883       0.02372
  14     243.0      130.4839        0.7603      220.4287      221.1890      90.705047       0.05197
  13     269.0      130.4675        0.8419      220.0220      220.8639      90.396396       0.10012
  12     297.5      130.4534        0.9300      219.4012      220.3312      89.877784       0.15381
  11     328.5      130.4426        1.0250      218.6334      219.6584      89.215787       0.18000
  10     361.9      130.4376        1.1271      217.7189      218.8460      88.408346       0.20429
   9     398.1      130.4425        1.2365      216.5930      217.8295      87.387045       0.23794
   8     437.6      130.4641        1.3531      215.1496      216.5027      86.038594       0.28831
   7     480.5      130.5107        1.4768      213.3351      214.8119      84.301193       0.34122
   6     533.0      130.6124        1.6269      210.7304      212.3573      81.744959       0.41122
   5     589.8      130.8031        1.7852      207.3820      209.1671      78.364035       0.50184
   4     651.6      131.1784        1.9484      202.8431      204.7915      73.613069       0.64971
   3     718.7      131.8639        2.1157      197.1883      199.3040      67.440122       0.77577
   2     792.3      133.1391        2.2833      190.3308      192.6142      59.475073       0.91350
   1     891.5      136.3475        2.4896      180.2440      182.7336      46.386066       1.11381
   0    1013.0      144.5149        2.7136      168.1411      170.8547      26.339812       1.39191



 Wavenumbers: 12850. - 16000. cm-1, ATM      1
 LEVEL PRESSURE   UPWARD FLUX   DIFDOWN FLUX  DIRDOWN FLUX  DOWNWARD FLUX   NET FLUX    HEATING RATE
          mb          W/m2          W/m2          W/m2        W/m2          W/m2       degree/day
  51    .06700      113.7749        0.0000      138.8779      138.8779      25.102997       0.00000
  50    .07753      113.7750        0.0001      138.8771      138.8771      25.102196       0.64191
  49    .09103      113.7750        0.0002      138.8760      138.8762      25.101186       0.63156
  48    0.1069      113.7750        0.0003      138.8747      138.8750      25.100019       0.62134
  47    0.1255      113.7751        0.0004      138.8733      138.8737      25.098669       0.61168
  46    0.1487      113.7751        0.0006      138.8715      138.8721      25.096954       0.62507
  45    0.1794      113.7753        0.0008      138.8690      138.8699      25.094602       0.64574
  44    0.2165      113.7754        0.0011      138.8661      138.8673      25.091808       0.63564
  43    0.2613      113.7757        0.0014      138.8627      138.8642      25.088486       0.62624
  42    0.3336      113.7762        0.0020      138.8572      138.8592      25.082987       0.64109
  41    0.4307      113.7769        0.0027      138.8499      138.8526      25.075741       0.62999
  40    0.5894      113.7783        0.0039      138.8385      138.8424      25.064049       0.62177
  39     1.339      113.7893        0.0094      138.7880      138.7974      25.008091       0.62999
  38     1.782      113.7988        0.0127      138.7596      138.7723      24.973447       0.65956
  37     2.292      113.8128        0.0164      138.7266      138.7431      24.930286       0.71485
  36     2.964      113.8355        0.0214      138.6819      138.7033      24.867757       0.78492
  35     3.853      113.8718        0.0279      138.6198      138.6477      24.775914       0.87161
  34     5.035      113.9261        0.0366      138.5344      138.5710      24.644911       0.93584
  33     6.613      114.0018        0.0481      138.4204      138.4686      24.466812       0.95211
  32     8.786      114.1005        0.0637      138.2733      138.3370      24.236553       0.89424
  31     11.80      114.2295        0.0860      138.0786      138.1646      23.935158       0.84381
  30     15.07      114.3538        0.1100      137.8868      137.9968      23.642978       0.75435
  29     18.79      114.4815        0.1370      137.6855      137.8226      23.341036       0.68459
  28     23.16      114.6160        0.1686      137.4680      137.6366      23.020644       0.61953
  27     28.12      114.7525        0.2047      137.2394      137.4442      22.691668       0.55924
  26     33.73      114.8807        0.2452      137.0123      137.2575      22.376722       0.47353
  25     40.54      115.0072        0.2941      136.7709      137.0650      22.057765       0.39570
  24     48.69      115.1319        0.3531      136.5127      136.8658      21.733875       0.33518
  23     57.69      115.2421        0.4180      136.2615      136.6795      21.437341       0.27796
  22     68.43      115.3443        0.4954      135.9978      136.4932      21.148899       0.22675
  21     81.20      115.4261        0.5878      135.7317      136.3195      20.893340       0.16887
  20     96.49      115.4868        0.6981      135.4607      136.1588      20.672090       0.12211
  19     114.6      115.5594        0.8308      135.1644      135.9952      20.435812       0.11033
  18     136.5      115.6289        0.9882      134.8342      135.8224      20.193526       0.09316
  17     162.9      115.6964        1.1758      134.4579      135.6337      19.937337       0.08189
  16     196.4      115.7516        1.4195      133.9963      135.4158      19.664197       0.06875
  15     218.7      115.7763        1.5798      133.6998      135.2795      19.503213       0.06112
  14     243.0      115.7982        1.7541      133.3774      135.1315      19.333273       0.05894
  13     269.0      115.8173        1.9432      133.0264      134.9696      19.152238       0.05873
  12     297.5      115.8346        2.1478      132.6427      134.7905      18.955812       0.05826
  11     328.5      115.8533        2.3691      132.2217      134.5908      18.737505       0.05936
  10     361.9      115.8747        2.6077      131.7605      134.3683      18.493517       0.06173
   9     398.1      115.9012        2.8648      131.2542      134.1190      18.217829       0.06423
   8     437.6      115.9371        3.1413      130.6947      133.8360      17.898931       0.06818
   7     480.5      115.9866        3.4379      130.0757      133.5137      17.527116       0.07302
   6     533.0      116.0693        3.8034      129.2798      133.0832      17.013868       0.08257
   5     589.8      116.1996        4.1974      128.3629      132.5603      16.360743       0.09695
   4     651.6      116.4241        4.6200      127.2587      131.8787      15.454562       0.12392
   3     718.7      116.7749        5.0694      125.9469      131.0162      14.241313       0.15247
   2     792.3      117.3528        5.5419      124.3467      129.8886      12.535773       0.19561
   1     891.5      118.6206        6.1610      121.8598      128.0208       9.400216       0.26682
   0    1013.0      121.1720        6.8771      118.5353      125.4124       4.240313       0.35828



 Wavenumbers: 16000. - 22650. cm-1, ATM      1
 LEVEL PRESSURE   UPWARD FLUX   DIFDOWN FLUX  DIRDOWN FLUX  DOWNWARD FLUX   NET FLUX    HEATING RATE
          mb          W/m2          W/m2          W/m2        W/m2          W/m2       degree/day
  51    .06700      201.2610        0.0000      221.4255      221.4255      20.164499       0.00000
  50    .07753      201.2611        0.0005      221.4249      221.4254      20.164324       0.14079
  49    .09103      201.2612        0.0010      221.4242      221.4252      20.164068       0.15969
  48    0.1069      201.2613        0.0017      221.4233      221.4250      20.163726       0.18210
  47    0.1255      201.2615        0.0025      221.4223      221.4248      20.163268       0.20757
  46    0.1487      201.2618        0.0034      221.4210      221.4244      20.162594       0.24596
  45    0.1794      201.2623        0.0048      221.4191      221.4238      20.161539       0.28961
  44    0.2165      201.2630        0.0063      221.4167      221.4231      20.160108       0.32548
  43    0.2613      201.2639        0.0082      221.4139      221.4220      20.158167       0.36592
  42    0.3336      201.2656        0.0112      221.4089      221.4201      20.154476       0.43033
  41    0.4307      201.2683        0.0153      221.4020      221.4173      20.148912       0.48374
  40    0.5894      201.2736        0.0219      221.3899      221.4119      20.138301       0.56427
  39     1.339      201.3131        0.0533      221.3197      221.3730      20.059900       0.88266
  38     1.782      201.3473        0.0718      221.2686      221.3404      19.993102       1.27172
  37     2.292      201.3970        0.0931      221.2003      221.2934      19.896398       1.60168
  36     2.964      201.4781        0.1212      221.0966      221.2178      19.739701       1.96701
  35     3.853      201.6072        0.1581      220.9401      221.0982      19.490979       2.36042
  34     5.035      201.8006        0.2073      220.7131      220.9203      19.119717       2.65214
  33     6.613      202.0701        0.2728      220.4007      220.6735      18.603405       2.76021
  32     8.786      202.4218        0.3612      219.9916      220.3528      17.930925       2.61167
  31     11.80      202.8821        0.4874      219.4471      219.9345      17.052418       2.45954
  30     15.07      203.3262        0.6229      218.9095      219.5324      16.206138       2.18493
  29     18.79      203.7829        0.7759      218.3446      219.1205      15.337559       1.96934
  28     23.16      204.2644        0.9544      217.7335      218.6880      14.423555       1.76739
  27     28.12      204.7542        1.1586      217.0908      218.2494      13.495161       1.57821
  26     33.73      205.2151        1.3871      216.4498      217.8369      12.621764       1.31318
  25     40.54      205.6709        1.6632      215.7649      217.4281      11.757186       1.07261
  24     48.69      206.1222        1.9963      215.0258      217.0221      10.899854       0.88720
  23     57.69      206.5229        2.3621      214.2972      216.6593      10.136372       0.71565
  22     68.43      206.8976        2.7980      213.5181      216.3161       9.418526       0.56432
  21     81.20      207.2033        3.3179      212.7092      216.0271       8.823760       0.39301
  20     96.49      207.4369        3.9377      211.8555      215.7932       8.356296       0.25801
  19     114.6      207.6465        4.6730      210.9014      215.5744       7.927861       0.20005
  18     136.5      207.8489        5.5430      209.8116      215.3546       7.505671       0.16234
  17     162.9      208.0476        6.5769      208.5526      215.1295       7.081941       0.13544
  16     196.4      208.2143        7.9149      206.9994      214.9143       6.699979       0.09614
  15     218.7      208.2901        8.7918      206.0098      214.8016       6.511435       0.07158
  14     243.0      208.3566        9.7430      204.9497      214.6926       6.336052       0.06083
  13     269.0      208.4119       10.7717      203.8170      214.5887       6.176851       0.05164
  12     297.5      208.4556       11.8809      202.6090      214.4899       6.034358       0.04226
  11     328.5      208.4946       13.0766      201.3135      214.3901       5.895483       0.03776
  10     361.9      208.5288       14.3606      199.9286      214.2892       5.760406       0.03418
   9     398.1      208.5586       15.7387      198.4479      214.1866       5.628046       0.03084
   8     437.6      208.5858       17.2143      196.8659      214.0803       5.494519       0.02855
   7     480.5      208.6103       18.7912      195.1786      213.9698       5.359458       0.02653
   6     533.0      208.6375       20.7258      193.1100      213.8358       5.198222       0.02594
   5     589.8      208.6690       22.8034      190.8850      213.6883       5.019353       0.02655
   4     651.6      208.7147       25.0285      188.4887      213.5173       4.802540       0.02965
   3     718.7      208.7847       27.4061      185.9074      213.3136       4.528901       0.03439
   2     792.3      208.9040       29.9368      183.1195      213.0563       4.152315       0.04319
   1     891.5      209.1770       33.3244      179.2970      212.6214       3.444369       0.06024
   0    1013.0      209.6907       37.3483      174.6356      211.9839       2.293161       0.07993



 Wavenumbers: 22650. - 29000. cm-1, ATM      1
 LEVEL PRESSURE   UPWARD FLUX   DIFDOWN FLUX  DIRDOWN FLUX  DOWNWARD FLUX   NET FLUX    HEATING RATE
          mb          W/m2          W/m2          W/m2        W/m2          W/m2       degree/day
  51    .06700       83.0046        0.0000       83.5579       83.5579       0.553289       0.00000
  50    .07753       83.0046        0.0005       83.5574       83.5579       0.553289       0.00000
  49    .09103       83.0046        0.0012       83.5567       83.5579       0.553289      -0.00000
  48    0.1069       83.0046        0.0020       83.5559       83.5579       0.553289       0.00000
  47    0.1255       83.0046        0.0029       83.5550       83.5579       0.553289      -0.00000
  46    0.1487       83.0045        0.0040       83.5538       83.5578       0.553289       0.00000
  45    0.1794       83.0045        0.0056       83.5522       83.5578       0.553289       0.00000
  44    0.2165       83.0045        0.0074       83.5504       83.5578       0.553289       0.00000
  43    0.2613       83.0044        0.0096       83.5481       83.5577       0.553289       0.00000
  42    0.3336       83.0043        0.0132       83.5445       83.5576       0.553289       0.00000
  41    0.4307       83.0042        0.0179       83.5396       83.5575       0.553289       0.00000
  40    0.5894       83.0041        0.0257       83.5317       83.5574       0.553289      -0.00000
  39     1.339       83.0033        0.0625       83.4941       83.5566       0.553289       0.00000
  38     1.782       83.0028        0.0841       83.4720       83.5561       0.553289       0.00000
  37     2.292       83.0023        0.1091       83.4464       83.5556       0.553289       0.00000
  36     2.964       83.0016        0.1420       83.4129       83.5549       0.553289       0.00000
  35     3.853       83.0006        0.1853       83.3686       83.5539       0.553289      -0.00000
  34     5.035       82.9994        0.2430       83.3097       83.5527       0.553289       0.00000
  33     6.613       82.9977        0.3199       83.2311       83.5510       0.553289       0.00000
  32     8.786       82.9955        0.4236       83.1252       83.5488       0.553289       0.00000
  31     11.80       82.9923        0.5718       82.9738       83.5456       0.553289       0.00000
  30     15.07       82.9889        0.7307       82.8114       83.5422       0.553289      -0.00000
  29     18.79       82.9850        0.9101       82.6282       83.5383       0.553289       0.00000
  28     23.16       82.9805        1.1193       82.4145       83.5338       0.553289       0.00000
  27     28.12       82.9753        1.3582       82.1704       83.5286       0.553289      -0.00000
  26     33.73       82.9695        1.6249       81.8979       83.5228       0.553289       0.00000
  25     40.54       82.9626        1.9464       81.5695       83.5159       0.553289      -0.00000
  24     48.69       82.9542        2.3328       81.1748       83.5075       0.553289       0.00000
  23     57.69       82.9451        2.7555       80.7428       83.4983       0.553289       0.00000
  22     68.43       82.9342        3.2567       80.2307       83.4875       0.553289      -0.00000
  21     81.20       82.9213        3.8505       79.6240       83.4746       0.553289       0.00000
  20     96.49       82.9060        4.5532       78.9060       83.4593       0.553289      -0.00000
  19     114.6       82.8880        5.3806       78.0607       83.4413       0.553289       0.00000
  18     136.5       82.8668        6.3513       77.0688       83.4201       0.553289      -0.00000
  17     162.9       82.8418        7.4933       75.9018       83.3951       0.553289      -0.00000
  16     196.4       82.8097        8.9516       74.4115       83.3630       0.553289       0.00000
  15     218.7       82.7889        9.8955       73.4467       83.3422       0.553289      -0.00000
  14     243.0       82.7665       10.9095       72.4103       83.3198       0.553289       0.00000
  13     269.0       82.7425       11.9943       71.3015       83.2958       0.553289       0.00000
  12     297.5       82.7168       13.1504       70.1197       83.2701       0.553289       0.00000
  11     328.5       82.6894       14.3812       68.8614       83.2427       0.553289       0.00000
  10     361.9       82.6602       15.6854       67.5281       83.2135       0.553289      -0.00000
   9     398.1       82.6292       17.0650       66.1174       83.1825       0.553289      -0.00000
   8     437.6       82.5963       18.5196       64.6300       83.1496       0.553289      -0.00000
   7     480.5       82.5617       20.0484       63.0666       83.1149       0.553289       0.00000
   6     533.0       82.5197       21.8881       61.1849       83.0730       0.553289      -0.00000
   5     589.8       82.4752       23.8209       59.2076       83.0285       0.553289       0.00000
   4     651.6       82.4284       25.8432       57.1385       82.9817       0.553289       0.00000
   3     718.7       82.3791       27.9507       54.9817       82.9324       0.553289       0.00000
   2     792.3       82.3275       30.1362       52.7446       82.8808       0.553289      -0.00000
   1     891.5       82.2597       32.9730       49.8400       82.8130       0.553289       0.00000
   0    1013.0       82.1810       36.2156       46.5186       82.7343       0.553289      -0.00000



 Wavenumbers: 29000. - 38000. cm-1, ATM      1
 LEVEL PRESSURE   UPWARD FLUX   DIFDOWN FLUX  DIRDOWN FLUX  DOWNWARD FLUX   NET FLUX    HEATING RATE
          mb          W/m2          W/m2          W/m2        W/m2          W/m2       degree/day
  51    .06700       12.7850        0.0000       29.4660       29.4660      16.681024       0.00000
  50    .07753       12.7848        0.0003       29.4617       29.4620      16.677207       3.05891
  49    .09103       12.7846        0.0008       29.4555       29.4563      16.671654       3.47086
  48    0.1069       12.7844        0.0013       29.4474       29.4487      16.664218       3.95830
  47    0.1255       12.7842        0.0019       29.4366       29.4385      16.654270       4.51022
  46    0.1487       12.7840        0.0026       29.4210       29.4236      16.639624       5.33845
  45    0.1794       12.7836        0.0036       29.3969       29.4004      16.616789       6.26874
  44    0.2165       12.7833        0.0047       29.3645       29.3692      16.585957       7.01388
  43    0.2613       12.7829        0.0061       29.3212       29.3273      16.544400       7.83330
  42    0.3336       12.7824        0.0083       29.2404       29.2487      16.466335       9.10163
  41    0.4307       12.7818        0.0113       29.1216       29.1329      16.351095      10.01981
  40    0.5894       12.7812        0.0160       28.9044       28.9204      16.139166      11.27012
  39     1.339       12.7837        0.0366       27.6014       27.6380      14.854340      14.46481
  38     1.782       12.7886        0.0474       26.7907       26.8381      14.049491      15.32303
  37     2.292       12.7974        0.0591       25.9184       25.9775      13.180181      14.39803
  36     2.964       12.8133        0.0736       24.9351       25.0087      12.195473      12.36106
  35     3.853       12.8405        0.0920       23.8931       23.9851      11.144619       9.97280
  34     5.035       12.8826        0.1154       22.8387       22.9540      10.071385       7.66674
  33     6.613       12.9426        0.1457       21.8116       21.9573       9.014731       5.64887
  32     8.786       13.0217        0.1855       20.8422       21.0277       8.006028       3.91744
  31     11.80       13.1264        0.2411       19.8906       20.1317       7.005346       2.80159
  30     15.07       13.2294        0.2998       19.1622       19.4620       6.232623       1.99502
  29     18.79       13.3377        0.3647       18.5321       18.8967       5.559098       1.52709
  28     23.16       13.4551        0.4393       17.9546       18.3938       4.938708       1.19963
  27     28.12       13.5786        0.5233       17.4280       17.9514       4.372754       0.96208
  26     33.73       13.6981        0.6169       16.9644       17.5813       3.883202       0.73606
  25     40.54       13.8192        0.7294       16.5188       17.2482       3.428974       0.56352
  24     48.69       13.9426        0.8643       16.0802       16.9445       3.001867       0.44199
  23     57.69       14.0551        1.0114       15.6801       16.6915       2.636418       0.34255
  22     68.43       14.1622        1.1855       15.2796       16.4651       2.302956       0.26215
  21     81.20       14.2486        1.3929       14.8885       16.2814       2.032768       0.17854
  20     96.49       14.3116        1.6420       14.4959       16.1379       1.826287       0.11396
  19     114.6       14.3660        1.9296       14.0739       16.0035       1.637456       0.08817
  18     136.5       14.4184        2.2624       13.6094       15.8718       1.453436       0.07076
  17     162.9       14.4703        2.6469       13.0932       15.7401       1.269746       0.05871
  16     196.4       14.5101        3.1317       12.4834       15.6151       1.105018       0.04146
  15     218.7       14.5264        3.4413       12.1087       15.5500       1.023560       0.03093
  14     243.0       14.5400        3.7691       11.7184       15.4875       0.947498       0.02638
  13     269.0       14.5500        4.1147       11.3137       15.4285       0.878440       0.02240
  12     297.5       14.5562        4.4773       10.8958       15.3731       0.816889       0.01826
  11     328.5       14.5612        4.8561       10.4624       15.3185       0.757326       0.01620
  10     361.9       14.5650        5.2489       10.0161       15.2650       0.700021       0.01450
   9     398.1       14.5675        5.6554        9.5572       15.2126       0.645108       0.01279
   8     437.6       14.5694        6.0734        9.0876       15.1610       0.591582       0.01144
   7     480.5       14.5704        6.5014        8.6092       15.1106       0.540208       0.01009
   6     533.0       14.5708        7.0010        8.0533       15.0544       0.483552       0.00911
   5     589.8       14.5713        7.5079        7.4914       14.9993       0.428011       0.00824
   4     651.6       14.5725        8.0176        6.9279       14.9455       0.373012       0.00752
   3     718.7       14.5747        8.5277        6.3654       14.8932       0.318517       0.00685
   2     792.3       14.5782        9.0335        5.8093       14.8428       0.264578       0.00619
   1     891.5       14.5856        9.6548        5.1280       14.7828       0.197172       0.00574
   0    1013.0       14.5993       10.3166        4.4044       14.7210       0.121744       0.00524



 Wavenumbers: 38000. - 50000. cm-1, ATM      1
 LEVEL PRESSURE   UPWARD FLUX   DIFDOWN FLUX  DIRDOWN FLUX  DOWNWARD FLUX   NET FLUX    HEATING RATE
          mb          W/m2          W/m2          W/m2        W/m2          W/m2       degree/day
  51    .06700        0.0069        0.0000        1.8174        1.8174       1.810587       0.00000
  50    .07753        0.0068        0.0001        1.8150        1.8150       1.808250       1.87287
  49    .09103        0.0067        0.0002        1.8115        1.8116       1.804913       2.08560
  48    0.1069        0.0066        0.0002        1.8069        1.8072       1.800524       2.33660
  47    0.1255        0.0066        0.0004        1.8009        1.8013       1.794746       2.61955
  46    0.1487        0.0064        0.0005        1.7923        1.7928       1.786369       3.05332
  45    0.1794        0.0063        0.0007        1.7791        1.7798       1.773484       3.53721
  44    0.2165        0.0061        0.0009        1.7616        1.7625       1.756329       3.90263
  43    0.2613        0.0059        0.0011        1.7383        1.7395       1.733542       4.29520
  42    0.3336        0.0056        0.0015        1.6956        1.6971       1.691503       4.90131
  41    0.4307        0.0053        0.0020        1.6341        1.6361       1.630864       5.27240
  40    0.5894        0.0047        0.0026        1.5252        1.5278       1.523151       5.72807
  39     1.339        0.0029        0.0038        0.9646        0.9684       0.965456       6.27863
  38     1.782        0.0022        0.0036        0.6957        0.6993       0.697085       5.10936
  37     2.292        0.0017        0.0031        0.4747        0.4778       0.476111       3.65991
  36     2.964        0.0013        0.0025        0.3027        0.3052       0.303941       2.16125
  35     3.853        0.0009        0.0020        0.1866        0.1886       0.187698       1.10317
  34     5.035        0.0007        0.0016        0.1122        0.1138       0.113105       0.53286
  33     6.613        0.0005        0.0012        0.0667        0.0679       0.067378       0.24446
  32     8.786        0.0003        0.0009        0.0393        0.0402       0.039909       0.10668
  31     11.80        0.0002        0.0007        0.0215        0.0222       0.021941       0.05031
  30     15.07        0.0001        0.0005        0.0123        0.0127       0.012593       0.02414
  29     18.79        0.0001        0.0003        0.0069        0.0072       0.007141       0.01236
  28     23.16        0.0000        0.0002        0.0038        0.0040       0.003907       0.00625
  27     28.12        0.0000        0.0001        0.0020        0.0021       0.002085       0.00310
  26     33.73        0.0000        0.0001        0.0011        0.0011       0.001113       0.00146
  25     40.54        0.0000        0.0000        0.0005        0.0006       0.000564       0.00068
  24     48.69        0.0000        0.0000        0.0002        0.0003       0.000267       0.00031
  23     57.69        0.0000        0.0000        0.0001        0.0001       0.000125       0.00013
  22     68.43        0.0000        0.0000        0.0000        0.0001       0.000054       0.00006
  21     81.20        0.0000        0.0000        0.0000        0.0000       0.000021       0.00002
  20     96.49        0.0000        0.0000        0.0000        0.0000       0.000008       0.00001
  19     114.6        0.0000        0.0000        0.0000        0.0000       0.000002       0.00000
  18     136.5        0.0000        0.0000        0.0000        0.0000       0.000001       0.00000
  17     162.9        0.0000        0.0000        0.0000        0.0000       0.000000       0.00000
  16     196.4        0.0000        0.0000        0.0000        0.0000       0.000000       0.00000
  15     218.7        0.0000        0.0000        0.0000        0.0000       0.000000       0.00000
  14     243.0        0.0000        0.0000        0.0000        0.0000       0.000000       0.00000
  13     269.0        0.0000        0.0000        0.0000        0.0000       0.000000       0.00000
  12     297.5        0.0000        0.0000        0.0000        0.0000       0.000000       0.00000
  11     328.5        0.0000        0.0000        0.0000        0.0000       0.000000       0.00000
  10     361.9        0.0000        0.0000        0.0000        0.0000       0.000000       0.00000
   9     398.1        0.0000        0.0000        0.0000        0.0000       0.000000       0.00000
   8     437.6        0.0000        0.0000        0.0000        0.0000       0.000000       0.00000
   7     480.5        0.0000        0.0000        0.0000        0.0000       0.000000       0.00000
   6     533.0        0.0000        0.0000        0.0000        0.0000       0.000000       0.00000
   5     589.8        0.0000        0.0000        0.0000        0.0000       0.000000       0.00000
   4     651.6        0.0000        0.0000        0.0000        0.0000       0.000000       0.00000
   3     718.7        0.0000        0.0000        0.0000        0.0000       0.000000       0.00000
   2     792.3        0.0000        0.0000        0.0000        0.0000       0.000000       0.00000
   1     891.5        0.0000        0.0000        0.0000        0.0000       0.000000       0.00000
   0    1013.0        0.0000        0.0000        0.0000        0.0000       0.000000       0.00000



 Wavenumbers:   820. -  2600. cm-1, ATM      1
 LEVEL PRESSURE   UPWARD FLUX   DIFDOWN FLUX  DIRDOWN FLUX  DOWNWARD FLUX   NET FLUX    HEATING RATE
          mb          W/m2          W/m2          W/m2        W/m2          W/m2       degree/day
  51    .06700        0.0121        0.0000        8.5018        8.5018       8.489667       0.00000
  50    .07753        0.0121        0.0000        8.4967        8.4967       8.484593       4.06663
  49    .09103        0.0121        0.0000        8.4957        8.4957       8.483570       0.63940
  48    0.1069        0.0121        0.0000        8.4946        8.4946       8.482530       0.55371
  47    0.1255        0.0121        0.0000        8.4934        8.4934       8.481326       0.54560
  46    0.1487        0.0121        0.0000        8.4919        8.4919       8.479818       0.54968
  45    0.1794        0.0121        0.0000        8.4899        8.4899       8.477838       0.54370
  44    0.2165        0.0121        0.0000        8.4877        8.4877       8.475638       0.50034
  43    0.2613        0.0121        0.0000        8.4853        8.4853       8.473235       0.45296
  42    0.3336        0.0121        0.0000        8.4818        8.4818       8.469688       0.41353
  41    0.4307        0.0121        0.0000        8.4776        8.4776       8.465558       0.35914
  40    0.5894        0.0121        0.0000        8.4714        8.4714       8.459359       0.32965
  39     1.339        0.0121        0.0000        8.4430        8.4430       8.430964       0.31967
  38     1.782        0.0121        0.0000        8.4270        8.4270       8.414964       0.30462
  37     2.292        0.0121        0.0000        8.4092        8.4092       8.397101       0.29586
  36     2.964        0.0121        0.0000        8.3865        8.3865       8.374426       0.28463
  35     3.853        0.0121        0.0000        8.3577        8.3577       8.345610       0.27347
  34     5.035        0.0121        0.0000        8.3215        8.3215       8.309434       0.25843
  33     6.613        0.0121        0.0000        8.2764        8.2764       8.264332       0.24112
  32     8.786        0.0121        0.0000        8.2194        8.2194       8.207292       0.22152
  31     11.80        0.0121        0.0000        8.1446        8.1446       8.132527       0.20932
  30     15.07        0.0121        0.0000        8.0754        8.0754       8.063274       0.17880
  29     18.79        0.0121        0.0000        8.0128        8.0128       8.000734       0.14180
  28     23.16        0.0121        0.0000        7.9590        7.9590       7.946949       0.10400
  27     28.12        0.0121        0.0000        7.9161        7.9161       7.904051       0.07292
  26     33.73        0.0121        0.0000        7.8821        7.8821       7.869981       0.05123
  25     40.54        0.0121        0.0000        7.8499        7.8499       7.837856       0.03985
  24     48.69        0.0121        0.0000        7.8158        7.8158       7.803745       0.03530
  23     57.69        0.0121        0.0000        7.7797        7.7797       7.767661       0.03382
  22     68.43        0.0121        0.0000        7.7374        7.7374       7.725310       0.03329
  21     81.20        0.0121        0.0000        7.6882        7.6882       7.676124       0.03250
  20     96.49        0.0121        0.0000        7.6308        7.6308       7.618719       0.03168
  19     114.6        0.0121        0.0000        7.5634        7.5634       7.551314       0.03147
  18     136.5        0.0121        0.0000        7.4848        7.4848       7.472730       0.03022
  17     162.9        0.0121        0.0000        7.3856        7.3856       7.373527       0.03171
  16     196.4        0.0121        0.0000        7.2319        7.2319       7.219870       0.03868
  15     218.7        0.0121        0.0000        7.0876        7.0876       7.075513       0.05481
  14     243.0        0.0121        0.0000        6.8729        6.8730       6.860888       0.07444
  13     269.0        0.0121        0.0000        6.6091        6.6091       6.596998       0.08560
  12     297.5        0.0121        0.0000        6.3323        6.3324       6.320273       0.08207
  11     328.5        0.0121        0.0000        6.0695        6.0695       6.057408       0.07147
  10     361.9        0.0121        0.0000        5.7689        5.7689       5.756825       0.07605
   9     398.1        0.0121        0.0000        5.4237        5.4238       5.411640       0.08042
   8     437.6        0.0122        0.0000        5.0655        5.0655       5.053353       0.07660
   7     480.5        0.0122        0.0000        4.7587        4.7587       4.746518       0.06026
   6     533.0        0.0123        0.0000        4.5037        4.5038       4.491503       0.04102
   5     589.8        0.0123        0.0000        4.3065        4.3066       4.294212       0.02928
   4     651.6        0.0125        0.0000        4.0793        4.0793       4.066836       0.03109
   3     718.7        0.0128        0.0000        3.8014        3.8014       3.788650       0.03496
   2     792.3        0.0133        0.0000        3.4809        3.4809       3.467651       0.03681
   1     891.5        0.0146        0.0000        3.0516        3.0517       3.037116       0.03664
   0    1013.0        0.0179        0.0000        2.5222        2.5222       2.504302       0.03700

  Modules and versions used in this calculation:

       rrtmg_sw.1col.f90:  $Revision$                    rrtmg_sw_init.f90:  $Revision$        
     rrtmgsw_cldprop.f90:  $Revision$                  rrtmgsw_cldprmc.f90:  NOT USED          
     rrtmg_sw_reftra.f90:  $Revision$                  rrtmg_sw_spcvrt.f90:  NOT USED          
     rrtmg_sw_spcvmc.f90:  NOT USED                    rrtmgsw_setcoef.f90:  NOT USED          
     rrtmg_sw_taumol.f90:  $Revision$                  rrtmg_sw_vrtqdr.f90:  NOT USED          
                rrtatm.f:  NOT USED                             util_xxx.f:  NOT USED          
                 extra.f:  NOT USED                       rrtmg_sw_k_g.f90:  $Revision$        

