

 Wavenumbers:   820. - 50000. cm-1, ATM      1
 LEVEL PRESSURE   UPWARD FLUX   DIFDOWN FLUX  DIRDOWN FLUX  DOWNWARD FLUX   NET FLUX    HEATING RATE
          mb          W/m2          W/m2          W/m2        W/m2          W/m2       degree/day
  51    .06700      293.8846        0.0000      465.4378      465.4378     171.553267       0.00000
  50    .07753      293.8840        0.0012      465.4211      465.4224     171.538327      11.97393
  49    .09103      293.8834        0.0028      465.4049      465.4077     171.524239       8.80570
  48    0.1069      293.8827        0.0046      465.3857      465.3903     171.507562       8.87725
  47    0.1255      293.8819        0.0066      465.3621      465.3687     171.486771       9.42545
  46    0.1487      293.8810        0.0092      465.3296      465.3388     171.457823      10.55199
  45    0.1794      293.8798        0.0128      465.2818      465.2946     171.414765      11.82050
  44    0.2165      293.8785        0.0169      465.2206      465.2376     171.359079      12.66751
  43    0.2613      293.8770        0.0219      465.1420      465.1639     171.286844      13.61608
  42    0.3336      293.8749        0.0300      465.0013      465.0313     171.156438      15.20396
  41    0.4307      293.8723        0.0406      464.8038      464.8444     170.972078      16.02973
  40    0.5894      293.8689        0.0577      464.4643      464.5220     170.653128      16.96134
  39     1.339      293.8668        0.1347      462.8338      462.9685     169.101684      17.46644
  38     1.782      293.8751        0.1779      462.0438      462.2217     168.346558      14.37638
  37     2.292      293.8932        0.2271      461.2818      461.5089     167.615698      12.10494
  36     2.964      293.9296        0.2910      460.4365      460.7275     166.797805      10.26703
  35     3.853      293.9955        0.3746      459.4791      459.8537     165.858186       8.91716
  34     5.035      294.1003        0.4848      458.4036      458.8884     164.788015       7.64486
  33     6.613      294.2499        0.6309      457.2028      457.8337     163.583781       6.43784
  32     8.786      294.4438        0.8265      455.8571      456.6836     162.239818       5.21947
  31     11.80      294.6904        1.1045      454.2619      455.3664     160.676042       4.37808
  30     15.07      294.9191        1.4009      452.8021      454.2030     159.283830       3.59442
  29     18.79      295.1455        1.7336      451.3390      453.0726     157.927087       3.07615
  28     23.16      295.3729        2.1196      449.8027      451.9223     156.549458       2.66389
  27     28.12      295.5896        2.5581      448.2143      450.7724     155.182776       2.32327
  26     33.73      295.7689        3.0459      446.6303      449.6763     153.907364       1.91762
  25     40.54      295.9121        3.6320      444.9202      448.5522     152.640060       1.57223
  24     48.69      296.0140        4.3336      443.0520      447.3856     151.371565       1.31269
  23     57.69      296.0577        5.0985      441.1757      446.2742     150.216519       1.08268
  22     68.43      296.0361        6.0023      439.1220      445.1243     149.088133       0.88706
  21     81.20      295.9087        7.0703      436.9057      443.9760     148.067330       0.67453
  20     96.49      295.6638        8.3304      434.4850      442.8153     147.151565       0.50544
  19     114.6      295.3416        9.8069      431.7422      441.5491     146.207547       0.44079
  18     136.5      294.9332       11.5285      428.6266      440.1551     145.221909       0.37900
  17     162.9      294.4274       13.5386      425.0248      438.5634     144.136069       0.34708
  16     196.4      293.7207       16.0859      420.4378      436.5236     142.802958       0.33556
  15     218.7      293.2426       17.7234      417.2160      434.9394     141.696765       0.41998
  14     243.0      292.7220       19.4715      413.3114      432.7829     140.060914       0.56737
  13     269.0      292.1581       21.3303      408.5068      429.8372     137.679071       0.77266
  12     297.5      291.5525       23.2986      402.8649      426.1635     134.611076       0.90993
  11     328.5      290.9103       25.3797      396.8076      422.1873     131.277052       0.90651
  10     361.9      290.2347       27.5688      390.2603      417.8291     127.594392       0.93175
   9     398.1      289.5279       29.8682      383.1221      412.9903     123.462405       0.96266
   8     437.6      288.7975       32.2732      375.3791      407.6523     118.854869       0.98512
   7     480.5      288.0492       34.7820      367.1710      401.9530     113.903741       0.97238
   6     533.0      287.1859       37.7750      357.2143      394.9894     107.803459       0.98134
   5     589.8      286.3454       40.8895      346.5206      387.4100     101.064602       1.00027
   4     651.6      285.5979       44.1131      334.6634      378.7765      93.178619       1.07843
   3     718.7      285.0178       47.4347      322.0113      369.4460      84.428208       1.09968
   2     792.3      284.7810       50.8333      308.3300      359.1633      74.382342       1.15215
   1     891.5      285.3879       55.1728      290.0427      345.2155      59.827599       1.23854
   0    1013.0      288.2091       60.0390      269.6990      329.7380      41.528854       1.27058



 Wavenumbers:  2600. -  3250. cm-1, ATM      1
 LEVEL PRESSURE   UPWARD FLUX   DIFDOWN FLUX  DIRDOWN FLUX  DOWNWARD FLUX   NET FLUX    HEATING RATE
          mb          W/m2          W/m2          W/m2        W/m2          W/m2       degree/day
  51    .06700        0.0209        0.0000        4.1021        4.1021       4.081182       0.00000
  50    .07753        0.0209        0.0000        4.1021        4.1021       4.081174       0.00640
  49    .09103        0.0209        0.0000        4.1021        4.1021       4.081164       0.00627
  48    0.1069        0.0209        0.0000        4.1021        4.1021       4.081153       0.00613
  47    0.1255        0.0209        0.0000        4.1021        4.1021       4.081140       0.00599
  46    0.1487        0.0209        0.0000        4.1020        4.1020       4.081123       0.00607
  45    0.1794        0.0209        0.0000        4.1020        4.1020       4.081100       0.00624
  44    0.2165        0.0209        0.0000        4.1020        4.1020       4.081073       0.00611
  43    0.2613        0.0209        0.0000        4.1020        4.1020       4.081042       0.00599
  42    0.3336        0.0209        0.0000        4.1019        4.1019       4.080989       0.00616
  41    0.4307        0.0209        0.0000        4.1018        4.1018       4.080918       0.00619
  40    0.5894        0.0209        0.0000        4.1017        4.1017       4.080798       0.00635
  39     1.339        0.0209        0.0000        4.1010        4.1010       4.080096       0.00791
  38     1.782        0.0209        0.0000        4.1005        4.1005       4.079560       0.01020
  37     2.292        0.0209        0.0000        4.0998        4.0998       4.078858       0.01163
  36     2.964        0.0209        0.0000        4.0988        4.0988       4.077849       0.01267
  35     3.853        0.0209        0.0000        4.0973        4.0973       4.076429       0.01348
  34     5.035        0.0209        0.0000        4.0954        4.0954       4.074491       0.01385
  33     6.613        0.0209        0.0000        4.0928        4.0928       4.071941       0.01363
  32     8.786        0.0209        0.0000        4.0896        4.0896       4.068723       0.01250
  31     11.80        0.0209        0.0000        4.0856        4.0856       4.064675       0.01133
  30     15.07        0.0209        0.0000        4.0819        4.0819       4.061009       0.00946
  29     18.79        0.0209        0.0000        4.0784        4.0784       4.057516       0.00792
  28     23.16        0.0209        0.0000        4.0748        4.0748       4.053927       0.00694
  27     28.12        0.0209        0.0000        4.0709        4.0709       4.050035       0.00662
  26     33.73        0.0209        0.0000        4.0663        4.0663       4.045379       0.00700
  25     40.54        0.0209        0.0000        4.0598        4.0598       4.038898       0.00804
  24     48.69        0.0209        0.0000        4.0507        4.0507       4.029822       0.00939
  23     57.69        0.0209        0.0000        4.0394        4.0394       4.018500       0.01061
  22     68.43        0.0209        0.0000        4.0246        4.0246       4.003727       0.01161
  21     81.20        0.0209        0.0000        4.0060        4.0061       3.985180       0.01226
  20     96.49        0.0209        0.0000        3.9836        3.9836       3.962708       0.01240
  19     114.6        0.0209        0.0000        3.9568        3.9568       3.935966       0.01249
  18     136.5        0.0209        0.0000        3.9269        3.9270       3.906127       0.01147
  17     162.9        0.0209        0.0001        3.8947        3.8947       3.873878       0.01031
  16     196.4        0.0209        0.0001        3.8578        3.8579       3.837043       0.00927
  15     218.7        0.0208        0.0001        3.8340        3.8341       3.813268       0.00903
  14     243.0        0.0208        0.0001        3.8054        3.8055       3.784604       0.00994
  13     269.0        0.0208        0.0001        3.7697        3.7697       3.748898       0.01158
  12     297.5        0.0209        0.0001        3.7239        3.7240       3.703099       0.01358
  11     328.5        0.0209        0.0001        3.6671        3.6672       3.646351       0.01543
  10     361.9        0.0209        0.0001        3.5953        3.5954       3.574495       0.01818
   9     398.1        0.0209        0.0001        3.5033        3.5034       3.482518       0.02143
   8     437.6        0.0210        0.0001        3.3873        3.3874       3.366495       0.02481
   7     480.5        0.0210        0.0001        3.2482        3.2484       3.227354       0.02733
   6     533.0        0.0211        0.0002        3.0676        3.0678       3.046651       0.02907
   5     589.8        0.0213        0.0002        2.8669        2.8671       2.845796       0.02981
   4     651.6        0.0215        0.0002        2.6417        2.6419       2.620379       0.03083
   3     718.7        0.0219        0.0002        2.3961        2.3963       2.374397       0.03091
   2     792.3        0.0225        0.0002        2.1186        2.1188       2.096312       0.03189
   1     891.5        0.0239        0.0002        1.7556        1.7558       1.731857       0.03101
   0    1013.0        0.0271        0.0001        1.3878        1.3879       1.360860       0.02576



 Wavenumbers:  3250. -  4000. cm-1, ATM      1
 LEVEL PRESSURE   UPWARD FLUX   DIFDOWN FLUX  DIRDOWN FLUX  DOWNWARD FLUX   NET FLUX    HEATING RATE
          mb          W/m2          W/m2          W/m2        W/m2          W/m2       degree/day
  51    .06700        0.0005        0.0000        6.9155        6.9155       6.915079       0.00000
  50    .07753        0.0005        0.0000        6.9111        6.9111       6.910630       3.56575
  49    .09103        0.0005        0.0000        6.9083        6.9083       6.907862       1.72992
  48    0.1069        0.0005        0.0000        6.9062        6.9062       6.905782       1.10751
  47    0.1255        0.0005        0.0000        6.9043        6.9043       6.903849       0.87619
  46    0.1487        0.0005        0.0000        6.9022        6.9022       6.901754       0.76375
  45    0.1794        0.0005        0.0000        6.8998        6.8998       6.899334       0.66426
  44    0.2165        0.0004        0.0000        6.8974        6.8974       6.896931       0.54660
  43    0.2613        0.0004        0.0000        6.8949        6.8949       6.894493       0.45964
  42    0.3336        0.0004        0.0000        6.8914        6.8914       6.890991       0.40829
  41    0.4307        0.0004        0.0000        6.8873        6.8873       6.886829       0.36189
  40    0.5894        0.0004        0.0000        6.8810        6.8810       6.880548       0.33402
  39     1.339        0.0004        0.0000        6.8581        6.8581       6.857676       0.25750
  38     1.782        0.0004        0.0000        6.8486        6.8486       6.848182       0.18073
  37     2.292        0.0004        0.0000        6.8395        6.8395       6.839093       0.15054
  36     2.964        0.0004        0.0000        6.8291        6.8291       6.828625       0.13141
  35     3.853        0.0004        0.0000        6.8161        6.8162       6.815708       0.12258
  34     5.035        0.0004        0.0000        6.7993        6.7993       6.798835       0.12053
  33     6.613        0.0004        0.0000        6.7765        6.7765       6.776020       0.12197
  32     8.786        0.0004        0.0000        6.7447        6.7447       6.744257       0.12336
  31     11.80        0.0004        0.0000        6.6981        6.6981       6.697660       0.13046
  30     15.07        0.0004        0.0000        6.6475        6.6475       6.647106       0.13052
  29     18.79        0.0004        0.0000        6.5911        6.5911       6.590724       0.12783
  28     23.16        0.0004        0.0000        6.5284        6.5284       6.527989       0.12131
  27     28.12        0.0004        0.0000        6.4623        6.4624       6.461969       0.11223
  26     33.73        0.0004        0.0000        6.3962        6.3963       6.395853       0.09941
  25     40.54        0.0004        0.0001        6.3247        6.3248       6.324386       0.08866
  24     48.69        0.0004        0.0001        6.2464        6.2465       6.246128       0.08098
  23     57.69        0.0004        0.0001        6.1647        6.1648       6.164427       0.07658
  22     68.43        0.0004        0.0001        6.0695        6.0696       6.069254       0.07482
  21     81.20        0.0003        0.0001        5.9584        5.9585       5.958154       0.07341
  20     96.49        0.0003        0.0001        5.8316        5.8318       5.831445       0.06993
  19     114.6        0.0003        0.0001        5.6847        5.6848       5.684530       0.06860
  18     136.5        0.0003        0.0002        5.5264        5.5266       5.526294       0.06085
  17     162.9        0.0003        0.0002        5.3446        5.3448       5.344530       0.05810
  16     196.4        0.0002        0.0002        5.0872        5.0875       5.087246       0.06476
  15     218.7        0.0002        0.0002        4.8533        4.8535       4.853295       0.08882
  14     243.0        0.0002        0.0002        4.5466        4.5469       4.546681       0.10634
  13     269.0        0.0001        0.0003        4.1593        4.1596       4.159420       0.12563
  12     297.5        0.0001        0.0002        3.6940        3.6943       3.694147       0.13799
  11     328.5        0.0001        0.0002        3.2241        3.2244       3.224245       0.12777
  10     361.9        0.0001        0.0002        2.7897        2.7899       2.789800       0.10992
   9     398.1        0.0001        0.0002        2.3982        2.3984       2.398338       0.09120
   8     437.6        0.0001        0.0002        2.0396        2.0398       2.039779       0.07666
   7     480.5        0.0000        0.0002        1.7149        1.7151       1.715016       0.06378
   6     533.0        0.0000        0.0002        1.3713        1.3715       1.371448       0.05527
   5     589.8        0.0000        0.0002        1.0426        1.0428       1.042764       0.04879
   4     651.6        0.0000        0.0001        0.7086        0.7087       0.708727       0.04568
   3     718.7        0.0000        0.0001        0.4224        0.4225       0.422449       0.03598
   2     792.3        0.0000        0.0001        0.1980        0.1981       0.198060       0.02573
   1     891.5        0.0000        0.0000        0.0382        0.0382       0.038243       0.01360
   0    1013.0        0.0000        0.0000        0.0014        0.0014       0.001349       0.00256



 Wavenumbers:  4000. -  4650. cm-1, ATM      1
 LEVEL PRESSURE   UPWARD FLUX   DIFDOWN FLUX  DIRDOWN FLUX  DOWNWARD FLUX   NET FLUX    HEATING RATE
          mb          W/m2          W/m2          W/m2        W/m2          W/m2       degree/day
  51    .06700        0.9834        0.0000        8.1209        8.1209       7.137563       0.00000
  50    .07753        0.9834        0.0000        8.1209        8.1209       7.137562       0.00080
  49    .09103        0.9834        0.0000        8.1209        8.1209       7.137561       0.00078
  48    0.1069        0.9834        0.0000        8.1209        8.1209       7.137560       0.00076
  47    0.1255        0.9834        0.0000        8.1209        8.1209       7.137558       0.00075
  46    0.1487        0.9834        0.0000        8.1209        8.1209       7.137556       0.00076
  45    0.1794        0.9834        0.0000        8.1209        8.1209       7.137553       0.00078
  44    0.2165        0.9834        0.0000        8.1209        8.1209       7.137550       0.00076
  43    0.2613        0.9834        0.0000        8.1209        8.1209       7.137546       0.00075
  42    0.3336        0.9834        0.0000        8.1209        8.1209       7.137539       0.00077
  41    0.4307        0.9834        0.0000        8.1209        8.1209       7.137530       0.00077
  40    0.5894        0.9834        0.0000        8.1209        8.1209       7.137515       0.00080
  39     1.339        0.9834        0.0000        8.1208        8.1208       7.137426       0.00101
  38     1.782        0.9834        0.0000        8.1207        8.1207       7.137356       0.00133
  37     2.292        0.9833        0.0000        8.1206        8.1206       7.137262       0.00156
  36     2.964        0.9833        0.0000        8.1205        8.1205       7.137122       0.00176
  35     3.853        0.9833        0.0000        8.1202        8.1203       7.136914       0.00197
  34     5.035        0.9833        0.0000        8.1199        8.1199       7.136608       0.00219
  33     6.613        0.9833        0.0000        8.1195        8.1195       7.136158       0.00241
  32     8.786        0.9833        0.0000        8.1188        8.1188       7.135493       0.00258
  31     11.80        0.9833        0.0000        8.1177        8.1178       7.134451       0.00292
  30     15.07        0.9833        0.0001        8.1165        8.1165       7.133231       0.00315
  29     18.79        0.9833        0.0001        8.1150        8.1151       7.131758       0.00334
  28     23.16        0.9833        0.0001        8.1131        8.1132       7.129935       0.00353
  27     28.12        0.9833        0.0001        8.1109        8.1110       7.127734       0.00374
  26     33.73        0.9833        0.0001        8.1082        8.1083       7.125029       0.00407
  25     40.54        0.9832        0.0002        8.1045        8.1046       7.121374       0.00453
  24     48.69        0.9832        0.0002        8.0996        8.0997       7.116527       0.00502
  23     57.69        0.9832        0.0002        8.0938        8.0940       7.110811       0.00536
  22     68.43        0.9832        0.0003        8.0866        8.0869       7.103688       0.00560
  21     81.20        0.9831        0.0003        8.0778        8.0781       7.094955       0.00577
  20     96.49        0.9831        0.0004        8.0671        8.0675       7.084384       0.00583
  19     114.6        0.9831        0.0004        8.0539        8.0544       7.071258       0.00613
  18     136.5        0.9831        0.0005        8.0381        8.0386       7.055526       0.00605
  17     162.9        0.9831        0.0006        8.0188        8.0194       7.036357       0.00613
  16     196.4        0.9831        0.0007        7.9925        7.9932       7.010119       0.00660
  15     218.7        0.9832        0.0008        7.9728        7.9736       6.990404       0.00749
  14     243.0        0.9833        0.0009        7.9473        7.9482       6.964881       0.00885
  13     269.0        0.9835        0.0010        7.9135        7.9145       6.930979       0.01100
  12     297.5        0.9839        0.0011        7.8686        7.8697       6.885798       0.01340
  11     328.5        0.9844        0.0012        7.8113        7.8125       6.828072       0.01570
  10     361.9        0.9851        0.0013        7.7380        7.7393       6.754244       0.01868
   9     398.1        0.9860        0.0014        7.6465        7.6479       6.661940       0.02150
   8     437.6        0.9871        0.0015        7.5354        7.5369       6.549835       0.02397
   7     480.5        0.9885        0.0017        7.4096        7.4113       6.422799       0.02495
   6     533.0        0.9906        0.0018        7.2517        7.2535       6.262935       0.02572
   5     589.8        0.9935        0.0020        7.0689        7.0709       6.077422       0.02754
   4     651.6        0.9979        0.0021        6.8250        6.8271       5.829137       0.03395
   3     718.7        1.0048        0.0022        6.5070        6.5093       5.504422       0.04081
   2     792.3        1.0162        0.0024        6.1233        6.1257       5.109492       0.04529
   1     891.5        1.0421        0.0025        5.6154        5.6178       4.575776       0.04542
   0    1013.0        1.1007        0.0026        5.0519        5.0544       3.953734       0.04319



 Wavenumbers:  4650. -  5150. cm-1, ATM      1
 LEVEL PRESSURE   UPWARD FLUX   DIFDOWN FLUX  DIRDOWN FLUX  DOWNWARD FLUX   NET FLUX    HEATING RATE
          mb          W/m2          W/m2          W/m2        W/m2          W/m2       degree/day
  51    .06700        0.2659        0.0000        7.6868        7.6868       7.420943       0.00000
  50    .07753        0.2659        0.0000        7.6866        7.6866       7.420707       0.18887
  49    .09103        0.2659        0.0000        7.6863        7.6863       7.420413       0.18383
  48    0.1069        0.2659        0.0000        7.6860        7.6860       7.420078       0.17851
  47    0.1255        0.2659        0.0000        7.6856        7.6856       7.419696       0.17309
  46    0.1487        0.2659        0.0000        7.6851        7.6851       7.419219       0.17371
  45    0.1794        0.2659        0.0000        7.6845        7.6845       7.418577       0.17620
  44    0.2165        0.2659        0.0000        7.6837        7.6837       7.417831       0.16980
  43    0.2613        0.2659        0.0000        7.6829        7.6829       7.416965       0.16319
  42    0.3336        0.2659        0.0000        7.6815        7.6815       7.415575       0.16213
  41    0.4307        0.2659        0.0000        7.6797        7.6797       7.413806       0.15374
  40    0.5894        0.2659        0.0000        7.6770        7.6770       7.411087       0.14462
  39     1.339        0.2659        0.0000        7.6665        7.6665       7.400624       0.11779
  38     1.782        0.2659        0.0000        7.6618        7.6618       7.395926       0.08945
  37     2.292        0.2659        0.0000        7.6574        7.6574       7.391486       0.07353
  36     2.964        0.2659        0.0000        7.6527        7.6527       7.386868       0.05797
  35     3.853        0.2659        0.0000        7.6481        7.6481       7.382205       0.04426
  34     5.035        0.2659        0.0000        7.6434        7.6434       7.377518       0.03348
  33     6.613        0.2659        0.0000        7.6384        7.6384       7.372584       0.02638
  32     8.786        0.2658        0.0000        7.6325        7.6326       7.366745       0.02268
  31     11.80        0.2658        0.0001        7.6242        7.6243       7.358470       0.02317
  30     15.07        0.2658        0.0001        7.6147        7.6148       7.348977       0.02451
  29     18.79        0.2658        0.0001        7.6030        7.6031       7.337303       0.02647
  28     23.16        0.2658        0.0001        7.5881        7.5882       7.322453       0.02872
  27     28.12        0.2658        0.0002        7.5697        7.5698       7.304059       0.03127
  26     33.73        0.2657        0.0002        7.5476        7.5478       7.282035       0.03311
  25     40.54        0.2657        0.0002        7.5194        7.5196       7.253900       0.03490
  24     48.69        0.2657        0.0003        7.4840        7.4842       7.218560       0.03657
  23     57.69        0.2656        0.0003        7.4443        7.4447       7.179024       0.03706
  22     68.43        0.2656        0.0004        7.3976        7.3979       7.132345       0.03670
  21     81.20        0.2655        0.0004        7.3437        7.3441       7.078582       0.03553
  20     96.49        0.2655        0.0005        7.2837        7.2843       7.018762       0.03302
  19     114.6        0.2654        0.0006        7.2191        7.2197       6.954294       0.03010
  18     136.5        0.2654        0.0007        7.1512        7.1519       6.886529       0.02606
  17     162.9        0.2653        0.0008        7.0795        7.0803       6.815008       0.02286
  16     196.4        0.2653        0.0010        6.9952        6.9962       6.730933       0.02116
  15     218.7        0.2652        0.0011        6.9411        6.9422       6.676988       0.02048
  14     243.0        0.2652        0.0012        6.8804        6.8816       6.616399       0.02101
  13     269.0        0.2653        0.0013        6.8096        6.8109       6.545672       0.02294
  12     297.5        0.2654        0.0015        6.7236        6.7250       6.459686       0.02550
  11     328.5        0.2655        0.0016        6.6227        6.6243       6.358786       0.02743
  10     361.9        0.2657        0.0017        6.5049        6.5066       6.240935       0.02982
   9     398.1        0.2660        0.0019        6.3674        6.3693       6.103300       0.03207
   8     437.6        0.2664        0.0020        6.2086        6.2106       5.944183       0.03402
   7     480.5        0.2670        0.0022        6.0283        6.0305       5.763423       0.03550
   6     533.0        0.2680        0.0023        5.7965        5.7988       5.530844       0.03741
   5     589.8        0.2694        0.0025        5.5388        5.5413       5.271917       0.03843
   4     651.6        0.2714        0.0026        5.2490        5.2516       4.980218       0.03989
   3     718.7        0.2745        0.0027        4.9365        4.9392       4.664723       0.03965
   2     792.3        0.2793        0.0028        4.6033        4.6061       4.326846       0.03875
   1     891.5        0.2892        0.0029        4.1613        4.1642       3.875016       0.03845
   0    1013.0        0.3088        0.0030        3.6781        3.6811       3.372354       0.03490



 Wavenumbers:  5150. -  6150. cm-1, ATM      1
 LEVEL PRESSURE   UPWARD FLUX   DIFDOWN FLUX  DIRDOWN FLUX  DOWNWARD FLUX   NET FLUX    HEATING RATE
          mb          W/m2          W/m2          W/m2        W/m2          W/m2       degree/day
  51    .06700        2.1249        0.0000       19.2709       19.2709      17.146058       0.00000
  50    .07753        2.1249        0.0000       19.2709       19.2709      17.146019       0.03156
  49    .09103        2.1249        0.0000       19.2708       19.2708      17.145967       0.03205
  48    0.1069        2.1249        0.0000       19.2708       19.2708      17.145906       0.03255
  47    0.1255        2.1249        0.0000       19.2707       19.2707      17.145833       0.03305
  46    0.1487        2.1249        0.0000       19.2706       19.2706      17.145738       0.03482
  45    0.1794        2.1249        0.0000       19.2705       19.2705      17.145603       0.03706
  44    0.2165        2.1249        0.0000       19.2703       19.2703      17.145437       0.03761
  43    0.2613        2.1249        0.0000       19.2701       19.2701      17.145235       0.03818
  42    0.3336        2.1249        0.0000       19.2697       19.2697      17.144889       0.04033
  41    0.4307        2.1249        0.0000       19.2693       19.2693      17.144419       0.04085
  40    0.5894        2.1248        0.0000       19.2685       19.2685      17.143633       0.04182
  39     1.339        2.1248        0.0000       19.2647       19.2647      17.139855       0.04253
  38     1.782        2.1248        0.0000       19.2624       19.2625      17.137665       0.04170
  37     2.292        2.1248        0.0001       19.2599       19.2600      17.135194       0.04093
  36     2.964        2.1248        0.0001       19.2568       19.2569      17.132065       0.03927
  35     3.853        2.1248        0.0001       19.2528       19.2529      17.128108       0.03755
  34     5.035        2.1248        0.0001       19.2477       19.2478      17.123043       0.03619
  33     6.613        2.1247        0.0002       19.2411       19.2412      17.116523       0.03486
  32     8.786        2.1247        0.0002       19.2326       19.2328      17.108158       0.03249
  31     11.80        2.1246        0.0003       19.2213       19.2216      17.097010       0.03121
  30     15.07        2.1246        0.0004       19.2101       19.2105      17.085980       0.02848
  29     18.79        2.1245        0.0005       19.1987       19.1992      17.074656       0.02568
  28     23.16        2.1244        0.0006       19.1864       19.1870      17.062624       0.02327
  27     28.12        2.1243        0.0007       19.1738       19.1745      17.050189       0.02114
  26     33.73        2.1242        0.0009       19.1611       19.1620      17.037785       0.01865
  25     40.54        2.1241        0.0011       19.1475       19.1486      17.024482       0.01650
  24     48.69        2.1240        0.0013       19.1332       19.1345      17.010468       0.01450
  23     57.69        2.1239        0.0015       19.1191       19.1206      16.996766       0.01284
  22     68.43        2.1237        0.0018       19.1040       19.1058      16.982059       0.01156
  21     81.20        2.1235        0.0021       19.0874       19.0895      16.966010       0.01060
  20     96.49        2.1233        0.0025       19.0689       19.0714      16.948057       0.00991
  19     114.6        2.1231        0.0030       19.0476       19.0506      16.927516       0.00959
  18     136.5        2.1228        0.0035       19.0228       19.0263      16.903479       0.00924
  17     162.9        2.1225        0.0042       18.9859       18.9901      16.867619       0.01146
  16     196.4        2.1221        0.0050       18.9061       18.9111      16.789030       0.01978
  15     218.7        2.1218        0.0056       18.7752       18.7807      16.658913       0.04940
  14     243.0        2.1216        0.0061       18.4914       18.4976      16.375969       0.09813
  13     269.0        2.1214        0.0067       18.0178       18.0245      15.903103       0.15340
  12     297.5        2.1212        0.0072       17.4431       17.4503      15.329104       0.17024
  11     328.5        2.1211        0.0077       16.8392       16.8469      14.725810       0.16403
  10     361.9        2.1211        0.0082       16.1483       16.1565      14.035403       0.17468
   9     398.1        2.1212        0.0087       15.3905       15.3991      13.277916       0.17648
   8     437.6        2.1215        0.0091       14.5888       14.5979      12.476390       0.17137
   7     480.5        2.1220        0.0095       13.7872       13.7967      11.674686       0.15745
   6     533.0        2.1230        0.0099       12.9158       12.9257      10.802764       0.14026
   5     589.8        2.1248        0.0103       12.1243       12.1346      10.009868       0.11769
   4     651.6        2.1281        0.0108       11.4080       11.4188       9.290718       0.09835
   3     718.7        2.1341        0.0113       10.8168       10.8280       8.693938       0.07500
   2     792.3        2.1451        0.0118       10.2610       10.2728       8.127723       0.06494
   1     891.5        2.1724        0.0125        9.5065        9.5190       7.346667       0.06646
   0    1013.0        2.2430        0.0132        8.7492        8.7624       6.519355       0.05744



 Wavenumbers:  6150. -  7700. cm-1, ATM      1
 LEVEL PRESSURE   UPWARD FLUX   DIFDOWN FLUX  DIRDOWN FLUX  DOWNWARD FLUX   NET FLUX    HEATING RATE
          mb          W/m2          W/m2          W/m2        W/m2          W/m2       degree/day
  51    .06700        3.1096        0.0000       35.6423       35.6423      32.532719       0.00000
  50    .07753        3.1096        0.0000       35.6422       35.6422      32.532662       0.04553
  49    .09103        3.1096        0.0000       35.6422       35.6422      32.532589       0.04582
  48    0.1069        3.1096        0.0000       35.6421       35.6421      32.532502       0.04613
  47    0.1255        3.1096        0.0000       35.6420       35.6420      32.532400       0.04644
  46    0.1487        3.1096        0.0000       35.6418       35.6418      32.532267       0.04851
  45    0.1794        3.1096        0.0000       35.6416       35.6417      32.532080       0.05125
  44    0.2165        3.1096        0.0000       35.6414       35.6414      32.531853       0.05165
  43    0.2613        3.1096        0.0000       35.6411       35.6411      32.531577       0.05207
  42    0.3336        3.1096        0.0000       35.6406       35.6407      32.531108       0.05467
  41    0.4307        3.1095        0.0000       35.6400       35.6400      32.530474       0.05515
  40    0.5894        3.1095        0.0001       35.6389       35.6389      32.529416       0.05625
  39     1.339        3.1095        0.0001       35.6337       35.6338      32.524340       0.05714
  38     1.782        3.1094        0.0002       35.6306       35.6308      32.521386       0.05624
  37     2.292        3.1094        0.0002       35.6272       35.6274      32.518035       0.05551
  36     2.964        3.1093        0.0003       35.6227       35.6231      32.513757       0.05370
  35     3.853        3.1092        0.0004       35.6171       35.6175      32.508289       0.05189
  34     5.035        3.1091        0.0005       35.6098       35.6103      32.501221       0.05049
  33     6.613        3.1089        0.0007       35.6002       35.6010      32.492023       0.04917
  32     8.786        3.1087        0.0010       35.5878       35.5888      32.480046       0.04651
  31     11.80        3.1084        0.0013       35.5708       35.5721      32.463721       0.04571
  30     15.07        3.1081        0.0016       35.5536       35.5553      32.447184       0.04269
  29     18.79        3.1077        0.0021       35.5353       35.5374      32.429682       0.03968
  28     23.16        3.1073        0.0025       35.5153       35.5179      32.410575       0.03695
  27     28.12        3.1068        0.0031       35.4939       35.4970      32.390169       0.03469
  26     33.73        3.1062        0.0037       35.4718       35.4755      32.369210       0.03151
  25     40.54        3.1056        0.0044       35.4471       35.4516      32.345982       0.02882
  24     48.69        3.1048        0.0053       35.4203       35.4256      32.320797       0.02606
  23     57.69        3.1039        0.0063       35.3931       35.3994      32.295508       0.02370
  22     68.43        3.1028        0.0074       35.3632       35.3706      32.267823       0.02176
  21     81.20        3.1016        0.0088       35.3298       35.3387      32.237106       0.02030
  20     96.49        3.1001        0.0105       35.2920       35.3025      32.202466       0.01912
  19     114.6        3.0983        0.0124       35.2485       35.2609      32.162657       0.01859
  18     136.5        3.0961        0.0148       35.1976       35.2123      32.116193       0.01787
  17     162.9        3.0936        0.0175       35.1254       35.1429      32.049324       0.02137
  16     196.4        3.0903        0.0211       34.9834       35.0045      31.914131       0.03403
  15     218.7        3.0882        0.0234       34.7917       34.8151      31.726858       0.07110
  14     243.0        3.0860        0.0258       34.4147       34.4405      31.354485       0.12915
  13     269.0        3.0837        0.0281       33.7263       33.7545      30.670783       0.22179
  12     297.5        3.0814        0.0304       32.7369       32.7672      29.685892       0.29211
  11     328.5        3.0791        0.0326       31.6831       31.7157      28.636671       0.28528
  10     361.9        3.0768        0.0348       30.5399       30.5748      27.497907       0.28812
   9     398.1        3.0748        0.0370       29.2297       29.2666      26.191814       0.30429
   8     437.6        3.0732        0.0389       27.7628       27.8017      24.728514       0.31286
   7     480.5        3.0721        0.0406       26.2348       26.2754      23.203317       0.29954
   6     533.0        3.0720        0.0423       24.4564       24.4988      21.426788       0.28579
   5     589.8        3.0740        0.0438       22.6566       22.7004      19.626342       0.26725
   4     651.6        3.0807        0.0447       20.7674       20.8122      17.731492       0.25913
   3     718.7        3.0950        0.0454       18.9325       18.9779      15.882908       0.23232
   2     792.3        3.1237        0.0458       17.1570       17.2028      14.079131       0.20687
   1     891.5        3.1980        0.0460       15.1253       15.1713      11.973312       0.17920
   0    1013.0        3.3878        0.0463       13.2217       13.2681       9.880332       0.14533



 Wavenumbers:  7700. -  8050. cm-1, ATM      1
 LEVEL PRESSURE   UPWARD FLUX   DIFDOWN FLUX  DIRDOWN FLUX  DOWNWARD FLUX   NET FLUX    HEATING RATE
          mb          W/m2          W/m2          W/m2        W/m2          W/m2       degree/day
  51    .06700        4.2336        0.0000        8.4233        8.4233       4.189727       0.00000
  50    .07753        4.2336        0.0000        8.4233        8.4233       4.189706       0.01639
  49    .09103        4.2336        0.0000        8.4233        8.4233       4.189681       0.01606
  48    0.1069        4.2336        0.0000        8.4233        8.4233       4.189651       0.01572
  47    0.1255        4.2336        0.0000        8.4232        8.4232       4.189617       0.01539
  46    0.1487        4.2336        0.0000        8.4232        8.4232       4.189574       0.01561
  45    0.1794        4.2336        0.0000        8.4231        8.4231       4.189516       0.01607
  44    0.2165        4.2336        0.0000        8.4231        8.4231       4.189447       0.01576
  43    0.2613        4.2337        0.0000        8.4230        8.4230       4.189365       0.01546
  42    0.3336        4.2337        0.0000        8.4229        8.4229       4.189229       0.01582
  41    0.4307        4.2337        0.0000        8.4227        8.4227       4.189049       0.01565
  40    0.5894        4.2337        0.0000        8.4225        8.4225       4.188755       0.01563
  39     1.339        4.2339        0.0001        8.4212        8.4213       4.187364       0.01565
  38     1.782        4.2340        0.0001        8.4204        8.4205       4.186548       0.01555
  37     2.292        4.2341        0.0001        8.4196        8.4197       4.185603       0.01565
  36     2.964        4.2342        0.0001        8.4185        8.4186       4.184362       0.01557
  35     3.853        4.2344        0.0002        8.4170        8.4172       4.182724       0.01555
  34     5.035        4.2347        0.0003        8.4150        8.4152       4.180548       0.01554
  33     6.613        4.2350        0.0003        8.4123        8.4127       4.177644       0.01553
  32     8.786        4.2355        0.0004        8.4088        8.4092       4.173734       0.01519
  31     11.80        4.2362        0.0006        8.4037        8.4043       4.168148       0.01564
  30     15.07        4.2369        0.0008        8.3983        8.3990       4.162162       0.01545
  29     18.79        4.2377        0.0010        8.3921        8.3931       4.155415       0.01530
  28     23.16        4.2386        0.0012        8.3850        8.3862       4.147555       0.01520
  27     28.12        4.2397        0.0014        8.3769        8.3783       4.138593       0.01523
  26     33.73        4.2409        0.0017        8.3678        8.3695       4.128601       0.01502
  25     40.54        4.2424        0.0021        8.3569        8.3590       4.116580       0.01491
  24     48.69        4.2442        0.0025        8.3439        8.3464       4.102163       0.01492
  23     57.69        4.2462        0.0029        8.3297        8.3326       4.086423       0.01475
  22     68.43        4.2486        0.0035        8.3129        8.3164       4.067807       0.01463
  21     81.20        4.2514        0.0041        8.2932        8.2972       4.045812       0.01453
  20     96.49        4.2549        0.0049        8.2699        8.2747       4.019860       0.01432
  19     114.6        4.2590        0.0058        8.2426        8.2484       3.989399       0.01422
  18     136.5        4.2639        0.0068        8.2109        8.2177       3.953773       0.01370
  17     162.9        4.2699        0.0081        8.1738        8.1819       3.911988       0.01336
  16     196.4        4.2778        0.0097        8.1267        8.1365       3.858713       0.01341
  15     218.7        4.2830        0.0108        8.0965        8.1073       3.824290       0.01307
  14     243.0        4.2888        0.0120        8.0641        8.0761       3.787276       0.01284
  13     269.0        4.2952        0.0132        8.0295        8.0428       3.747551       0.01289
  12     297.5        4.3023        0.0146        7.9927        8.0073       3.704939       0.01264
  11     328.5        4.3102        0.0161        7.9533        7.9694       3.659191       0.01244
  10     361.9        4.3189        0.0176        7.9113        7.9289       3.610076       0.01243
   9     398.1        4.3286        0.0193        7.8665        7.8859       3.557311       0.01229
   8     437.6        4.3394        0.0212        7.8186        7.8397       3.500255       0.01220
   7     480.5        4.3517        0.0231        7.7671        7.7902       3.438490       0.01213
   6     533.0        4.3677        0.0255        7.7033        7.7288       3.361089       0.01245
   5     589.8        4.3863        0.0280        7.6330        7.6610       3.274670       0.01283
   4     651.6        4.4087        0.0307        7.5536        7.5843       3.175592       0.01355
   3     718.7        4.4362        0.0336        7.4625        7.4961       3.059898       0.01454
   2     792.3        4.4710        0.0367        7.3551        7.3917       2.920721       0.01596
   1     891.5        4.5293        0.0407        7.1905        7.2312       2.701869       0.01862
   0    1013.0        4.6206        0.0452        6.9622        7.0075       2.386824       0.02188



 Wavenumbers:  8050. - 12850. cm-1, ATM      1
 LEVEL PRESSURE   UPWARD FLUX   DIFDOWN FLUX  DIRDOWN FLUX  DOWNWARD FLUX   NET FLUX    HEATING RATE
          mb          W/m2          W/m2          W/m2        W/m2          W/m2       degree/day
  51    .06700       69.1072        0.0000      117.9329      117.9329      48.825775       0.00000
  50    .07753       69.1071        0.0000      117.9329      117.9329      48.825775       0.00000
  49    .09103       69.1071        0.0001      117.9328      117.9329      48.825775      -0.00000
  48    0.1069       69.1071        0.0001      117.9328      117.9329      48.825775       0.00000
  47    0.1255       69.1071        0.0002      117.9327      117.9329      48.825775       0.00000
  46    0.1487       69.1071        0.0002      117.9326      117.9328      48.825775       0.00000
  45    0.1794       69.1070        0.0003      117.9325      117.9328      48.825775      -0.00000
  44    0.2165       69.1070        0.0004      117.9323      117.9327      48.825775       0.00000
  43    0.2613       69.1069        0.0005      117.9322      117.9327      48.825775      -0.00000
  42    0.3336       69.1068        0.0007      117.9319      117.9326      48.825775       0.00000
  41    0.4307       69.1067        0.0010      117.9315      117.9324      48.825775      -0.00000
  40    0.5894       69.1065        0.0014      117.9309      117.9322      48.825775       0.00000
  39     1.339       69.1055        0.0033      117.9279      117.9312      48.825775      -0.00000
  38     1.782       69.1049        0.0045      117.9262      117.9307      48.825775       0.00000
  37     2.292       69.1042        0.0058      117.9242      117.9300      48.825775      -0.00000
  36     2.964       69.1033        0.0076      117.9215      117.9291      48.825775      -0.00000
  35     3.853       69.1021        0.0099      117.9180      117.9279      48.825775       0.00000
  34     5.035       69.1006        0.0129      117.9134      117.9263      48.825775       0.00000
  33     6.613       69.0985        0.0171      117.9072      117.9242      48.825775       0.00000
  32     8.786       69.0956        0.0226      117.8988      117.9214      48.825775      -0.00000
  31     11.80       69.0916        0.0305      117.8868      117.9174      48.825775      -0.00000
  30     15.07       69.0873        0.0391      117.8740      117.9130      48.825775      -0.00000
  29     18.79       69.0823        0.0487      117.8594      117.9081      48.825775       0.00000
  28     23.16       69.0766        0.0600      117.8424      117.9024      48.825775      -0.00000
  27     28.12       69.0700        0.0729      117.8229      117.8958      48.825775       0.00000
  26     33.73       69.0626        0.0874      117.8011      117.8884      48.825775       0.00000
  25     40.54       69.0537        0.1049      117.7746      117.8795      48.825775       0.00000
  24     48.69       69.0430        0.1260      117.7427      117.8687      48.825775      -0.00000
  23     57.69       69.0311        0.1492      117.7077      117.8569      48.825775       0.00000
  22     68.43       69.0170        0.1769      117.6658      117.8428      48.825775      -0.00000
  21     81.20       69.0001        0.2100      117.6159      117.8259      48.825775       0.00000
  20     96.49       68.9800        0.2495      117.5563      117.8058      48.825775       0.00000
  19     114.6       68.9562        0.2964      117.4794      117.7758      48.819624       0.00287
  18     136.5       68.9279        0.3522      117.3877      117.7399      48.812001       0.00293
  17     162.9       68.8941        0.4187      117.2748      117.6935      48.799361       0.00404
  16     196.4       68.8503        0.5052      117.1122      117.6173      48.767048       0.00813
  15     218.7       68.8216        0.5620      116.9668      117.5289      48.707261       0.02270
  14     243.0       68.7907        0.6238      116.7359      117.3597      48.569003       0.04795
  13     269.0       68.7579        0.6905      116.3713      117.0618      48.303868       0.08601
  12     297.5       68.7240        0.7623      115.8598      116.6221      47.898111       0.12034
  11     328.5       68.6892        0.8396      115.2535      116.0932      47.403904       0.13437
  10     361.9       68.6546        0.9225      114.5172      115.4397      46.785075       0.15657
   9     398.1       68.6217        1.0110      113.5881      114.5991      45.977427       0.18816
   8     437.6       68.5931        1.1049      112.4122      113.5171      44.923928       0.22524
   7     480.5       68.5723        1.2040      110.9760      112.1800      43.607735       0.25850
   6     533.0       68.5650        1.3235      108.9717      110.2952      41.730253       0.30203
   5     589.8       68.5904        1.4482      106.4802      107.9284      39.338032       0.35508
   4     651.6       68.6867        1.5754      103.2803      104.8557      36.169005       0.43337
   3     718.7       68.9028        1.7040       99.4768      101.1807      32.277899       0.48900
   2     792.3       69.3446        1.8305       94.9528       96.7832      27.438648       0.55501
   1     891.5       70.4867        1.9821       88.5019       90.4840      19.997309       0.63322
   0    1013.0       73.2130        2.1429       81.2827       83.4257      10.212676       0.67940



 Wavenumbers: 12850. - 16000. cm-1, ATM      1
 LEVEL PRESSURE   UPWARD FLUX   DIFDOWN FLUX  DIRDOWN FLUX  DOWNWARD FLUX   NET FLUX    HEATING RATE
          mb          W/m2          W/m2          W/m2        W/m2          W/m2       degree/day
  51    .06700       59.0271        0.0000       73.8954       73.8954      14.868326       0.00000
  50    .07753       59.0271        0.0001       73.8945       73.8946      14.867541       0.62967
  49    .09103       59.0270        0.0001       73.8935       73.8936      14.866558       0.61404
  48    0.1069       59.0270        0.0002       73.8922       73.8925      14.865435       0.59784
  47    0.1255       59.0270        0.0003       73.8908       73.8912      14.864152       0.58173
  46    0.1487       59.0270        0.0005       73.8891       73.8896      14.862543       0.58645
  45    0.1794       59.0270        0.0007       73.8867       73.8874      14.860372       0.59607
  44    0.2165       59.0270        0.0009       73.8840       73.8849      14.857842       0.57554
  43    0.2613       59.0271        0.0011       73.8808       73.8820      14.854898       0.55496
  42    0.3336       59.0272        0.0016       73.8757       73.8773      14.850153       0.55323
  41    0.4307       59.0273        0.0021       73.8693       73.8715      14.844133       0.52344
  40    0.5894       59.0277        0.0031       73.8595       73.8626      14.834855       0.49335
  39     1.339       59.0317        0.0074       73.8188       73.8262      14.794519       0.45412
  38     1.782       59.0356        0.0100       73.7961       73.8061      14.770511       0.45707
  37     2.292       59.0416        0.0130       73.7689       73.7818      14.740214       0.50179
  36     2.964       59.0517        0.0169       73.7300       73.7468      14.695132       0.56592
  35     3.853       59.0682        0.0220       73.6731       73.6952      14.626999       0.64660
  34     5.035       59.0931        0.0288       73.5920       73.6208      14.527708       0.70929
  33     6.613       59.1280        0.0380       73.4811       73.5191      14.391028       0.73069
  32     8.786       59.1735        0.0502       73.3367       73.3869      14.213453       0.68964
  31     11.80       59.2323        0.0678       73.1456       73.2134      13.981121       0.65045
  30     15.07       59.2883        0.0865       72.9584       73.0450      13.756632       0.57959
  29     18.79       59.3452        0.1077       72.7631       72.8709      13.525670       0.52366
  28     23.16       59.4043        0.1324       72.5537       72.6862      13.281911       0.47135
  27     28.12       59.4632        0.1607       72.3359       72.4965      13.033395       0.42246
  26     33.73       59.5167        0.1922       72.1220       72.3142      12.797444       0.35476
  25     40.54       59.5671        0.2303       71.8978       72.1281      12.561020       0.29331
  24     48.69       59.6140        0.2762       71.6619       71.9381      12.324086       0.24519
  23     57.69       59.6520        0.3265       71.4358       71.7624      12.110409       0.20029
  22     68.43       59.6826        0.3865       71.2019       71.5884      11.905823       0.16083
  21     81.20       59.6991        0.4580       70.9692       71.4272      11.728140       0.11741
  20     96.49       59.7002        0.5432       70.7337       71.2769      11.576700       0.08358
  19     114.6       59.7035        0.6453       70.4719       71.1172      11.413752       0.07609
  18     136.5       59.6987        0.7662       70.1746       70.9408      11.242072       0.06602
  17     162.9       59.6851        0.9101       69.8297       70.7398      11.054691       0.05989
  16     196.4       59.6506        1.0963       69.4044       70.5008      10.850174       0.05148
  15     218.7       59.6218        1.2185       69.1322       70.3508      10.728936       0.04603
  14     243.0       59.5879        1.3512       68.8385       70.1897      10.601800       0.04410
  13     269.0       59.5487        1.4949       68.5222       70.0170      10.468369       0.04328
  12     297.5       59.5043        1.6500       68.1804       69.8304      10.326141       0.04218
  11     328.5       59.4559        1.8173       67.8097       69.6270      10.171120       0.04215
  10     361.9       59.4041        1.9973       67.4075       69.4049      10.000764       0.04310
   9     398.1       59.3494        2.1907       66.9695       69.1603       9.810817       0.04425
   8     437.6       59.2936        2.3981       66.4884       68.8865       9.592865       0.04660
   7     480.5       59.2381        2.6199       65.9581       68.5780       9.339855       0.04969
   6     533.0       59.1787        2.8920       65.2795       68.1715       8.992829       0.05583
   5     589.8       59.1315        3.1839       64.5029       67.6869       8.555401       0.06493
   4     651.6       59.1157        3.4953       63.5800       67.0753       7.959613       0.08148
   3     718.7       59.1436        3.8241       62.5096       66.3338       7.190202       0.09669
   2     792.3       59.2553        4.1670       61.2445       65.4114       6.156149       0.11859
   1     891.5       59.5974        4.6113       59.3523       63.9636       4.366210       0.15232
   0    1013.0       60.3756        5.1169       56.9241       62.0410       1.665386       0.18753



 Wavenumbers: 16000. - 22650. cm-1, ATM      1
 LEVEL PRESSURE   UPWARD FLUX   DIFDOWN FLUX  DIRDOWN FLUX  DOWNWARD FLUX   NET FLUX    HEATING RATE
          mb          W/m2          W/m2          W/m2        W/m2          W/m2       degree/day
  51    .06700      104.3450        0.0000      117.8180      117.8180      13.473044       0.00000
  50    .07753      104.3449        0.0004      117.8175      117.8178      13.472914       0.10445
  49    .09103      104.3448        0.0008      117.8167      117.8175      13.472724       0.11847
  48    0.1069      104.3447        0.0013      117.8159      117.8172      13.472471       0.13510
  47    0.1255      104.3446        0.0019      117.8149      117.8168      13.472131       0.15399
  46    0.1487      104.3445        0.0027      117.8135      117.8162      13.471630       0.18248
  45    0.1794      104.3445        0.0037      117.8116      117.8153      13.470848       0.21486
  44    0.2165      104.3444        0.0049      117.8093      117.8142      13.469786       0.24147
  43    0.2613      104.3444        0.0063      117.8064      117.8127      13.468346       0.27147
  42    0.3336      104.3445        0.0087      117.8014      117.8101      13.465608       0.31924
  41    0.4307      104.3449        0.0118      117.7945      117.8064      13.461480       0.35886
  40    0.5894      104.3459        0.0170      117.7825      117.7995      13.453609       0.41858
  39     1.339      104.3581        0.0413      117.7122      117.7535      13.395461       0.65464
  38     1.782      104.3708        0.0556      117.6612      117.7167      13.345935       0.94291
  37     2.292      104.3908        0.0721      117.5930      117.6650      13.274256       1.18719
  36     2.964      104.4250        0.0938      117.4894      117.5832      13.158164       1.45730
  35     3.853      104.4815        0.1224      117.3332      117.4555      12.974026       1.74751
  34     5.035      104.5676        0.1603      117.1068      117.2671      12.699463       1.96136
  33     6.613      104.6884        0.2109      116.7957      117.0066      12.318211       2.03818
  32     8.786      104.8454        0.2790      116.3890      116.6680      11.822654       1.92457
  31     11.80      105.0481        0.3762      115.8490      116.2251      11.177000       1.80763
  30     15.07      105.2404        0.4802      115.3171      115.7973      10.556892       1.60100
  29     18.79      105.4348        0.5974      114.7597      115.3572       9.922360       1.43868
  28     23.16      105.6355        0.7340      114.1583      114.8923       9.256755       1.28706
  27     28.12      105.8343        0.8898      113.5275      114.4172       8.582918       1.14548
  26     33.73      106.0125        1.0637      112.9000      113.9636       7.951106       0.94995
  25     40.54      106.1767        1.2733      112.2312      113.5045       7.327760       0.77333
  24     48.69      106.3250        1.5254      111.5114      113.0368       6.711781       0.63744
  23     57.69      106.4401        1.8015      110.8037      112.6052       6.165122       0.51241
  22     68.43      106.5255        2.1295      110.0488      112.1783       5.652886       0.40269
  21     81.20      106.5565        2.5194      109.2670      111.7864       5.229915       0.27949
  20     96.49      106.5280        2.9826      108.4440      111.4266       4.898579       0.18287
  19     114.6      106.4614        3.5298      107.5270      111.0568       4.595405       0.14156
  18     136.5      106.3604        4.1744      106.4838      110.6582       4.297747       0.11446
  17     162.9      106.2207        4.9362      105.2848      110.2210       4.000240       0.09510
  16     196.4      105.9968        5.9158      103.8144      109.7301       3.733356       0.06718
  15     218.7      105.8345        6.5539      102.8828      109.4367       3.602179       0.04980
  14     243.0      105.6517        7.2428      101.8895      109.1323       3.480567       0.04218
  13     269.0      105.4470        7.9840      100.8336      108.8176       3.370559       0.03569
  12     297.5      105.2198        8.7787       99.7135      108.4922       3.272449       0.02910
  11     328.5      104.9725        9.6302       98.5195      108.1497       3.177193       0.02590
  10     361.9      104.7050       10.5387       97.2513      107.7899       3.084916       0.02335
   9     398.1      104.4166       11.5069       95.9046      107.4115       2.994879       0.02098
   8     437.6      104.1078       12.5358       94.4765      107.0123       2.904461       0.01933
   7     480.5      103.7784       13.6265       92.9654      106.5918       2.813459       0.01787
   6     533.0      103.3765       14.9520       91.1300      106.0820       2.705483       0.01737
   5     589.8      102.9504       16.3602       89.1768      105.5370       2.586636       0.01764
   4     651.6      102.5044       17.8508       87.0977      104.9484       2.444048       0.01950
   3     718.7      102.0429       19.4231       84.8864      104.3095       2.266628       0.02230
   2     792.3      101.5778       21.0733       82.5317      103.6051       2.027232       0.02746
   1     891.5      101.0148       23.2451       79.3593      102.6044       1.589598       0.03724
   0    1013.0      100.4434       25.7662       75.5853      101.3516       0.908210       0.04731



 Wavenumbers: 22650. - 29000. cm-1, ATM      1
 LEVEL PRESSURE   UPWARD FLUX   DIFDOWN FLUX  DIRDOWN FLUX  DOWNWARD FLUX   NET FLUX    HEATING RATE
          mb          W/m2          W/m2          W/m2        W/m2          W/m2       degree/day
  51    .06700       44.2326        0.0000       44.4602       44.4602       0.227598       0.00000
  50    .07753       44.2325        0.0004       44.4597       44.4601       0.227598      -0.00000
  49    .09103       44.2323        0.0009       44.4590       44.4599       0.227598       0.00000
  48    0.1069       44.2321        0.0015       44.4582       44.4597       0.227598      -0.00000
  47    0.1255       44.2319        0.0022       44.4573       44.4595       0.227598      -0.00000
  46    0.1487       44.2316        0.0031       44.4561       44.4592       0.227598       0.00000
  45    0.1794       44.2312        0.0043       44.4545       44.4588       0.227598       0.00000
  44    0.2165       44.2308        0.0057       44.4527       44.4584       0.227598       0.00000
  43    0.2613       44.2302        0.0074       44.4505       44.4578       0.227598      -0.00000
  42    0.3336       44.2294        0.0102       44.4468       44.4569       0.227598       0.00000
  41    0.4307       44.2282        0.0138       44.4419       44.4558       0.227598      -0.00000
  40    0.5894       44.2262        0.0198       44.4340       44.4538       0.227598       0.00000
  39     1.339       44.2170        0.0482       44.3964       44.4446       0.227598       0.00000
  38     1.782       44.2116        0.0649       44.3744       44.4392       0.227598       0.00000
  37     2.292       44.2054        0.0841       44.3488       44.4330       0.227598       0.00000
  36     2.964       44.1972        0.1094       44.3153       44.4248       0.227598      -0.00000
  35     3.853       44.1863        0.1428       44.2711       44.4139       0.227598       0.00000
  34     5.035       44.1720        0.1872       44.2124       44.3996       0.227598      -0.00000
  33     6.613       44.1528        0.2463       44.1340       44.3804       0.227598       0.00000
  32     8.786       44.1270        0.3260       44.0286       44.3546       0.227598       0.00000
  31     11.80       44.0901        0.4396       43.8781       44.3177       0.227598      -0.00000
  30     15.07       44.0507        0.5613       43.7170       44.2783       0.227598       0.00000
  29     18.79       44.0062        0.6984       43.5355       44.2338       0.227598      -0.00000
  28     23.16       43.9545        0.8579       43.3243       44.1821       0.227598       0.00000
  27     28.12       43.8957        1.0395       43.0838       44.1233       0.227598      -0.00000
  26     33.73       43.8301        1.2417       42.8160       44.0577       0.227598       0.00000
  25     40.54       43.7513        1.4845       42.4944       43.9789       0.227598       0.00000
  24     48.69       43.6571        1.7752       42.1096       43.8847       0.227598      -0.00000
  23     57.69       43.5545        2.0916       41.6905       43.7821       0.227598       0.00000
  22     68.43       43.4335        2.4647       41.1963       43.6611       0.227598       0.00000
  21     81.20       43.2910        2.9038       40.6148       43.5186       0.227598       0.00000
  20     96.49       43.1238        3.4194       39.9320       43.3514       0.227598      -0.00000
  19     114.6       42.9287        4.0207       39.1356       43.1563       0.227598       0.00000
  18     136.5       42.7023        4.7184       38.2115       42.9299       0.227598       0.00000
  17     162.9       42.4393        5.5283       37.1386       42.6669       0.227598       0.00000
  16     196.4       42.1090        6.5456       35.7910       42.3366       0.227598      -0.00000
  15     218.7       41.8984        7.1942       34.9318       42.1260       0.227598       0.00000
  14     243.0       41.6749        7.8819       34.0206       41.9025       0.227598      -0.00000
  13     269.0       41.4391        8.6076       33.0591       41.6667       0.227598       0.00000
  12     297.5       41.1914        9.3695       32.0495       41.4190       0.227598      -0.00000
  11     328.5       40.9319       10.1677       30.9918       41.1595       0.227598       0.00000
  10     361.9       40.6615       10.9987       29.8904       40.8891       0.227598       0.00000
   9     398.1       40.3806       11.8619       28.7463       40.6082       0.227598       0.00000
   8     437.6       40.0903       12.7532       27.5647       40.3179       0.227598      -0.00000
   7     480.5       39.7915       13.6705       26.3485       40.0191       0.227598       0.00000
   6     533.0       39.4405       14.7470       24.9211       39.6681       0.227598       0.00000
   5     589.8       39.0819       15.8458       23.4637       39.3095       0.227598      -0.00000
   4     651.6       38.7178       16.9607       21.9847       38.9454       0.227598       0.00000
   3     718.7       38.3502       18.0849       20.4929       38.5778       0.227598       0.00000
   2     792.3       37.9819       19.2096       18.9999       38.2095       0.227598       0.00000
   1     891.5       37.5231       20.6084       17.1423       37.7507       0.227598      -0.00000
   0    1013.0       37.0252       22.1230       15.1297       37.2528       0.227598       0.00000



 Wavenumbers: 29000. - 38000. cm-1, ATM      1
 LEVEL PRESSURE   UPWARD FLUX   DIFDOWN FLUX  DIRDOWN FLUX  DOWNWARD FLUX   NET FLUX    HEATING RATE
          mb          W/m2          W/m2          W/m2        W/m2          W/m2       degree/day
  51    .06700        6.4182        0.0000       15.6785       15.6785       9.260374       0.00000
  50    .07753        6.4180        0.0003       15.6742       15.6745       9.256572       3.04700
  49    .09103        6.4177        0.0007       15.6681       15.6687       9.251046       3.45387
  48    0.1069        6.4174        0.0011       15.6599       15.6611       9.243657       3.93350
  47    0.1255        6.4171        0.0016       15.6492       15.6509       9.233789       4.47377
  46    0.1487        6.4167        0.0023       15.6337       15.6360       9.219299       5.28176
  45    0.1794        6.4162        0.0031       15.6098       15.6129       9.196794       6.17819
  44    0.2165        6.4155        0.0041       15.5780       15.5821       9.166574       6.87454
  43    0.2613        6.4149        0.0053       15.5357       15.5410       9.126143       7.62100
  42    0.3336        6.4138        0.0073       15.4576       15.4649       9.051115       8.74755
  41    0.4307        6.4124        0.0098       15.3450       15.3549       8.942479       9.44559
  40    0.5894        6.4103        0.0139       15.1459       15.1598       8.749470      10.26400
  39     1.339        6.4037        0.0310       14.1080       14.1390       7.735276      11.41799
  38     1.782        6.4018        0.0398       13.5691       13.6089       7.207135      10.05495
  37     2.292        6.4011        0.0492       13.0422       13.0914       6.690283       8.56041
  36     2.964        6.4026        0.0609       12.4702       12.5310       6.128431       7.05295
  35     3.853        6.4076        0.0753       11.8594       11.9347       5.527089       5.70685
  34     5.035        6.4174        0.0934       11.2395       11.3330       4.915619       4.36809
  33     6.613        6.4324        0.1165       10.6392       10.7557       4.323324       3.16641
  32     8.786        6.4525        0.1465       10.0712       10.2176       3.765163       2.16769
  31     11.80        6.4781        0.1878        9.5130        9.7008       3.222690       1.51876
  30     15.07        6.5021        0.2306        9.0826        9.3133       2.811170       1.06246
  29     18.79        6.5262        0.2775        8.7060        8.9836       2.457400       0.80211
  28     23.16        6.5508        0.3307        8.3552        8.6859       2.135012       0.62339
  27     28.12        6.5749        0.3897        8.0303        8.4200       1.845028       0.49295
  26     33.73        6.5949        0.4543        7.7391        8.1935       1.598602       0.37051
  25     40.54        6.6105        0.5310        7.4546        7.9856       1.375097       0.27728
  24     48.69        6.6214        0.6213        7.1705        7.7918       1.170366       0.21186
  23     57.69        6.6257        0.7183        6.9076        7.6258       1.000168       0.15954
  22     68.43        6.6222        0.8312        6.6405        7.4717       0.849516       0.11843
  21     81.20        6.6052        0.9632        6.3730        7.3362       0.731028       0.07830
  20     96.49        6.5733        1.1168        6.0985        7.2153       0.642014       0.04913
  19     114.6        6.5314        1.2923        5.8030        7.0953       0.563834       0.03650
  18     136.5        6.4811        1.4908        5.4800        6.9708       0.489729       0.02850
  17     162.9        6.4222        1.7138        5.1266        6.8405       0.418264       0.02284
  16     196.4        6.3440        1.9850        4.7153        6.7004       0.356372       0.01558
  15     218.7        6.2934        2.1527        4.4672        6.6199       0.326561       0.01132
  14     243.0        6.2404        2.3254        4.2143        6.5397       0.299308       0.00945
  13     269.0        6.1850        2.5026        3.9574        6.4600       0.275053       0.00787
  12     297.5        6.1275        2.6831        3.6983        6.3814       0.253866       0.00628
  11     328.5        6.0692        2.8653        3.4377        6.3030       0.233782       0.00546
  10     361.9        6.0105        3.0475        3.1779        6.2253       0.214854       0.00479
   9     398.1        5.9517        3.2290        2.9197        6.1487       0.197080       0.00414
   8     437.6        5.8935        3.4081        2.6655        6.0736       0.180095       0.00363
   7     480.5        5.8362        3.5837        2.4166        6.0003       0.164113       0.00314
   6     533.0        5.7725        3.7783        2.1410        5.9193       0.146844       0.00278
   5     589.8        5.7116        3.9643        1.8775        5.8418       0.130270       0.00246
   4     651.6        5.6542        4.1397        1.6287        5.7684       0.114184       0.00220
   3     718.7        5.6010        4.3031        1.3965        5.6995       0.098541       0.00197
   2     792.3        5.5524        4.4532        1.1825        5.6357       0.083327       0.00174
   1     891.5        5.4987        4.6210        0.9424        5.5634       0.064658       0.00159
   0    1013.0        5.4495        4.7793        0.7143        5.4937       0.044169       0.00142



 Wavenumbers: 38000. - 50000. cm-1, ATM      1
 LEVEL PRESSURE   UPWARD FLUX   DIFDOWN FLUX  DIRDOWN FLUX  DOWNWARD FLUX   NET FLUX    HEATING RATE
          mb          W/m2          W/m2          W/m2        W/m2          W/m2       degree/day
  51    .06700        0.0055        0.0000        0.9670        0.9670       0.961557       0.00000
  50    .07753        0.0054        0.0001        0.9646        0.9646       0.959223       1.87018
  49    .09103        0.0053        0.0002        0.9611        0.9612       0.955897       2.07920
  48    0.1069        0.0053        0.0002        0.9565        0.9568       0.951530       2.32416
  47    0.1255        0.0052        0.0004        0.9506        0.9510       0.945800       2.59773
  46    0.1487        0.0051        0.0005        0.9421        0.9426       0.937529       3.01499
  45    0.1794        0.0049        0.0007        0.9291        0.9298       0.924888       3.47021
  44    0.2165        0.0047        0.0009        0.9121        0.9129       0.908213       3.79334
  43    0.2613        0.0045        0.0011        0.8897        0.8909       0.886340       4.12290
  42    0.3336        0.0042        0.0015        0.8495        0.8510       0.846821       4.60761
  41    0.4307        0.0038        0.0019        0.7936        0.7955       0.791657       4.79631
  40    0.5894        0.0033        0.0025        0.7000        0.7025       0.699232       4.91507
  39     1.339        0.0017        0.0032        0.3266        0.3298       0.328051       4.17882
  38     1.782        0.0012        0.0028        0.2066        0.2094       0.208165       2.28244
  37     2.292        0.0009        0.0024        0.1299        0.1323       0.131391       1.27158
  36     2.964        0.0006        0.0019        0.0776        0.0795       0.078945       0.65836
  35     3.853        0.0004        0.0015        0.0436        0.0451       0.044708       0.32491
  34     5.035        0.0002        0.0011        0.0236        0.0247       0.024454       0.14469
  33     6.613        0.0001        0.0008        0.0121        0.0129       0.012725       0.06270
  32     8.786        0.0001        0.0005        0.0055        0.0060       0.005939       0.02635
  31     11.80        0.0000        0.0003        0.0020        0.0023       0.002306       0.01017
  30     15.07        0.0000        0.0002        0.0008        0.0010       0.000954       0.00349
  29     18.79        0.0000        0.0001        0.0003        0.0004       0.000393       0.00127
  28     23.16        0.0000        0.0001        0.0001        0.0002       0.000156       0.00046
  27     28.12        0.0000        0.0000        0.0000        0.0001       0.000061       0.00016
  26     33.73        0.0000        0.0000        0.0000        0.0000       0.000024       0.00005
  25     40.54        0.0000        0.0000        0.0000        0.0000       0.000009       0.00002
  24     48.69        0.0000        0.0000        0.0000        0.0000       0.000003       0.00001
  23     57.69        0.0000        0.0000        0.0000        0.0000       0.000001       0.00000
  22     68.43        0.0000        0.0000        0.0000        0.0000       0.000000       0.00000
  21     81.20        0.0000        0.0000        0.0000        0.0000       0.000000       0.00000
  20     96.49        0.0000        0.0000        0.0000        0.0000       0.000000       0.00000
  19     114.6        0.0000        0.0000        0.0000        0.0000       0.000000       0.00000
  18     136.5        0.0000        0.0000        0.0000        0.0000       0.000000       0.00000
  17     162.9        0.0000        0.0000        0.0000        0.0000       0.000000       0.00000
  16     196.4        0.0000        0.0000        0.0000        0.0000       0.000000       0.00000
  15     218.7        0.0000        0.0000        0.0000        0.0000       0.000000       0.00000
  14     243.0        0.0000        0.0000        0.0000        0.0000       0.000000       0.00000
  13     269.0        0.0000        0.0000        0.0000        0.0000       0.000000       0.00000
  12     297.5        0.0000        0.0000        0.0000        0.0000       0.000000       0.00000
  11     328.5        0.0000        0.0000        0.0000        0.0000       0.000000       0.00000
  10     361.9        0.0000        0.0000        0.0000        0.0000       0.000000       0.00000
   9     398.1        0.0000        0.0000        0.0000        0.0000       0.000000       0.00000
   8     437.6        0.0000        0.0000        0.0000        0.0000       0.000000       0.00000
   7     480.5        0.0000        0.0000        0.0000        0.0000       0.000000       0.00000
   6     533.0        0.0000        0.0000        0.0000        0.0000       0.000000       0.00000
   5     589.8        0.0000        0.0000        0.0000        0.0000       0.000000       0.00000
   4     651.6        0.0000        0.0000        0.0000        0.0000       0.000000       0.00000
   3     718.7        0.0000        0.0000        0.0000        0.0000       0.000000       0.00000
   2     792.3        0.0000        0.0000        0.0000        0.0000       0.000000       0.00000
   1     891.5        0.0000        0.0000        0.0000        0.0000       0.000000       0.00000
   0    1013.0        0.0000        0.0000        0.0000        0.0000       0.000000       0.00000



 Wavenumbers:   820. -  2600. cm-1, ATM      1
 LEVEL PRESSURE   UPWARD FLUX   DIFDOWN FLUX  DIRDOWN FLUX  DOWNWARD FLUX   NET FLUX    HEATING RATE
          mb          W/m2          W/m2          W/m2        W/m2          W/m2       degree/day
  51    .06700        0.0104        0.0000        4.5237        4.5237       4.513321       0.00000
  50    .07753        0.0104        0.0000        4.5206        4.5206       4.510243       2.46732
  49    .09103        0.0104        0.0000        4.5198        4.5198       4.509402       0.52538
  48    0.1069        0.0104        0.0000        4.5188        4.5188       4.508464       0.49932
  47    0.1255        0.0104        0.0000        4.5178        4.5178       4.507434       0.46733
  46    0.1487        0.0104        0.0000        4.5166        4.5166       4.506218       0.44308
  45    0.1794        0.0104        0.0000        4.5151        4.5151       4.504727       0.40933
  44    0.2165        0.0104        0.0000        4.5135        4.5135       4.503169       0.35433
  43    0.2613        0.0104        0.0000        4.5119        4.5119       4.501522       0.31047
  42    0.3336        0.0104        0.0000        4.5094        4.5094       4.499051       0.28817
  41    0.4307        0.0104        0.0000        4.5063        4.5063       4.495930       0.27130
  40    0.5894        0.0104        0.0000        4.5012        4.5012       4.490837       0.27086
  39     1.339        0.0104        0.0000        4.4780        4.4780       4.467622       0.26136
  38     1.782        0.0104        0.0000        4.4652        4.4652       4.454816       0.24381
  37     2.292        0.0104        0.0000        4.4510        4.4510       4.440649       0.23464
  36     2.964        0.0104        0.0000        4.4335        4.4335       4.423112       0.22015
  35     3.853        0.0104        0.0000        4.4120        4.4120       4.401614       0.20402
  34     5.035        0.0104        0.0000        4.3855        4.3855       4.375132       0.18918
  33     6.613        0.0104        0.0000        4.3526        4.3526       4.342227       0.17591
  32     8.786        0.0104        0.0000        4.3124        4.3124       4.302081       0.15591
  31     11.80        0.0104        0.0000        4.2658        4.2658       4.255418       0.13064
  30     15.07        0.0104        0.0000        4.2295        4.2295       4.219160       0.09361
  29     18.79        0.0104        0.0000        4.2012        4.2012       4.190837       0.06422
  28     23.16        0.0104        0.0000        4.1776        4.1776       4.167194       0.04572
  27     28.12        0.0104        0.0000        4.1556        4.1556       4.145254       0.03730
  26     33.73        0.0104        0.0000        4.1333        4.1333       4.122923       0.03357
  25     40.54        0.0104        0.0000        4.1076        4.1076       4.097201       0.03191
  24     48.69        0.0104        0.0000        4.0778        4.0779       4.067491       0.03074
  23     57.69        0.0104        0.0000        4.0463        4.0463       4.035986       0.02953
  22     68.43        0.0104        0.0000        4.0102        4.0102       3.999832       0.02842
  21     81.20        0.0104        0.0000        3.9694        3.9694       3.959075       0.02693
  20     96.49        0.0104        0.0000        3.9236        3.9236       3.913217       0.02531
  19     114.6        0.0104        0.0000        3.8721        3.8721       3.861714       0.02405
  18     136.5        0.0104        0.0000        3.8152        3.8152       3.804843       0.02187
  17     162.9        0.0104        0.0000        3.7475        3.7476       3.737211       0.02162
  16     196.4        0.0104        0.0000        3.6515        3.6515       3.641193       0.02417
  15     218.7        0.0104        0.0000        3.5705        3.5706       3.560212       0.03075
  14     243.0        0.0104        0.0000        3.4627        3.4627       3.452344       0.03741
  13     269.0        0.0104        0.0000        3.3375        3.3376       3.327216       0.04059
  12     297.5        0.0104        0.0000        3.1806        3.1806       3.170246       0.04656
  11     328.5        0.0104        0.0000        2.9947        2.9947       2.984329       0.05055
  10     361.9        0.0104        0.0000        2.7887        2.7887       2.778324       0.05212
   9     398.1        0.0104        0.0000        2.5918        2.5919       2.581466       0.04586
   8     437.6        0.0104        0.0000        2.4308        2.4309       2.420470       0.03442
   7     480.5        0.0104        0.0000        2.3163        2.3163       2.305897       0.02250
   6     533.0        0.0105        0.0000        2.2084        2.2084       2.197932       0.01737
   5     589.8        0.0105        0.0000        2.0884        2.0884       2.077887       0.01782
   4     651.6        0.0106        0.0000        1.9385        1.9386       1.927910       0.02051
   3     718.7        0.0108        0.0000        1.7754        1.7754       1.764604       0.02052
   2     792.3        0.0112        0.0000        1.6023        1.6023       1.591103       0.01990
   1     891.5        0.0122        0.0000        1.3516        1.3517       1.339485       0.02141
   0    1013.0        0.0146        0.0000        1.0105        1.0106       0.996007       0.02385

  Modules and versions used in this calculation:

       rrtmg_sw.1col.f90:  $Revision$                    rrtmg_sw_init.f90:  $Revision$        
     rrtmgsw_cldprop.f90:  $Revision$                  rrtmgsw_cldprmc.f90:  NOT USED          
     rrtmg_sw_reftra.f90:  $Revision$                  rrtmg_sw_spcvrt.f90:  NOT USED          
     rrtmg_sw_spcvmc.f90:  NOT USED                    rrtmgsw_setcoef.f90:  NOT USED          
     rrtmg_sw_taumol.f90:  $Revision$                  rrtmg_sw_vrtqdr.f90:  NOT USED          
                rrtatm.f:  NOT USED                             util_xxx.f:  NOT USED          
                 extra.f:  NOT USED                       rrtmg_sw_k_g.f90:  $Revision$        

