

 Wavenumbers:   820. - 50000. cm-1, ATM      1
 LEVEL PRESSURE   UPWARD FLUX   DIFDOWN FLUX  DIRDOWN FLUX  DOWNWARD FLUX   NET FLUX    HEATING RATE
          mb          W/m2          W/m2          W/m2        W/m2          W/m2       degree/day
  51    .06700      850.1521        0.0000     1340.1748     1340.1748     490.022675       0.00000
  50    .07753      850.1524        0.0019     1340.1530     1340.1549     490.002488      16.18026
  49    .09103      850.1528        0.0042     1340.1336     1340.1378     489.984996      10.93330
  48    0.1069      850.1533        0.0069     1340.1118     1340.1187     489.965434      10.41301
  47    0.1255      850.1540        0.0100     1340.0859     1340.0959     489.941887      10.67495
  46    0.1487      850.1550        0.0139     1340.0508     1340.0647     489.909730      11.72159
  45    0.1794      850.1565        0.0192     1339.9994     1340.0187     489.862129      13.06748
  44    0.2165      850.1586        0.0255     1339.9334     1339.9590     489.800352      14.05325
  43    0.2613      850.1614        0.0330     1339.8481     1339.8811     489.719664      15.20941
  42    0.3336      850.1667        0.0453     1339.6936     1339.7389     489.572202      17.19257
  41    0.4307      850.1747        0.0615     1339.4722     1339.5338     489.359073      18.53113
  40    0.5894      850.1898        0.0879     1339.0754     1339.1633     488.973471      20.50579
  39     1.339      850.3002        0.2091     1336.7083     1336.9174     486.617231      26.52698
  38     1.782      850.3928        0.2781     1335.1825     1335.4606     485.067837      29.49797
  37     2.292      850.5254        0.3568     1333.4810     1333.8378     483.312384      29.07487
  36     2.964      850.7384        0.4593     1331.5040     1331.9633     481.224927      26.20390
  35     3.853      851.0743        0.5940     1329.3834     1329.9773     478.903010      22.03541
  34     5.035      851.5744        0.7723     1327.2141     1327.9863     476.411920      17.79532
  33     6.613      852.2710        1.0098     1324.9913     1326.0011     473.730121      14.33690
  32     8.786      853.1839        1.3293     1322.6921     1324.0214     470.837503      11.23388
  31     11.80      854.3899        1.7854     1320.1561     1321.9415     467.551612       9.19946
  30     15.07      855.5690        2.2743     1317.9530     1320.2273     464.658356       7.46982
  29     18.79      856.7976        2.8256     1315.8221     1318.6478     461.850147       6.36707
  28     23.16      858.1139        3.4688     1313.6539     1317.1227     459.008753       5.49434
  27     28.12      859.4796        4.2036     1311.4736     1315.6772     456.197549       4.77886
  26     33.73      860.8010        5.0263     1309.3560     1314.3822     453.581192       3.93376
  25     40.54      862.1539        6.0207     1307.1183     1313.1391     450.985158       3.22067
  24     48.69      863.5478        7.2199     1304.7171     1311.9369     448.389178       2.68643
  23     57.69      864.8462        8.5373     1302.3394     1310.8767     446.030532       2.21088
  22     68.43      866.1366       10.1065     1299.7648     1309.8714     443.734764       1.80478
  21     81.20      867.3120       11.9786     1297.0115     1308.9900     441.678068       1.35903
  20     96.49      868.3703       14.2104     1294.0106     1308.2210     439.850628       1.00862
  19     114.6      869.4778       16.8559     1290.5867     1307.4426     437.964746       0.88057
  18     136.5      870.6661       19.9786     1286.6496     1306.6282     435.962109       0.77006
  17     162.9      871.9670       23.6793     1282.0191     1305.6984     433.731407       0.71302
  16     196.4      873.3988       28.4555     1275.9576     1304.4130     431.014221       0.68395
  15     218.7      874.2441       31.5755     1271.4824     1303.0578     428.813703       0.83545
  14     243.0      875.1197       34.9508     1265.8861     1300.8368     425.717100       1.07400
  13     269.0      876.0250       38.5901     1258.7999     1297.3900     421.365068       1.41178
  12     297.5      876.9653       42.5017     1249.9386     1292.4402     415.474979       1.74694
  11     328.5      877.9688       46.7026     1240.0725     1286.7751     408.806390       1.81317
  10     361.9      879.0428       51.1962     1229.4079     1280.6041     401.561218       1.83310
   9     398.1      880.2032       55.9988     1217.7013     1273.7001     393.496828       1.87882
   8     437.6      881.4767       61.1176     1204.5502     1265.6678     384.191143       1.98961
   7     480.5      882.8873       66.5614     1189.9975     1256.5590     373.671642       2.06599
   6     533.0      884.7271       73.2025     1171.6763     1244.8788     360.151701       2.17493
   5     589.8      886.9251       80.2892     1151.3349     1231.6241     344.699022       2.29368
   4     651.6      889.7629       87.8243     1127.8552     1215.6795     325.916653       2.56854
   3     718.7      893.5603       95.8112     1101.9726     1197.7838     304.223525       2.72623
   2     792.3      899.0877      104.2406     1073.5270     1177.7676     278.679893       2.92957
   1     891.5      910.5808      115.4114     1035.1788     1150.5902     240.009454       3.29067
   0    1013.0      936.4283      128.5220      990.7218     1119.2438     182.815446       3.97127



 Wavenumbers:  2600. -  3250. cm-1, ATM      1
 LEVEL PRESSURE   UPWARD FLUX   DIFDOWN FLUX  DIRDOWN FLUX  DOWNWARD FLUX   NET FLUX    HEATING RATE
          mb          W/m2          W/m2          W/m2        W/m2          W/m2       degree/day
  51    .06700        0.0129        0.0000       11.8115       11.8115      11.798627       0.00000
  50    .07753        0.0129        0.0000       11.8115       11.8115      11.798619       0.00640
  49    .09103        0.0129        0.0000       11.8115       11.8115      11.798608       0.00627
  48    0.1069        0.0129        0.0000       11.8115       11.8115      11.798597       0.00613
  47    0.1255        0.0129        0.0000       11.8115       11.8115      11.798584       0.00600
  46    0.1487        0.0129        0.0000       11.8114       11.8114      11.798567       0.00608
  45    0.1794        0.0129        0.0000       11.8114       11.8114      11.798544       0.00625
  44    0.2165        0.0129        0.0000       11.8114       11.8114      11.798517       0.00613
  43    0.2613        0.0129        0.0000       11.8114       11.8114      11.798485       0.00601
  42    0.3336        0.0129        0.0000       11.8113       11.8113      11.798432       0.00618
  41    0.4307        0.0129        0.0000       11.8112       11.8112      11.798361       0.00622
  40    0.5894        0.0129        0.0000       11.8111       11.8111      11.798240       0.00640
  39     1.339        0.0129        0.0000       11.8104       11.8104      11.797524       0.00806
  38     1.782        0.0129        0.0000       11.8098       11.8098      11.796969       0.01057
  37     2.292        0.0129        0.0000       11.8091       11.8091      11.796229       0.01225
  36     2.964        0.0129        0.0000       11.8080       11.8080      11.795140       0.01367
  35     3.853        0.0129        0.0000       11.8064       11.8064      11.793557       0.01502
  34     5.035        0.0129        0.0000       11.8042       11.8042      11.791287       0.01622
  33     6.613        0.0129        0.0000       11.8010       11.8010      11.788077       0.01716
  32     8.786        0.0129        0.0000       11.7965       11.7965      11.783597       0.01740
  31     11.80        0.0129        0.0000       11.7900       11.7900      11.777157       0.01803
  30     15.07        0.0129        0.0000       11.7833       11.7833      11.770390       0.01747
  29     18.79        0.0129        0.0000       11.7760       11.7760      11.763158       0.01640
  28     23.16        0.0129        0.0000       11.7682       11.7682      11.755305       0.01519
  27     28.12        0.0129        0.0000       11.7599       11.7599      11.747055       0.01402
  26     33.73        0.0129        0.0000       11.7510       11.7511      11.738192       0.01333
  25     40.54        0.0129        0.0000       11.7405       11.7405      11.727611       0.01313
  24     48.69        0.0129        0.0000       11.7277       11.7278      11.714895       0.01316
  23     57.69        0.0129        0.0000       11.7134       11.7135      11.700604       0.01340
  22     68.43        0.0129        0.0000       11.6956       11.6956      11.682783       0.01401
  21     81.20        0.0129        0.0000       11.6730       11.6730      11.660191       0.01493
  20     96.49        0.0128        0.0000       11.6443       11.6444      11.631533       0.01582
  19     114.6        0.0128        0.0000       11.6074       11.6075      11.594644       0.01722
  18     136.5        0.0128        0.0000       11.5620       11.5620      11.549171       0.01749
  17     162.9        0.0128        0.0001       11.5062       11.5063      11.493461       0.01781
  16     196.4        0.0128        0.0001       11.4326       11.4327      11.419867       0.01852
  15     218.7        0.0128        0.0001       11.3805       11.3806      11.367779       0.01978
  14     243.0        0.0128        0.0001       11.3162       11.3163      11.303497       0.02230
  13     269.0        0.0128        0.0001       11.2343       11.2344      11.221624       0.02656
  12     297.5        0.0128        0.0001       11.1325       11.1326      11.119821       0.03019
  11     328.5        0.0128        0.0001       11.0171       11.0172      11.004345       0.03140
  10     361.9        0.0128        0.0001       10.8885       10.8886      10.875799       0.03252
   9     398.1        0.0128        0.0001       10.7418       10.7419      10.729076       0.03418
   8     437.6        0.0129        0.0001       10.5669       10.5670      10.554147       0.03740
   7     480.5        0.0129        0.0001       10.3526       10.3528      10.339856       0.04209
   6     533.0        0.0130        0.0002       10.0456       10.0458      10.032770       0.04940
   5     589.8        0.0131        0.0002        9.6489        9.6491       9.635965       0.05890
   4     651.6        0.0133        0.0002        9.1379        9.1380       9.124745       0.06991
   3     718.7        0.0136        0.0002        8.5523        8.5525       8.538866       0.07363
   2     792.3        0.0141        0.0002        7.9060        7.9062       7.892030       0.07418
   1     891.5        0.0154        0.0002        7.0277        7.0279       7.012405       0.07485
   0    1013.0        0.0192        0.0002        5.9894        5.9895       5.970371       0.07235



 Wavenumbers:  3250. -  4000. cm-1, ATM      1
 LEVEL PRESSURE   UPWARD FLUX   DIFDOWN FLUX  DIRDOWN FLUX  DOWNWARD FLUX   NET FLUX    HEATING RATE
          mb          W/m2          W/m2          W/m2        W/m2          W/m2       degree/day
  51    .06700        0.0005        0.0000       19.9125       19.9125      19.911954       0.00000
  50    .07753        0.0005        0.0000       19.9068       19.9068      19.906296       4.53473
  49    .09103        0.0005        0.0000       19.9016       19.9016      19.901098       3.24924
  48    0.1069        0.0005        0.0000       19.8972       19.8972      19.896714       2.33328
  47    0.1255        0.0005        0.0000       19.8934       19.8934      19.892872       1.74195
  46    0.1487        0.0005        0.0000       19.8895       19.8895      19.888993       1.41380
  45    0.1794        0.0005        0.0000       19.8851       19.8851      19.884590       1.20870
  44    0.2165        0.0005        0.0000       19.8806       19.8806      19.880061       1.03032
  43    0.2613        0.0005        0.0000       19.8758       19.8758      19.875263       0.90447
  42    0.3336        0.0005        0.0000       19.8688       19.8688      19.868304       0.81131
  41    0.4307        0.0005        0.0000       19.8610       19.8610      19.860491       0.67935
  40    0.5894        0.0005        0.0000       19.8504       19.8504      19.849894       0.56353
  39     1.339        0.0005        0.0000       19.8131       19.8131      19.812617       0.41967
  38     1.782        0.0005        0.0000       19.7954       19.7954      19.794913       0.33706
  37     2.292        0.0005        0.0000       19.7775       19.7775      19.777012       0.29649
  36     2.964        0.0005        0.0000       19.7569       19.7570      19.756438       0.25827
  35     3.853        0.0005        0.0000       19.7330       19.7330      19.732472       0.22744
  34     5.035        0.0005        0.0000       19.7044       19.7044      19.703914       0.20400
  33     6.613        0.0005        0.0000       19.6692       19.6692      19.668670       0.18842
  32     8.786        0.0005        0.0000       19.6231       19.6231      19.622603       0.17890
  31     11.80        0.0005        0.0000       19.5564       19.5564      19.555932       0.18666
  30     15.07        0.0005        0.0000       19.4822       19.4822      19.481694       0.19167
  29     18.79        0.0005        0.0000       19.3948       19.3948      19.394319       0.19811
  28     23.16        0.0005        0.0000       19.2895       19.2895      19.289042       0.20357
  27     28.12        0.0005        0.0000       19.1670       19.1670      19.166555       0.20822
  26     33.73        0.0005        0.0000       19.0307       19.0307      19.030276       0.20490
  25     40.54        0.0005        0.0001       18.8705       18.8706      18.870137       0.19867
  24     48.69        0.0005        0.0001       18.6895       18.6896      18.689108       0.18734
  23     57.69        0.0004        0.0001       18.5075       18.5075      18.507093       0.17061
  22     68.43        0.0004        0.0001       18.3116       18.3117      18.311277       0.15394
  21     81.20        0.0004        0.0001       18.0999       18.1000      18.099581       0.13989
  20     96.49        0.0004        0.0001       17.8650       17.8651      17.864710       0.12963
  19     114.6        0.0004        0.0001       17.5863       17.5865      17.586115       0.13008
  18     136.5        0.0003        0.0002       17.2635       17.2637      17.263322       0.12412
  17     162.9        0.0003        0.0002       16.8693       16.8695      16.869167       0.12599
  16     196.4        0.0003        0.0002       16.2930       16.2932      16.292930       0.14505
  15     218.7        0.0003        0.0002       15.7567       15.7570      15.756711       0.20358
  14     243.0        0.0002        0.0003       15.0067       15.0070      15.006735       0.26012
  13     269.0        0.0002        0.0003       14.0036       14.0039      14.003670       0.32539
  12     297.5        0.0002        0.0003       12.8046       12.8048      12.804622       0.35562
  11     328.5        0.0002        0.0003       11.6142       11.6145      11.614293       0.32365
  10     361.9        0.0001        0.0002       10.4576       10.4578      10.457663       0.29264
   9     398.1        0.0001        0.0002        9.2997        9.2999       9.299782       0.26976
   8     437.6        0.0001        0.0002        8.1569        8.1571       8.157025       0.24433
   7     480.5        0.0001        0.0002        7.1093        7.1096       7.109463       0.20574
   6     533.0        0.0001        0.0002        6.0043        6.0044       6.004375       0.17777
   5     589.8        0.0001        0.0002        4.9513        4.9514       4.951385       0.15630
   4     651.6        0.0001        0.0001        3.8841        3.8843       3.884212       0.14594
   3     718.7        0.0001        0.0001        2.8657        2.8658       2.865712       0.12800
   2     792.3        0.0001        0.0001        1.9068        1.9069       1.906832       0.10997
   1     891.5        0.0002        0.0000        0.9584        0.9584       0.958173       0.08073
   0    1013.0        0.0020        0.0000        0.2963        0.2963       0.294248       0.04610



 Wavenumbers:  4000. -  4650. cm-1, ATM      1
 LEVEL PRESSURE   UPWARD FLUX   DIFDOWN FLUX  DIRDOWN FLUX  DOWNWARD FLUX   NET FLUX    HEATING RATE
          mb          W/m2          W/m2          W/m2        W/m2          W/m2       degree/day
  51    .06700        1.1676        0.0000       23.3833       23.3833      22.215700       0.00000
  50    .07753        1.1676        0.0000       23.3833       23.3833      22.215699       0.00080
  49    .09103        1.1676        0.0000       23.3833       23.3833      22.215698       0.00078
  48    0.1069        1.1676        0.0000       23.3833       23.3833      22.215696       0.00076
  47    0.1255        1.1676        0.0000       23.3833       23.3833      22.215694       0.00075
  46    0.1487        1.1676        0.0000       23.3833       23.3833      22.215692       0.00076
  45    0.1794        1.1676        0.0000       23.3832       23.3832      22.215690       0.00078
  44    0.2165        1.1676        0.0000       23.3832       23.3832      22.215686       0.00076
  43    0.2613        1.1676        0.0000       23.3832       23.3832      22.215682       0.00075
  42    0.3336        1.1676        0.0000       23.3832       23.3832      22.215676       0.00077
  41    0.4307        1.1676        0.0000       23.3832       23.3832      22.215667       0.00077
  40    0.5894        1.1676        0.0000       23.3832       23.3832      22.215652       0.00080
  39     1.339        1.1676        0.0000       23.3831       23.3831      22.215562       0.00101
  38     1.782        1.1676        0.0000       23.3830       23.3830      22.215493       0.00133
  37     2.292        1.1676        0.0000       23.3829       23.3830      22.215399       0.00156
  36     2.964        1.1675        0.0000       23.3828       23.3828      22.215258       0.00176
  35     3.853        1.1675        0.0000       23.3826       23.3826      22.215050       0.00198
  34     5.035        1.1675        0.0000       23.3823       23.3823      22.214743       0.00219
  33     6.613        1.1675        0.0000       23.3818       23.3818      22.214290       0.00242
  32     8.786        1.1675        0.0000       23.3811       23.3812      22.213622       0.00260
  31     11.80        1.1675        0.0000       23.3800       23.3801      22.212569       0.00295
  30     15.07        1.1675        0.0001       23.3788       23.3788      22.211332       0.00319
  29     18.79        1.1675        0.0001       23.3773       23.3773      22.209831       0.00340
  28     23.16        1.1675        0.0001       23.3754       23.3755      22.207963       0.00361
  27     28.12        1.1675        0.0001       23.3731       23.3732      22.205693       0.00386
  26     33.73        1.1675        0.0001       23.3702       23.3703      22.202884       0.00422
  25     40.54        1.1674        0.0002       23.3663       23.3665      22.199055       0.00475
  24     48.69        1.1674        0.0002       23.3612       23.3614      22.193924       0.00531
  23     57.69        1.1674        0.0002       23.3550       23.3552      22.187804       0.00574
  22     68.43        1.1674        0.0003       23.3472       23.3475      22.180088       0.00607
  21     81.20        1.1674        0.0003       23.3376       23.3379      22.170518       0.00632
  20     96.49        1.1674        0.0004       23.3258       23.3262      22.158801       0.00647
  19     114.6        1.1674        0.0004       23.3110       23.3114      22.144062       0.00688
  18     136.5        1.1674        0.0005       23.2931       23.2936      22.126199       0.00687
  17     162.9        1.1674        0.0006       23.2710       23.2717      22.104214       0.00703
  16     196.4        1.1676        0.0007       23.2406       23.2413      22.073782       0.00766
  15     218.7        1.1677        0.0008       23.2171       23.2179      22.050260       0.00893
  14     243.0        1.1679        0.0009       23.1851       23.1860      22.018116       0.01115
  13     269.0        1.1683        0.0010       23.1392       23.1402      21.971907       0.01499
  12     297.5        1.1688        0.0011       23.0751       23.0762      21.907366       0.01914
  11     328.5        1.1696        0.0012       22.9959       22.9972      21.827516       0.02171
  10     361.9        1.1707        0.0013       22.8980       22.8994      21.728630       0.02502
   9     398.1        1.1721        0.0014       22.7711       22.7725      21.600450       0.02986
   8     437.6        1.1738        0.0016       22.6006       22.6022      21.428409       0.03678
   7     480.5        1.1760        0.0017       22.3801       22.3818      21.205826       0.04371
   6     533.0        1.1793        0.0019       22.0646       22.0665      20.887178       0.05126
   5     589.8        1.1839        0.0020       21.6831       21.6851      20.501169       0.05730
   4     651.6        1.1912        0.0022       21.2207       21.2229      20.031719       0.06420
   3     718.7        1.2027        0.0023       20.6764       20.6787      19.476023       0.06984
   2     792.3        1.2220        0.0024       19.9629       19.9653      18.743336       0.08403
   1     891.5        1.2683        0.0026       18.7836       18.7862      17.517890       0.10428
   0    1013.0        1.3955        0.0027       17.3304       17.3331      15.937568       0.10973



 Wavenumbers:  4650. -  5150. cm-1, ATM      1
 LEVEL PRESSURE   UPWARD FLUX   DIFDOWN FLUX  DIRDOWN FLUX  DOWNWARD FLUX   NET FLUX    HEATING RATE
          mb          W/m2          W/m2          W/m2        W/m2          W/m2       degree/day
  51    .06700        0.2038        0.0000       22.1334       22.1334      21.929584       0.00000
  50    .07753        0.2038        0.0000       22.1331       22.1331      21.929348       0.18924
  49    .09103        0.2038        0.0000       22.1328       22.1328      21.929052       0.18503
  48    0.1069        0.2038        0.0000       22.1325       22.1325      21.928712       0.18063
  47    0.1255        0.2038        0.0000       22.1321       22.1321      21.928324       0.17620
  46    0.1487        0.2038        0.0000       22.1316       22.1316      21.927835       0.17810
  45    0.1794        0.2038        0.0000       22.1309       22.1309      21.927171       0.18236
  44    0.2165        0.2038        0.0000       22.1302       22.1302      21.926389       0.17778
  43    0.2613        0.2038        0.0000       22.1292       22.1292      21.925471       0.17320
  42    0.3336        0.2038        0.0000       22.1277       22.1277      21.923966       0.17542
  41    0.4307        0.2038        0.0000       22.1258       22.1258      21.922000       0.17097
  40    0.5894        0.2038        0.0000       22.1226       22.1226      21.918857       0.16711
  39     1.339        0.2038        0.0000       22.1088       22.1088      21.905075       0.15516
  38     1.782        0.2038        0.0000       22.1015       22.1015      21.897741       0.13963
  37     2.292        0.2038        0.0000       22.0936       22.0936      21.889889       0.13005
  36     2.964        0.2038        0.0000       22.0843       22.0843      21.880518       0.11763
  35     3.853        0.2037        0.0000       22.0733       22.0733      21.869578       0.10382
  34     5.035        0.2037        0.0000       22.0609       22.0609      21.857143       0.08883
  33     6.613        0.2037        0.0000       22.0471       22.0472      21.843450       0.07320
  32     8.786        0.2037        0.0000       22.0324       22.0324      21.828706       0.05726
  31     11.80        0.2037        0.0001       22.0158       22.0159      21.812155       0.04634
  30     15.07        0.2037        0.0001       22.0010       22.0011      21.797430       0.03802
  29     18.79        0.2037        0.0001       21.9858       21.9859      21.782217       0.03449
  28     23.16        0.2037        0.0001       21.9682       21.9683      21.764628       0.03401
  27     28.12        0.2036        0.0002       21.9471       21.9472      21.743603       0.03574
  26     33.73        0.2036        0.0002       21.9218       21.9220      21.718375       0.03793
  25     40.54        0.2036        0.0002       21.8887       21.8889      21.685327       0.04100
  24     48.69        0.2035        0.0003       21.8454       21.8457      21.642163       0.04467
  23     57.69        0.2035        0.0003       21.7944       21.7947      21.591230       0.04774
  22     68.43        0.2035        0.0004       21.7300       21.7303      21.526862       0.05060
  21     81.20        0.2034        0.0004       21.6494       21.6498      21.446393       0.05317
  20     96.49        0.2034        0.0005       21.5509       21.5514      21.348027       0.05429
  19     114.6        0.2033        0.0006       21.4327       21.4333      21.229992       0.05511
  18     136.5        0.2033        0.0007       21.2948       21.2955      21.092203       0.05298
  17     162.9        0.2033        0.0009       21.1367       21.1375      20.934243       0.05049
  16     196.4        0.2032        0.0010       20.9445       20.9455      20.742248       0.04833
  15     218.7        0.2032        0.0011       20.8254       20.8265      20.623249       0.04518
  14     243.0        0.2032        0.0012       20.6998       20.7010      20.497752       0.04353
  13     269.0        0.2033        0.0014       20.5648       20.5662      20.362865       0.04376
  12     297.5        0.2034        0.0015       20.4151       20.4166      20.213130       0.04441
  11     328.5        0.2036        0.0016       20.2500       20.2516      20.048001       0.04490
  10     361.9        0.2039        0.0018       20.0657       20.0675      19.863646       0.04664
   9     398.1        0.2043        0.0019       19.8558       19.8577      19.653441       0.04897
   8     437.6        0.2048        0.0021       19.6126       19.6147      19.409859       0.05208
   7     480.5        0.2055        0.0022       19.3282       19.3304      19.124884       0.05597
   6     533.0        0.2067        0.0024       18.9427       18.9451      18.738396       0.06217
   5     589.8        0.2084        0.0026       18.4743       18.4769      18.268561       0.06974
   4     651.6        0.2109        0.0027       17.8878       17.8905      17.679629       0.08054
   3     718.7        0.2148        0.0029       17.1787       17.1815      16.966739       0.08959
   2     792.3        0.2209        0.0030       16.3506       16.3536      16.132637       0.09566
   1     891.5        0.2343        0.0031       15.2012       15.2043      14.969965       0.09894
   0    1013.0        0.2647        0.0031       13.9232       13.9263      13.661633       0.09084



 Wavenumbers:  5150. -  6150. cm-1, ATM      1
 LEVEL PRESSURE   UPWARD FLUX   DIFDOWN FLUX  DIRDOWN FLUX  DOWNWARD FLUX   NET FLUX    HEATING RATE
          mb          W/m2          W/m2          W/m2        W/m2          W/m2       degree/day
  51    .06700        2.7766        0.0000       55.4884       55.4884      52.711760       0.00000
  50    .07753        2.7766        0.0000       55.4884       55.4884      52.711721       0.03157
  49    .09103        2.7766        0.0000       55.4883       55.4883      52.711669       0.03206
  48    0.1069        2.7766        0.0000       55.4882       55.4882      52.711608       0.03257
  47    0.1255        2.7766        0.0000       55.4882       55.4882      52.711535       0.03308
  46    0.1487        2.7766        0.0000       55.4881       55.4881      52.711440       0.03485
  45    0.1794        2.7766        0.0000       55.4879       55.4879      52.711304       0.03711
  44    0.2165        2.7766        0.0000       55.4878       55.4878      52.711139       0.03768
  43    0.2613        2.7766        0.0000       55.4876       55.4876      52.710936       0.03827
  42    0.3336        2.7766        0.0000       55.4872       55.4872      52.710589       0.04046
  41    0.4307        2.7766        0.0000       55.4867       55.4867      52.710117       0.04104
  40    0.5894        2.7766        0.0000       55.4859       55.4860      52.709325       0.04210
  39     1.339        2.7766        0.0000       55.4821       55.4821      52.705494       0.04313
  38     1.782        2.7766        0.0000       55.4798       55.4799      52.703250       0.04271
  37     2.292        2.7766        0.0001       55.4772       55.4773      52.700700       0.04224
  36     2.964        2.7766        0.0001       55.4739       55.4740      52.697442       0.04090
  35     3.853        2.7766        0.0001       55.4697       55.4698      52.693271       0.03958
  34     5.035        2.7765        0.0001       55.4643       55.4644      52.687851       0.03872
  33     6.613        2.7765        0.0002       55.4571       55.4572      52.680735       0.03804
  32     8.786        2.7765        0.0002       55.4476       55.4478      52.671367       0.03638
  31     11.80        2.7764        0.0003       55.4345       55.4349      52.658425       0.03623
  30     15.07        2.7764        0.0004       55.4211       55.4215      52.645123       0.03434
  29     18.79        2.7763        0.0005       55.4067       55.4072      52.630859       0.03234
  28     23.16        2.7762        0.0006       55.3907       55.3913      52.615059       0.03055
  27     28.12        2.7762        0.0007       55.3734       55.3741      52.597941       0.02910
  26     33.73        2.7761        0.0009       55.3553       55.3561      52.580048       0.02690
  25     40.54        2.7760        0.0011       55.3349       55.3360      52.559964       0.02492
  24     48.69        2.7759        0.0013       55.3125       55.3138      52.537857       0.02288
  23     57.69        2.7758        0.0015       55.2896       55.2911      52.515314       0.02113
  22     68.43        2.7757        0.0018       55.2641       55.2659      52.490223       0.01972
  21     81.20        2.7756        0.0022       55.2354       55.2375      52.461934       0.01869
  20     96.49        2.7755        0.0026       55.2022       55.2048      52.429276       0.01802
  19     114.6        2.7753        0.0030       55.1634       55.1665      52.391123       0.01781
  18     136.5        2.7752        0.0036       55.1174       55.1210      52.345801       0.01743
  17     162.9        2.7750        0.0043       55.0473       55.0516      52.276597       0.02212
  16     196.4        2.7748        0.0051       54.8953       54.9005      52.125685       0.03799
  15     218.7        2.7746        0.0057       54.6739       54.6796      51.904961       0.08380
  14     243.0        2.7746        0.0063       54.2714       54.2777      51.503150       0.13936
  13     269.0        2.7745        0.0068       53.5479       53.5547      50.780146       0.23454
  12     297.5        2.7746        0.0073       52.4162       52.4236      49.648959       0.33550
  11     328.5        2.7748        0.0079       51.1632       51.1711      48.396231       0.34061
  10     361.9        2.7752        0.0084       49.8630       49.8715      47.096250       0.32891
   9     398.1        2.7758        0.0089       48.3937       48.4027      45.626827       0.34234
   8     437.6        2.7768        0.0094       46.6385       46.6479      43.871114       0.37538
   7     480.5        2.7783        0.0099       44.6919       44.7018      41.923530       0.38250
   6     533.0        2.7809        0.0104       42.3319       42.3423      39.561381       0.37999
   5     589.8        2.7852        0.0108       39.8542       39.8650      37.079828       0.36834
   4     651.6        2.7933        0.0113       37.2456       37.2568      34.463559       0.35778
   3     718.7        2.8079        0.0118       34.8703       34.8820      32.074149       0.30028
   2     792.3        2.8358        0.0124       32.8466       32.8589      30.023127       0.23523
   1     891.5        2.9126        0.0131       30.8261       30.8393      27.926657       0.17840
   0    1013.0        3.1604        0.0139       28.7867       28.8005      25.640168       0.15876



 Wavenumbers:  6150. -  7700. cm-1, ATM      1
 LEVEL PRESSURE   UPWARD FLUX   DIFDOWN FLUX  DIRDOWN FLUX  DOWNWARD FLUX   NET FLUX    HEATING RATE
          mb          W/m2          W/m2          W/m2        W/m2          W/m2       degree/day
  51    .06700        6.0510        0.0000      102.6279      102.6279      96.576945       0.00000
  50    .07753        6.0510        0.0000      102.6279      102.6279      96.576888       0.04554
  49    .09103        6.0510        0.0000      102.6278      102.6278      96.576815       0.04583
  48    0.1069        6.0510        0.0000      102.6277      102.6277      96.576728       0.04615
  47    0.1255        6.0510        0.0000      102.6276      102.6276      96.576625       0.04646
  46    0.1487        6.0510        0.0000      102.6275      102.6275      96.576492       0.04854
  45    0.1794        6.0510        0.0000      102.6273      102.6273      96.576305       0.05129
  44    0.2165        6.0510        0.0000      102.6270      102.6270      96.576078       0.05171
  43    0.2613        6.0510        0.0000      102.6267      102.6268      96.575801       0.05215
  42    0.3336        6.0510        0.0000      102.6263      102.6263      96.575332       0.05478
  41    0.4307        6.0509        0.0000      102.6256      102.6256      96.574695       0.05531
  40    0.5894        6.0509        0.0001      102.6245      102.6246      96.573633       0.05648
  39     1.339        6.0509        0.0001      102.6192      102.6194      96.568514       0.05764
  38     1.782        6.0508        0.0002      102.6161      102.6163      96.565517       0.05706
  37     2.292        6.0508        0.0003      102.6126      102.6129      96.562100       0.05658
  36     2.964        6.0507        0.0003      102.6081      102.6084      96.557715       0.05505
  35     3.853        6.0506        0.0004      102.6023      102.6027      96.552068       0.05359
  34     5.035        6.0505        0.0006      102.5946      102.5952      96.544700       0.05264
  33     6.613        6.0504        0.0007      102.5846      102.5853      96.534991       0.05190
  32     8.786        6.0502        0.0010      102.5713      102.5723      96.522142       0.04990
  31     11.80        6.0499        0.0013      102.5528      102.5541      96.504239       0.05012
  30     15.07        6.0496        0.0017      102.5335      102.5352      96.485636       0.04803
  29     18.79        6.0492        0.0021      102.5125      102.5146      96.465417       0.04584
  28     23.16        6.0488        0.0026      102.4889      102.4915      96.442703       0.04392
  27     28.12        6.0483        0.0032      102.4628      102.4660      96.417724       0.04246
  26     33.73        6.0478        0.0038      102.4351      102.4390      96.391163       0.03994
  25     40.54        6.0472        0.0046      102.4034      102.4080      96.360821       0.03764
  24     48.69        6.0464        0.0055      102.3675      102.3731      96.326689       0.03532
  23     57.69        6.0455        0.0065      102.3303      102.3368      96.291256       0.03321
  22     68.43        6.0445        0.0078      102.2879      102.2957      96.251149       0.03153
  21     81.20        6.0433        0.0092      102.2394      102.2486      96.205278       0.03031
  20     96.49        6.0419        0.0109      102.1829      102.1938      96.151901       0.02946
  19     114.6        6.0402        0.0130      102.1161      102.1291      96.088937       0.02940
  18     136.5        6.0381        0.0154      102.0364      102.0518      96.013701       0.02893
  17     162.9        6.0357        0.0183      101.9206      101.9389      95.903162       0.03533
  16     196.4        6.0326        0.0220      101.6802      101.7022      95.669578       0.05880
  15     218.7        6.0307        0.0244      101.3327      101.3572      95.326486       0.13026
  14     243.0        6.0286        0.0269      100.7015      100.7284      94.699775       0.21736
  13     269.0        6.0266        0.0294       99.6993       99.7287      93.702148       0.32363
  12     297.5        6.0248        0.0318       98.1129       98.1447      92.119971       0.46926
  11     328.5        6.0232        0.0343       96.0685       96.1028      90.079564       0.55478
  10     361.9        6.0221        0.0368       93.7314       93.7681      87.746030       0.59041
   9     398.1        6.0217        0.0392       91.1670       91.2061      85.184407       0.59680
   8     437.6        6.0226        0.0414       88.2442       88.2855      82.262902       0.62464
   7     480.5        6.0254        0.0434       84.8933       84.9367      78.911349       0.65823
   6     533.0        6.0322        0.0456       80.5963       80.6419      74.609742       0.69199
   5     589.8        6.0459        0.0474       75.8736       75.9210      69.875112       0.70277
   4     651.6        6.0742        0.0487       70.5311       70.5798      64.505594       0.73430
   3     718.7        6.1281        0.0497       65.0637       65.1134      58.985294       0.69375
   2     792.3        6.2324        0.0504       59.6309       59.6813      53.448901       0.63496
   1     891.5        6.5154        0.0511       53.2615       53.3126      46.797144       0.56603
   0    1013.0        7.4258        0.0519       47.1298       47.1818      39.755992       0.48890



 Wavenumbers:  7700. -  8050. cm-1, ATM      1
 LEVEL PRESSURE   UPWARD FLUX   DIFDOWN FLUX  DIRDOWN FLUX  DOWNWARD FLUX   NET FLUX    HEATING RATE
          mb          W/m2          W/m2          W/m2        W/m2          W/m2       degree/day
  51    .06700       10.2150        0.0000       24.2540       24.2540      14.038980       0.00000
  50    .07753       10.2151        0.0000       24.2540       24.2540      14.038955       0.02007
  49    .09103       10.2151        0.0000       24.2540       24.2540      14.038924       0.01967
  48    0.1069       10.2151        0.0000       24.2540       24.2540      14.038888       0.01925
  47    0.1255       10.2151        0.0000       24.2539       24.2539      14.038846       0.01884
  46    0.1487       10.2151        0.0000       24.2539       24.2539      14.038794       0.01912
  45    0.1794       10.2151        0.0000       24.2538       24.2538      14.038722       0.01967
  44    0.2165       10.2151        0.0000       24.2538       24.2538      14.038637       0.01930
  43    0.2613       10.2152        0.0000       24.2537       24.2537      14.038537       0.01894
  42    0.3336       10.2152        0.0000       24.2536       24.2536      14.038370       0.01938
  41    0.4307       10.2153        0.0000       24.2534       24.2534      14.038150       0.01917
  40    0.5894       10.2154        0.0000       24.2531       24.2532      14.037790       0.01915
  39     1.339       10.2159        0.0001       24.2519       24.2520      14.036086       0.01918
  38     1.782       10.2162        0.0001       24.2511       24.2512      14.035085       0.01906
  37     2.292       10.2165        0.0001       24.2503       24.2504      14.033926       0.01920
  36     2.964       10.2169        0.0002       24.2491       24.2493      14.032403       0.01911
  35     3.853       10.2175        0.0003       24.2476       24.2479      14.030391       0.01909
  34     5.035       10.2183        0.0003       24.2457       24.2460      14.027717       0.01910
  33     6.613       10.2193        0.0004       24.2430       24.2434      14.024144       0.01910
  32     8.786       10.2207        0.0006       24.2394       24.2400      14.019325       0.01871
  31     11.80       10.2227        0.0008       24.2343       24.2351      14.012427       0.01931
  30     15.07       10.2248        0.0010       24.2288       24.2298      14.005016       0.01913
  29     18.79       10.2272        0.0012       24.2226       24.2238      13.996638       0.01900
  28     23.16       10.2300        0.0015       24.2154       24.2169      13.986845       0.01894
  27     28.12       10.2333        0.0018       24.2071       24.2089      13.975639       0.01905
  26     33.73       10.2369        0.0022       24.1978       24.2000      13.963091       0.01887
  25     40.54       10.2414        0.0027       24.1866       24.1893      13.947922       0.01882
  24     48.69       10.2468        0.0032       24.1732       24.1764      13.929622       0.01894
  23     57.69       10.2527        0.0038       24.1584       24.1622      13.909509       0.01885
  22     68.43       10.2598        0.0045       24.1409       24.1453      13.885542       0.01884
  21     81.20       10.2684        0.0053       24.1200       24.1253      13.856974       0.01888
  20     96.49       10.2786        0.0063       24.0952       24.1015      13.822915       0.01880
  19     114.6       10.2910        0.0075       24.0659       24.0734      13.782457       0.01889
  18     136.5       10.3058        0.0089       24.0314       24.0402      13.734477       0.01845
  17     162.9       10.3236        0.0106       23.9904       24.0009      13.677300       0.01828
  16     196.4       10.3473        0.0127       23.9376       23.9503      13.603071       0.01868
  15     218.7       10.3630        0.0141       23.9031       23.9173      13.554237       0.01854
  14     243.0       10.3805        0.0157       23.8658       23.8815      13.501013       0.01846
  13     269.0       10.3997        0.0174       23.8254       23.8428      13.443082       0.01879
  12     297.5       10.4210        0.0192       23.7818       23.8010      13.380034       0.01870
  11     328.5       10.4445        0.0211       23.7347       23.7559      13.311333       0.01868
  10     361.9       10.4706        0.0232       23.6839       23.7072      13.236540       0.01892
   9     398.1       10.4997        0.0255       23.6290       23.6546      13.154841       0.01903
   8     437.6       10.5323        0.0280       23.5696       23.5975      13.065250       0.01916
   7     480.5       10.5689        0.0306       23.5051       23.5357      12.966782       0.01934
   6     533.0       10.6166        0.0338       23.4241       23.4580      12.841385       0.02017
   5     589.8       10.6722        0.0373       23.3339       23.3713      12.699096       0.02112
   4     651.6       10.7389        0.0411       23.2308       23.2719      12.532984       0.02272
   3     718.7       10.8208        0.0451       23.1108       23.1559      12.335148       0.02486
   2     792.3       10.9250        0.0493       22.9671       23.0164      12.091403       0.02795
   1     891.5       11.1024        0.0550       22.7417       22.7967      11.694359       0.03379
   0    1013.0       11.3897        0.0616       22.4209       22.4825      11.092776       0.04177



 Wavenumbers:  8050. - 12850. cm-1, ATM      1
 LEVEL PRESSURE   UPWARD FLUX   DIFDOWN FLUX  DIRDOWN FLUX  DOWNWARD FLUX   NET FLUX    HEATING RATE
          mb          W/m2          W/m2          W/m2        W/m2          W/m2       degree/day
  51    .06700      196.1194        0.0000      339.5744      339.5744     143.454954       0.00000
  50    .07753      196.1194        0.0000      339.5743      339.5743     143.454954       0.00000
  49    .09103      196.1194        0.0001      339.5743      339.5743     143.454954      -0.00000
  48    0.1069      196.1194        0.0002      339.5742      339.5743     143.454954       0.00000
  47    0.1255      196.1194        0.0002      339.5741      339.5743     143.454954      -0.00000
  46    0.1487      196.1194        0.0003      339.5740      339.5743     143.454954       0.00000
  45    0.1794      196.1194        0.0004      339.5739      339.5743     143.454954      -0.00000
  44    0.2165      196.1194        0.0006      339.5738      339.5743     143.454954      -0.00000
  43    0.2613      196.1194        0.0007      339.5736      339.5743     143.454954       0.00000
  42    0.3336      196.1194        0.0010      339.5733      339.5743     143.454954       0.00000
  41    0.4307      196.1193        0.0014      339.5729      339.5743     143.454954      -0.00000
  40    0.5894      196.1193        0.0020      339.5723      339.5743     143.454954      -0.00000
  39     1.339      196.1192        0.0048      339.5693      339.5741     143.454954      -0.00000
  38     1.782      196.1191        0.0065      339.5676      339.5741     143.454954      -0.00000
  37     2.292      196.1190        0.0084      339.5656      339.5740     143.454954       0.00000
  36     2.964      196.1189        0.0109      339.5629      339.5739     143.454954       0.00000
  35     3.853      196.1188        0.0143      339.5594      339.5737     143.454954       0.00000
  34     5.035      196.1186        0.0187      339.5548      339.5735     143.454954      -0.00000
  33     6.613      196.1183        0.0247      339.5486      339.5733     143.454954       0.00000
  32     8.786      196.1179        0.0327      339.5402      339.5729     143.454954       0.00000
  31     11.80      196.1174        0.0441      339.5283      339.5724     143.454954      -0.00000
  30     15.07      196.1169        0.0565      339.5154      339.5718     143.454954       0.00000
  29     18.79      196.1163        0.0704      339.5008      339.5712     143.454954       0.00000
  28     23.16      196.1155        0.0867      339.4838      339.5705     143.454954      -0.00000
  27     28.12      196.1147        0.1054      339.4643      339.5697     143.454954      -0.00000
  26     33.73      196.1138        0.1263      339.4424      339.5687     143.454954       0.00000
  25     40.54      196.1127        0.1516      339.4160      339.5676     143.454954       0.00000
  24     48.69      196.1113        0.1822      339.3841      339.5662     143.454954      -0.00000
  23     57.69      196.1098        0.2158      339.3489      339.5648     143.454954      -0.00000
  22     68.43      196.1080        0.2559      339.3070      339.5630     143.454954       0.00000
  21     81.20      196.1059        0.3038      339.2570      339.5608     143.454954      -0.00000
  20     96.49      196.1033        0.3610      339.1973      339.5583     143.454954       0.00000
  19     114.6      196.1007        0.4290      339.1202      339.5492     143.448508       0.00301
  18     136.5      196.0975        0.5098      339.0282      339.5380     143.440510       0.00308
  17     162.9      196.0938        0.6063      338.9148      339.5211     143.427260       0.00424
  16     196.4      196.0893        0.7318      338.7508      339.4826     143.393331       0.00854
  15     218.7      196.0868        0.8145      338.6018      339.4163     143.329477       0.02424
  14     243.0      196.0853        0.9043      338.3550      339.2593     143.173959       0.05394
  13     269.0      196.0868        1.0017      337.9284      338.9301     142.843327       0.10726
  12     297.5      196.0944        1.1068      337.2460      338.3528     142.258441       0.17347
  11     328.5      196.1102        1.2203      336.3599      337.5802     141.469918       0.21440
  10     361.9      196.1387        1.3424      335.2817      336.6241     140.485432       0.24908
   9     398.1      196.1867        1.4735      333.9702      335.4438     139.257050       0.28619
   8     437.6      196.2663        1.6136      332.3177      333.9313     137.664926       0.34041
   7     480.5      196.3918        1.7626      330.2317      331.9943     135.602473       0.40506
   6     533.0      196.6223        1.9442      327.1816      329.1258     132.503588       0.49851
   5     589.8      197.0103        2.1365      323.1850      325.3216     128.311309       0.62227
   4     651.6      197.7217        2.3365      317.6492      319.9858     122.264054       0.82698
   3     718.7      198.9787        2.5430      310.4978      313.0408     114.062126       1.03076
   2     792.3      201.2838        2.7518      301.5256      304.2774     102.993603       1.26944
   1     891.5      207.1360        3.0122      288.1364      291.1486      84.012598       1.61519
   0    1013.0      223.0648        3.2994      271.6409      274.9403      51.875504       2.23144



 Wavenumbers: 12850. - 16000. cm-1, ATM      1
 LEVEL PRESSURE   UPWARD FLUX   DIFDOWN FLUX  DIRDOWN FLUX  DOWNWARD FLUX   NET FLUX    HEATING RATE
          mb          W/m2          W/m2          W/m2        W/m2          W/m2       degree/day
  51    .06700      175.3782        0.0000      212.7733      212.7733      37.395108       0.00000
  50    .07753      175.3783        0.0001      212.7725      212.7726      37.394291       0.65445
  49    .09103      175.3784        0.0002      212.7714      212.7716      37.393255       0.64724
  48    0.1069      175.3784        0.0004      212.7701      212.7705      37.392052       0.64064
  47    0.1255      175.3786        0.0005      212.7687      212.7692      37.390651       0.63500
  46    0.1487      175.3787        0.0008      212.7668      212.7676      37.388857       0.65403
  45    0.1794      175.3790        0.0010      212.7643      212.7654      37.386374       0.68167
  44    0.2165      175.3794        0.0014      212.7614      212.7628      37.383393       0.67800
  43    0.2613      175.3799        0.0018      212.7579      212.7597      37.379809       0.67573
  42    0.3336      175.3808        0.0025      212.7521      212.7546      37.373788       0.70199
  41    0.4307      175.3822        0.0033      212.7445      212.7479      37.365723       0.70121
  40    0.5894      175.3847        0.0048      212.7324      212.7371      37.352390       0.70905
  39     1.339      175.4036        0.0116      212.6762      212.6879      37.284261       0.76700
  38     1.782      175.4196        0.0157      212.6439      212.6595      37.239972       0.84318
  37     2.292      175.4425        0.0203      212.6061      212.6264      37.183926       0.92828
  36     2.964      175.4796        0.0264      212.5554      212.5819      37.102265       1.02509
  35     3.853      175.5384        0.0345      212.4865      212.5210      36.982683       1.13485
  34     5.035      175.6260        0.0453      212.3942      212.4395      36.813466       1.20882
  33     6.613      175.7480        0.0596      212.2741      212.3337      36.585676       1.21777
  32     8.786      175.9072        0.0789      212.1222      212.2011      36.293917       1.13308
  31     11.80      176.1160        0.1066      211.9240      212.0306      35.914641       1.06185
  30     15.07      176.3179        0.1363      211.7297      211.8660      35.548060       0.94644
  29     18.79      176.5261        0.1698      211.5256      211.6954      35.169321       0.85872
  28     23.16      176.7462        0.2091      211.3042      211.5133      34.767046       0.77787
  27     28.12      176.9711        0.2540      211.0706      211.3246      34.353500       0.70300
  26     33.73      177.1842        0.3043      210.8367      211.1410      33.956767       0.59650
  25     40.54      177.3972        0.3651      210.5862      210.9513      33.554070       0.49959
  24     48.69      177.6107        0.4386      210.3154      210.7540      33.143278       0.42511
  23     57.69      177.8033        0.5195      210.0484      210.5680      32.764676       0.35488
  22     68.43      177.9872        0.6160      209.7641      210.3802      32.393003       0.29218
  21     81.20      178.1439        0.7313      209.4719      210.2032      32.059285       0.22052
  20     96.49      178.2731        0.8691      209.1690      210.0381      31.764984       0.16243
  19     114.6      178.4252        1.0351      208.8358      209.8710      31.445802       0.14904
  18     136.5      178.5802        1.2323      208.4658      209.6981      31.117875       0.12610
  17     162.9      178.7416        1.4675      208.0492      209.5167      30.775055       0.10958
  16     196.4      178.9018        1.7734      207.5472      209.3205      30.418709       0.08970
  15     218.7      178.9896        1.9747      207.2291      209.2038      30.214217       0.07764
  14     243.0      179.0777        2.1939      206.8855      209.0794      30.001694       0.07371
  13     269.0      179.1667        2.4318      206.5125      208.9443      29.777615       0.07269
  12     297.5      179.2584        2.6896      206.1037      208.7933      29.534878       0.07199
  11     328.5      179.3584        2.9687      205.6534      208.6220      29.263574       0.07377
  10     361.9      179.4694        3.2698      205.1563      208.4262      28.956770       0.07762
   9     398.1      179.5958        3.5948      204.6068      208.2016      28.605870       0.08175
   8     437.6      179.7453        3.9447      203.9951      207.9398      28.194425       0.08797
   7     480.5      179.9260        4.3207      203.3141      207.6348      27.708881       0.09536
   6     533.0      180.1876        4.7848      202.4342      207.2190      27.031384       0.10899
   5     589.8      180.5426        5.2862      201.4166      206.7027      26.160145       0.12932
   4     651.6      181.0729        5.8253      200.1866      206.0119      24.939062       0.16699
   3     718.7      181.8379        6.4006      198.7163      205.1169      23.278947       0.20863
   2     792.3      183.0191        7.0079      196.9029      203.9108      20.891634       0.27380
   1     891.5      185.5032        7.8081      194.0320      201.8402      16.336941       0.38758
   0    1013.0      190.4694        8.7410      190.0852      198.8262       8.356807       0.55410



 Wavenumbers: 16000. - 22650. cm-1, ATM      1
 LEVEL PRESSURE   UPWARD FLUX   DIFDOWN FLUX  DIRDOWN FLUX  DOWNWARD FLUX   NET FLUX    HEATING RATE
          mb          W/m2          W/m2          W/m2        W/m2          W/m2       degree/day
  51    .06700      311.1290        0.0000      339.2435      339.2435      28.114562       0.00000
  50    .07753      311.1292        0.0006      339.2430      339.2435      28.114335       0.18206
  49    .09103      311.1295        0.0013      339.2422      339.2435      28.114005       0.20649
  48    0.1069      311.1300        0.0021      339.2414      339.2435      28.113562       0.23547
  47    0.1255      311.1305        0.0031      339.2403      339.2434      28.112970       0.26840
  46    0.1487      311.1312        0.0043      339.2390      339.2433      28.112098       0.31806
  45    0.1794      311.1324        0.0060      339.2371      339.2431      28.110733       0.37449
  44    0.2165      311.1338        0.0079      339.2348      339.2427      28.108883       0.42089
  43    0.2613      311.1358        0.0103      339.2319      339.2422      28.106373       0.47318
  42    0.3336      311.1394        0.0141      339.2269      339.2410      28.101600       0.55646
  41    0.4307      311.1448        0.0192      339.2200      339.2392      28.094406       0.62554
  40    0.5894      311.1548        0.0275      339.2080      339.2355      28.080684       0.72969
  39     1.339      311.2254        0.0670      339.1377      339.2047      27.979291       1.14150
  38     1.782      311.2839        0.0901      339.0866      339.1767      27.892894       1.64486
  37     2.292      311.3675        0.1170      339.0183      339.1353      27.767800       2.07189
  36     2.964      311.5017        0.1522      338.9146      339.0667      27.565065       2.54494
  35     3.853      311.7134        0.1986      338.7579      338.9565      27.243174       3.05480
  34     5.035      312.0285        0.2604      338.5306      338.7910      26.762492       3.43379
  33     6.613      312.4670        0.3428      338.2178      338.5606      26.093605       3.57587
  32     8.786      313.0399        0.4539      337.8077      338.2616      25.221702       3.38616
  31     11.80      313.7928        0.6129      337.2614      337.8743      24.081469       3.19229
  30     15.07      314.5233        0.7836      336.7215      337.5051      22.981764       2.83922
  29     18.79      315.2784        0.9764      336.1537      337.1301      21.851738       2.56212
  28     23.16      316.0794        1.2018      335.5387      336.7405      20.661124       2.30226
  27     28.12      316.9007        1.4597      334.8912      336.3509      19.450176       2.05853
  26     33.73      317.6840        1.7486      334.2448      335.9934      18.309465       1.71509
  25     40.54      318.4728        2.0982      333.5534      335.6516      17.178786       1.40274
  24     48.69      319.2707        2.5202      332.8066      335.3268      16.056051       1.16185
  23     57.69      319.9990        2.9844      332.0695      335.0539      15.054862       0.93846
  22     68.43      320.7065        3.5382      331.2805      334.8187      14.112261       0.74101
  21     81.20      321.3299        4.1995      330.4607      334.6601      13.330240       0.51675
  20     96.49      321.8688        4.9891      329.5945      334.5836      12.714806       0.33968
  19     114.6      322.4021        5.9272      328.6254      334.5525      12.150398       0.26354
  18     136.5      322.9623        7.0393      327.5165      334.5558      11.593427       0.21417
  17     162.9      323.5631        8.3636      326.2330      334.5967      11.033532       0.17897
  16     196.4      324.2000       10.0820      324.6458      334.7278      10.527885       0.12728
  15     218.7      324.5652       11.2107      323.6323      334.8431      10.277878       0.09492
  14     243.0      324.9371       12.4376      322.5445      334.9821      10.045022       0.08076
  13     269.0      325.3138       13.7671      321.3801      335.1472       9.833371       0.06866
  12     297.5      325.6956       15.2039      320.1354      335.3393       9.643678       0.05626
  11     328.5      326.0953       16.7564      318.7974      335.5538       9.458534       0.05034
  10     361.9      326.5133       18.4279      317.3636      335.7915       9.278181       0.04563
   9     398.1      326.9519       20.2268      315.8263      336.0531       9.101173       0.04124
   8     437.6      327.4156       22.1588      314.1791      336.3379       8.922300       0.03824
   7     480.5      327.9055       24.2301      312.4165      336.6465       8.741035       0.03560
   6     533.0      328.5042       26.7807      310.2477      337.0283       8.524140       0.03489
   5     589.8      329.1538       29.5317      307.9049      337.4366       8.282808       0.03582
   4     651.6      329.8730       32.4920      305.3702      337.8621       7.989115       0.04016
   3     718.7      330.6807       35.6713      302.6257      338.2971       7.616353       0.04685
   2     792.3      331.6199       39.0744      299.6448      338.7192       7.099293       0.05930
   1     891.5      333.0744       43.6620      295.5280      339.1900       6.115637       0.08370
   0    1013.0      335.1325       49.1619      290.4567      339.6186       4.486076       0.11315



 Wavenumbers: 22650. - 29000. cm-1, ATM      1
 LEVEL PRESSURE   UPWARD FLUX   DIFDOWN FLUX  DIRDOWN FLUX  DOWNWARD FLUX   NET FLUX    HEATING RATE
          mb          W/m2          W/m2          W/m2        W/m2          W/m2       degree/day
  51    .06700      126.9440        0.0000      128.0182      128.0182       1.074159       0.00000
  50    .07753      126.9441        0.0007      128.0176      128.0183       1.074159       0.00000
  49    .09103      126.9443        0.0015      128.0169      128.0185       1.074159       0.00000
  48    0.1069      126.9445        0.0025      128.0161      128.0186       1.074159       0.00000
  47    0.1255      126.9447        0.0036      128.0152      128.0188       1.074159      -0.00000
  46    0.1487      126.9450        0.0051      128.0140      128.0191       1.074159       0.00000
  45    0.1794      126.9453        0.0070      128.0125      128.0195       1.074159       0.00000
  44    0.2165      126.9458        0.0093      128.0106      128.0199       1.074159      -0.00000
  43    0.2613      126.9463        0.0121      128.0084      128.0204       1.074159       0.00000
  42    0.3336      126.9471        0.0166      128.0047      128.0213       1.074159       0.00000
  41    0.4307      126.9483        0.0226      127.9999      128.0224       1.074159      -0.00000
  40    0.5894      126.9501        0.0324      127.9919      128.0243       1.074159      -0.00000
  39     1.339      126.9588        0.0787      127.9543      128.0330       1.074159       0.00000
  38     1.782      126.9640        0.1059      127.9322      128.0381       1.074159       0.00000
  37     2.292      126.9699        0.1374      127.9067      128.0441       1.074159      -0.00000
  36     2.964      126.9777        0.1788      127.8731      128.0519       1.074159       0.00000
  35     3.853      126.9880        0.2334      127.8287      128.0622       1.074159      -0.00000
  34     5.035      127.0017        0.3060      127.7698      128.0759       1.074159       0.00000
  33     6.613      127.0200        0.4031      127.6911      128.0942       1.074159       0.00000
  32     8.786      127.0447        0.5338      127.5850      128.1188       1.074159      -0.00000
  31     11.80      127.0799        0.7208      127.4333      128.1541       1.074159       0.00000
  30     15.07      127.1178        0.9215      127.2704      128.1919       1.074159       0.00000
  29     18.79      127.1605        1.1482      127.0865      128.2347       1.074159       0.00000
  28     23.16      127.2104        1.4128      126.8717      128.2846       1.074159       0.00000
  27     28.12      127.2674        1.7153      126.6263      128.3416       1.074159      -0.00000
  26     33.73      127.3312        2.0535      126.3519      128.4054       1.074159       0.00000
  25     40.54      127.4081        2.4616      126.0207      128.4823       1.074159      -0.00000
  24     48.69      127.5007        2.9529      125.6220      128.5749       1.074159      -0.00000
  23     57.69      127.6023        3.4915      125.1849      128.6764       1.074159       0.00000
  22     68.43      127.7229        4.1315      124.6655      128.7970       1.074159       0.00000
  21     81.20      127.8662        4.8918      124.0485      128.9403       1.074159       0.00000
  20     96.49      128.0362        5.7942      123.3161      129.1104       1.074159      -0.00000
  19     114.6      128.2371        6.8607      122.4505      129.3113       1.074159       0.00000
  18     136.5      128.4739        8.1177      121.4304      129.5480       1.074159       0.00000
  17     162.9      128.7538        9.6042      120.2238      129.8280       1.074159       0.00000
  16     196.4      129.1135       11.5149      118.6728      130.1877       1.074159       0.00000
  15     218.7      129.3478       12.7594      117.6625      130.4219       1.074159      -0.00000
  14     243.0      129.6006       14.1031      116.5717      130.6747       1.074159      -0.00000
  13     269.0      129.8725       15.5486      115.3981      130.9467       1.074159       0.00000
  12     297.5      130.1640       17.0984      114.1398      131.2381       1.074159       0.00000
  11     328.5      130.4762       18.7592      112.7912      131.5504       1.074159      -0.00000
  10     361.9      130.8093       20.5313      111.3521      131.8835       1.074159       0.00000
   9     398.1      131.1642       22.4203      109.8180      132.2384       1.074159      -0.00000
   8     437.6      131.5413       24.4283      108.1872      132.6154       1.074159       0.00000
   7     480.5      131.9409       26.5572      106.4579      133.0151       1.074159       0.00000
   6     533.0      132.4265       29.1455      104.3552      133.5007       1.074159       0.00000
   5     589.8      132.9424       31.8969      102.1197      134.0166       1.074159      -0.00000
   4     651.6      133.4887       34.8122       99.7506      134.5629       1.074159       0.00000
   3     718.7      134.0654       37.8924       97.2472      135.1396       1.074159       0.00000
   2     792.3      134.6718       41.1338       94.6121      135.7459       1.074159      -0.00000
   1     891.5      135.4726       45.4192       91.1275      136.5468       1.074159       0.00000
   0    1013.0      136.4070       50.4265       87.0547      137.4811       1.074159      -0.00000



 Wavenumbers: 29000. - 38000. cm-1, ATM      1
 LEVEL PRESSURE   UPWARD FLUX   DIFDOWN FLUX  DIRDOWN FLUX  DOWNWARD FLUX   NET FLUX    HEATING RATE
          mb          W/m2          W/m2          W/m2        W/m2          W/m2       degree/day
  51    .06700       20.1403        0.0000       45.1445       45.1445      25.004180       0.00000
  50    .07753       20.1403        0.0004       45.1402       45.1406      25.000347       3.07208
  49    .09103       20.1402        0.0009       45.1340       45.1349      24.994767       3.48727
  48    0.1069       20.1401        0.0015       45.1259       45.1274      24.987292       3.97930
  47    0.1255       20.1400        0.0021       45.1151       45.1173      24.977283       4.53755
  46    0.1487       20.1399        0.0029       45.0995       45.1024      24.962533       5.37643
  45    0.1794       20.1398        0.0041       45.0752       45.0793      24.939500       6.32325
  44    0.2165       20.1397        0.0054       45.0427       45.0481      24.908330       7.09063
  43    0.2613       20.1397        0.0070       44.9990       45.0059      24.866192       7.94271
  42    0.3336       20.1399        0.0095       44.9170       44.9266      24.786645       9.27445
  41    0.4307       20.1403        0.0129       44.7957       44.8086      24.668275      10.29198
  40    0.5894       20.1415        0.0184       44.5709       44.5893      24.447795      11.72485
  39     1.339       20.1553        0.0425       43.1320       43.1745      23.019257      16.08274
  38     1.782       20.1689        0.0555       42.1484       42.2039      22.035022      18.73825
  37     2.292       20.1894        0.0696       41.0073       41.0770      20.887544      19.00523
  36     2.964       20.2236        0.0873       39.6314       39.7188      19.495185      17.47831
  35     3.853       20.2789        0.1098       38.1244       38.2342      17.955311      14.61369
  34     5.035       20.3624        0.1388       36.6081       36.7470      16.384583      11.22063
  33     6.613       20.4799        0.1767       35.1382       35.3149      14.835005       8.28405
  32     8.786       20.6354        0.2268       33.7455       33.9723      13.336850       5.81829
  31     11.80       20.8437        0.2975       32.3833       32.6808      11.837171       4.19863
  30     15.07       21.0514        0.3725       31.3427       31.7152      10.663827       3.02935
  29     18.79       21.2727        0.4561       30.4443       30.9004       9.627692       2.34924
  28     23.16       21.5165        0.5529       29.6246       30.1775       8.660969       1.86933
  27     28.12       21.7772        0.6628       28.8817       29.5444       7.767228       1.51930
  26     33.73       22.0364        0.7860       28.2360       29.0220       6.985651       1.17512
  25     40.54       22.3080        0.9352       27.6241       28.5593       6.251285       0.91106
  24     48.69       22.5948        1.1153       27.0316       28.1468       5.552020       0.72363
  23     57.69       22.8674        1.3134       26.5005       27.8139       4.946463       0.56762
  22     68.43       23.1418        1.5500       25.9781       27.5281       4.386283       0.44038
  21     81.20       23.3887        1.8346       25.4801       27.3147       3.925999       0.30415
  20     96.49       23.6028        2.1761       24.9919       27.1680       3.565173       0.19915
  19     114.6       23.8162        2.5791       24.4717       27.0507       3.234509       0.15440
  18     136.5       24.0431        3.0501       23.8998       26.9499       2.906752       0.12603
  17     162.9       24.2903        3.6028       23.2628       26.8655       2.575257       0.10596
  16     196.4       24.5496        4.3114       22.5108       26.8222       2.272617       0.07618
  15     218.7       24.6965        4.7696       22.0470       26.8166       2.120147       0.05789
  14     243.0       24.8451        5.2605       21.5608       26.8213       1.976185       0.04993
  13     269.0       24.9937        5.7845       21.0531       26.8377       1.843994       0.04288
  12     297.5       25.1412        6.3417       20.5244       26.8660       1.724827       0.03534
  11     328.5       25.2937        6.9315       19.9703       26.9018       1.608122       0.03173
  10     361.9       25.4506        7.5528       19.3924       26.9451       1.494533       0.02874
   9     398.1       25.6119        8.2059       18.7904       26.9963       1.384354       0.02567
   8     437.6       25.7787        8.8894       18.1649       27.0544       1.275670       0.02324
   7     480.5       25.9499        9.6026       17.5174       27.1200       1.170045       0.02074
   6     533.0       26.1517       10.4530       16.7507       27.2037       1.051931       0.01900
   5     589.8       26.3611       11.3374       15.9583       27.2956       0.934580       0.01742
   4     651.6       26.5784       12.2520       15.1432       27.3952       0.816793       0.01611
   3     718.7       26.8033       13.1918       14.3095       27.5014       0.698101       0.01492
   2     792.3       27.0359       14.1549       13.4599       27.6148       0.578900       0.01367
   1     891.5       27.3385       15.3848       12.3810       27.7659       0.427325       0.01290
   0    1013.0       27.6882       16.7599       11.1826       27.9425       0.254288       0.01201



 Wavenumbers: 38000. - 50000. cm-1, ATM      1
 LEVEL PRESSURE   UPWARD FLUX   DIFDOWN FLUX  DIRDOWN FLUX  DOWNWARD FLUX   NET FLUX    HEATING RATE
          mb          W/m2          W/m2          W/m2        W/m2          W/m2       degree/day
  51    .06700        0.0077        0.0000        2.7845        2.7845       2.776804       0.00000
  50    .07753        0.0076        0.0001        2.7820        2.7821       2.774466       1.87422
  49    .09103        0.0076        0.0002        2.7785        2.7787       2.771124       2.08844
  48    0.1069        0.0075        0.0003        2.7739        2.7742       2.766725       2.34187
  47    0.1255        0.0074        0.0004        2.7680        2.7683       2.760927       2.62859
  46    0.1487        0.0073        0.0005        2.7593        2.7598       2.752507       3.06903
  45    0.1794        0.0071        0.0007        2.7460        2.7467       2.739523       3.56452
  44    0.2165        0.0070        0.0009        2.7282        2.7291       2.722171       3.94722
  43    0.2613        0.0068        0.0012        2.7046        2.7058       2.699009       4.36588
  42    0.3336        0.0065        0.0015        2.6609        2.6624       2.655924       5.02335
  41    0.4307        0.0061        0.0020        2.5970        2.5991       2.592931       5.47710
  40    0.5894        0.0056        0.0027        2.4815        2.4842       2.478574       6.08134
  39     1.339        0.0038        0.0042        1.8149        1.8190       1.815270       7.46761
  38     1.782        0.0030        0.0040        1.4302        1.4342       1.431208       7.31192
  37     2.292        0.0024        0.0036        1.0577        1.0613       1.058903       6.16633
  36     2.964        0.0019        0.0030        0.7140        0.7170       0.715149       4.31516
  35     3.853        0.0015        0.0024        0.4564        0.4589       0.457401       2.44607
  34     5.035        0.0011        0.0019        0.2892        0.2911       0.289993       1.19590
  33     6.613        0.0009        0.0016        0.1825        0.1840       0.183159       0.57113
  32     8.786        0.0007        0.0013        0.1153        0.1165       0.115840       0.26144
  31     11.80        0.0005        0.0010        0.0712        0.0722       0.071711       0.12355
  30     15.07        0.0004        0.0008        0.0472        0.0480       0.047626       0.06218
  29     18.79        0.0003        0.0006        0.0315        0.0321       0.031814       0.03585
  28     23.16        0.0002        0.0004        0.0206        0.0210       0.020821       0.02126
  27     28.12        0.0001        0.0003        0.0132        0.0136       0.013410       0.01260
  26     33.73        0.0001        0.0002        0.0085        0.0088       0.008654       0.00715
  25     40.54        0.0001        0.0002        0.0053        0.0055       0.005402       0.00403
  24     48.69        0.0000        0.0001        0.0032        0.0033       0.003226       0.00225
  23     57.69        0.0000        0.0001        0.0019        0.0019       0.001920       0.00122
  22     68.43        0.0000        0.0000        0.0011        0.0011       0.001085       0.00066
  21     81.20        0.0000        0.0000        0.0006        0.0006       0.000585       0.00033
  20     96.49        0.0000        0.0000        0.0003        0.0003       0.000295       0.00016
  19     114.6        0.0000        0.0000        0.0001        0.0001       0.000133       0.00008
  18     136.5        0.0000        0.0000        0.0001        0.0001       0.000052       0.00003
  17     162.9        0.0000        0.0000        0.0000        0.0000       0.000017       0.00001
  16     196.4        0.0000        0.0000        0.0000        0.0000       0.000004       0.00000
  15     218.7        0.0000        0.0000        0.0000        0.0000       0.000002       0.00000
  14     243.0        0.0000        0.0000        0.0000        0.0000       0.000001       0.00000
  13     269.0        0.0000        0.0000        0.0000        0.0000       0.000000       0.00000
  12     297.5        0.0000        0.0000        0.0000        0.0000       0.000000       0.00000
  11     328.5        0.0000        0.0000        0.0000        0.0000       0.000000       0.00000
  10     361.9        0.0000        0.0000        0.0000        0.0000       0.000000       0.00000
   9     398.1        0.0000        0.0000        0.0000        0.0000       0.000000       0.00000
   8     437.6        0.0000        0.0000        0.0000        0.0000       0.000000       0.00000
   7     480.5        0.0000        0.0000        0.0000        0.0000       0.000000       0.00000
   6     533.0        0.0000        0.0000        0.0000        0.0000       0.000000       0.00000
   5     589.8        0.0000        0.0000        0.0000        0.0000       0.000000       0.00000
   4     651.6        0.0000        0.0000        0.0000        0.0000       0.000000       0.00000
   3     718.7        0.0000        0.0000        0.0000        0.0000       0.000000       0.00000
   2     792.3        0.0000        0.0000        0.0000        0.0000       0.000000       0.00000
   1     891.5        0.0000        0.0000        0.0000        0.0000       0.000000       0.00000
   0    1013.0        0.0000        0.0000        0.0000        0.0000       0.000000       0.00000



 Wavenumbers:   820. -  2600. cm-1, ATM      1
 LEVEL PRESSURE   UPWARD FLUX   DIFDOWN FLUX  DIRDOWN FLUX  DOWNWARD FLUX   NET FLUX    HEATING RATE
          mb          W/m2          W/m2          W/m2        W/m2          W/m2       degree/day
  51    .06700        0.0061        0.0000       13.0254       13.0254      13.019360       0.00000
  50    .07753        0.0061        0.0000       13.0185       13.0185      13.012412       5.56911
  49    .09103        0.0061        0.0000       13.0169       13.0169      13.010868       0.96497
  48    0.1069        0.0061        0.0000       13.0158       13.0158      13.009746       0.59695
  47    0.1255        0.0061        0.0000       13.0145       13.0145      13.008462       0.58214
  46    0.1487        0.0061        0.0000       13.0129       13.0129      13.006808       0.60280
  45    0.1794        0.0061        0.0000       13.0106       13.0106      13.004560       0.61739
  44    0.2165        0.0061        0.0000       13.0080       13.0080      13.001953       0.59283
  43    0.2613        0.0061        0.0000       13.0051       13.0051      12.998993       0.55812
  42    0.3336        0.0061        0.0000       13.0005       13.0005      12.994464       0.52801
  41    0.4307        0.0061        0.0000       12.9952       12.9952      12.989145       0.46247
  40    0.5894        0.0061        0.0000       12.9876       12.9876      12.981524       0.40528
  39     1.339        0.0061        0.0000       12.9552       12.9552      12.949167       0.36428
  38     1.782        0.0061        0.0000       12.9367       12.9367      12.930660       0.35234
  37     2.292        0.0061        0.0000       12.9159       12.9159      12.909844       0.34477
  36     2.964        0.0061        0.0000       12.8893       12.8893      12.883237       0.33401
  35     3.853        0.0061        0.0000       12.8550       12.8550      12.848941       0.32548
  34     5.035        0.0061        0.0000       12.8110       12.8110      12.804918       0.31448
  33     6.613        0.0061        0.0000       12.7553       12.7553      12.749206       0.29783
  32     8.786        0.0061        0.0000       12.6848       12.6848      12.678719       0.27375
  31     11.80        0.0061        0.0000       12.5907       12.5907      12.584603       0.26350
  30     15.07        0.0061        0.0000       12.4974       12.4974      12.491344       0.24078
  29     18.79        0.0061        0.0000       12.4041       12.4041      12.398031       0.21157
  28     23.16        0.0061        0.0000       12.3142       12.3142      12.308135       0.17383
  27     28.12        0.0061        0.0000       12.2360       12.2360      12.229910       0.13298
  26     33.73        0.0061        0.0000       12.1736       12.1736      12.167512       0.09382
  25     40.54        0.0061        0.0000       12.1217       12.1217      12.115666       0.06432
  24     48.69        0.0061        0.0000       12.0773       12.0773      12.071232       0.04598
  23     57.69        0.0061        0.0000       12.0368       12.0368      12.030689       0.03800
  22     68.43        0.0061        0.0000       11.9912       11.9912      11.985095       0.03584
  21     81.20        0.0061        0.0000       11.9380       11.9381      11.931978       0.03510
  20     96.49        0.0061        0.0000       11.8752       11.8752      11.869093       0.03471
  19     114.6        0.0061        0.0000       11.8000       11.8000      11.793907       0.03511
  18     136.5        0.0061        0.0000       11.7105       11.7105      11.704459       0.03440
  17     162.9        0.0061        0.0000       11.5940       11.5940      11.587981       0.03723
  16     196.4        0.0061        0.0000       11.4064       11.4064      11.400354       0.04723
  15     218.7        0.0061        0.0000       11.2202       11.2202      11.214140       0.07070
  14     243.0        0.0061        0.0000       10.9221       10.9221      10.916042       0.10339
  13     269.0        0.0061        0.0000       10.5132       10.5132      10.507158       0.13264
  12     297.5        0.0061        0.0000       10.0511       10.0512      10.045092       0.13704
  11     328.5        0.0061        0.0000        9.6568        9.6569       9.650800       0.10721
  10     361.9        0.0061        0.0000        9.2736        9.2737       9.267584       0.09696
   9     398.1        0.0061        0.0000        8.8315        8.8315       8.825398       0.10302
   8     437.6        0.0061        0.0000        8.3170        8.3171       8.310956       0.10999
   7     480.5        0.0061        0.0000        7.7994        7.7995       7.793359       0.10165
   6     533.0        0.0062        0.0000        7.2974        7.2974       7.291274       0.08077
   5     589.8        0.0062        0.0000        6.9311        6.9311       6.924905       0.05438
   4     651.6        0.0063        0.0000        6.6173        6.6173       6.611028       0.04292
   3     718.7        0.0064        0.0000        6.2583        6.2583       6.251908       0.04513
   2     792.3        0.0067        0.0000        5.8107        5.8107       5.804037       0.05137
   1     891.5        0.0074        0.0000        5.1736        5.1736       5.166200       0.05428
   0    1013.0        0.0093        0.0000        4.4251        4.4251       4.415856       0.05210

  Modules and versions used in this calculation:

       rrtmg_sw.1col.f90:  $Revision$                    rrtmg_sw_init.f90:  $Revision$        
     rrtmgsw_cldprop.f90:  $Revision$                  rrtmgsw_cldprmc.f90:  NOT USED          
     rrtmg_sw_reftra.f90:  $Revision$                  rrtmg_sw_spcvrt.f90:  NOT USED          
     rrtmg_sw_spcvmc.f90:  NOT USED                    rrtmgsw_setcoef.f90:  NOT USED          
     rrtmg_sw_taumol.f90:  $Revision$                  rrtmg_sw_vrtqdr.f90:  NOT USED          
                rrtatm.f:  NOT USED                             util_xxx.f:  NOT USED          
                 extra.f:  NOT USED                       rrtmg_sw_k_g.f90:  $Revision$        

