

 Wavenumbers:   820. - 50000. cm-1, ATM      1
 LEVEL PRESSURE   UPWARD FLUX   DIFDOWN FLUX  DIRDOWN FLUX  DOWNWARD FLUX   NET FLUX    HEATING RATE
          mb          W/m2          W/m2          W/m2        W/m2          W/m2       degree/day
  51    .06700      400.2397        0.0000      617.8126      617.8126     217.572884       0.00000
  50    .07753      400.2393        0.0013      617.7947      617.7961     217.556745      12.93553
  49    .09103      400.2389        0.0030      617.7778      617.7808     217.541937       9.25548
  48    0.1069      400.2384        0.0050      617.7581      617.7631     217.524677       9.18733
  47    0.1255      400.2379        0.0072      617.7340      617.7412     217.503335       9.67560
  46    0.1487      400.2373        0.0100      617.7009      617.7109     217.473652      10.81960
  45    0.1794      400.2365        0.0139      617.6521      617.6660     217.429426      12.14120
  44    0.2165      400.2358        0.0184      617.5895      617.6079     217.372110      13.03830
  43    0.2613      400.2351        0.0238      617.5089      617.5327     217.297605      14.04399
  42    0.3336      400.2342        0.0326      617.3641      617.3967     217.162532      15.74810
  41    0.4307      400.2334        0.0442      617.1591      617.2034     216.969927      16.74660
  40    0.5894      400.2332        0.0630      616.8005      616.8635     216.630268      18.06263
  39     1.339      400.2501        0.1478      614.9443      615.0920     214.841862      20.13420
  38     1.782      400.2727        0.1955      613.9670      614.1625     213.889766      18.12639
  37     2.292      400.3102        0.2497      613.0059      613.2556     212.945380      15.64148
  36     2.964      400.3767        0.3203      611.9577      612.2779     211.901260      13.10687
  35     3.853      400.4884        0.4128      610.8024      611.2152     210.726797      11.14587
  34     5.035      400.6604        0.5349      609.5327      610.0676     209.407221       9.42650
  33     6.613      400.9026        0.6969      608.1464      608.8434     207.940718       7.83993
  32     8.786      401.2182        0.9143      606.6250      607.5393     206.321157       6.28979
  31     11.80      401.6266        1.2238      604.8486      606.0725     204.445828       5.25033
  30     15.07      402.0152        1.5541      603.2440      604.7980     202.782884       4.29340
  29     18.79      402.4093        1.9257      601.6511      603.5768     201.167479       3.66262
  28     23.16      402.8183        2.3575      599.9927      602.3502     199.531899       3.16268
  27     28.12      403.2256        2.8490      598.2881      601.1370     197.911384       2.75477
  26     33.73      403.5933        3.3969      596.5951      599.9919     196.398671       2.27441
  25     40.54      403.9347        4.0565      594.7727      598.8292     194.894513       1.86608
  24     48.69      404.2467        4.8480      592.7865      597.6345     193.387798       1.55921
  23     57.69      404.4929        5.7133      590.7959      596.5092     192.016266       1.28560
  22     68.43      404.6813        6.7383      588.6191      595.3574     190.676117       1.05354
  21     81.20      404.7601        7.9536      586.2690      594.2226     189.462468       0.80196
  20     96.49      404.7190        9.3925      583.6961      593.0886     188.369607       0.60318
  19     114.6      404.6168       11.0853      580.7708      591.8561     187.239330       0.52776
  18     136.5      404.4511       13.0675      577.4359      590.5034     186.052312       0.45644
  17     162.9      404.2156       15.3937      573.5624      588.9561     184.740485       0.41931
  16     196.4      403.8225       18.3601      568.5907      586.9508     183.128311       0.40580
  15     218.7      403.5353       20.2780      565.0572      585.3352     181.799908       0.50435
  14     243.0      403.2140       22.3351      560.7495      583.0846     179.870585       0.66915
  13     269.0      402.8588       24.5327      555.3947      579.9274     177.068583       0.90896
  12     297.5      402.4733       26.8716      548.9964      575.8680     173.394667       1.08964
  11     328.5      402.0665       29.3582      542.0895      571.4477     169.381221       1.09124
  10     361.9      401.6441       31.9886      534.6242      566.6128     164.968692       1.11641
   9     398.1      401.2140       34.7675      526.4204      561.1879     159.973904       1.16367
   8     437.6      400.7925       37.6934      517.3907      555.0841     154.291548       1.21492
   7     480.5      400.3970       40.7645      507.7216      548.4860     148.089087       1.21814
   6     533.0      400.0154       44.4566      495.9006      540.3573     140.341851       1.24628
   5     589.8      399.7967       48.3309      483.0788      531.4097     131.613024       1.29564
   4     651.6      399.9635       52.3746      468.6907      521.0652     121.101799       1.43744
   3     718.7      400.8484       56.5795      453.2257      509.8053     108.956896       1.52628
   2     792.3      347.9581      418.5798       18.4765      437.0563      89.098225       2.27757
   1     891.5      329.5773      400.4898        2.1385      402.6283      73.050991       1.36554
   0    1013.0      334.2534      388.4428        2.0112      390.4540      56.200656       1.17001



 Wavenumbers:  2600. -  3250. cm-1, ATM      1
 LEVEL PRESSURE   UPWARD FLUX   DIFDOWN FLUX  DIRDOWN FLUX  DOWNWARD FLUX   NET FLUX    HEATING RATE
          mb          W/m2          W/m2          W/m2        W/m2          W/m2       degree/day
  51    .06700        0.2359        0.0000        5.4450        5.4450       5.209176       0.00000
  50    .07753        0.2359        0.0000        5.4450        5.4450       5.209168       0.00640
  49    .09103        0.2359        0.0000        5.4450        5.4450       5.209158       0.00627
  48    0.1069        0.2359        0.0000        5.4450        5.4450       5.209147       0.00613
  47    0.1255        0.2359        0.0000        5.4450        5.4450       5.209133       0.00599
  46    0.1487        0.2359        0.0000        5.4450        5.4450       5.209117       0.00608
  45    0.1794        0.2359        0.0000        5.4450        5.4450       5.209094       0.00625
  44    0.2165        0.2359        0.0000        5.4449        5.4449       5.209067       0.00612
  43    0.2613        0.2359        0.0000        5.4449        5.4449       5.209035       0.00600
  42    0.3336        0.2359        0.0000        5.4448        5.4448       5.208982       0.00617
  41    0.4307        0.2359        0.0000        5.4448        5.4448       5.208911       0.00620
  40    0.5894        0.2359        0.0000        5.4446        5.4446       5.208791       0.00637
  39     1.339        0.2359        0.0000        5.4439        5.4439       5.208084       0.00797
  38     1.782        0.2359        0.0000        5.4434        5.4434       5.207541       0.01034
  37     2.292        0.2359        0.0000        5.4427        5.4427       5.206825       0.01186
  36     2.964        0.2359        0.0000        5.4416        5.4416       5.205786       0.01304
  35     3.853        0.2359        0.0000        5.4402        5.4402       5.204309       0.01402
  34     5.035        0.2359        0.0000        5.4381        5.4381       5.202253       0.01468
  33     6.613        0.2359        0.0000        5.4353        5.4353       5.199472       0.01487
  32     8.786        0.2359        0.0000        5.4317        5.4317       5.195840       0.01411
  31     11.80        0.2359        0.0000        5.4269        5.4269       5.191060       0.01338
  30     15.07        0.2359        0.0000        5.4224        5.4224       5.186533       0.01169
  29     18.79        0.2359        0.0000        5.4180        5.4180       5.182121       0.01000
  28     23.16        0.2359        0.0000        5.4135        5.4135       5.177635       0.00867
  27     28.12        0.2359        0.0000        5.4088        5.4088       5.172987       0.00790
  26     33.73        0.2359        0.0000        5.4036        5.4036       5.167746       0.00788
  25     40.54        0.2359        0.0000        5.3966        5.3967       5.160803       0.00861
  24     48.69        0.2359        0.0000        5.3872        5.3872       5.151325       0.00981
  23     57.69        0.2359        0.0000        5.3754        5.3754       5.139538       0.01105
  22     68.43        0.2359        0.0000        5.3599        5.3599       5.124047       0.01218
  21     81.20        0.2359        0.0000        5.3401        5.3401       5.104209       0.01311
  20     96.49        0.2359        0.0000        5.3155        5.3155       5.079636       0.01356
  19     114.6        0.2359        0.0000        5.2853        5.2853       5.049430       0.01410
  18     136.5        0.2360        0.0001        5.2504        5.2505       5.014509       0.01343
  17     162.9        0.2360        0.0001        5.2111        5.2111       4.975146       0.01258
  16     196.4        0.2361        0.0001        5.1640        5.1641       4.928022       0.01186
  15     218.7        0.2362        0.0001        5.1331        5.1332       4.897017       0.01177
  14     243.0        0.2363        0.0001        5.0962        5.0963       4.859992       0.01284
  13     269.0        0.2365        0.0001        5.0511        5.0512       4.814652       0.01471
  12     297.5        0.2369        0.0001        4.9956        4.9957       4.758829       0.01656
  11     328.5        0.2374        0.0001        4.9304        4.9305       4.693116       0.01787
  10     361.9        0.2381        0.0001        4.8511        4.8512       4.613170       0.02023
   9     398.1        0.2390        0.0001        4.7507        4.7508       4.511806       0.02362
   8     437.6        0.2404        0.0001        4.6220        4.6222       4.381813       0.02779
   7     480.5        0.2423        0.0002        4.4625        4.4626       4.220349       0.03171
   6     533.0        0.2455        0.0002        4.2460        4.2462       4.000734       0.03533
   5     589.8        0.2505        0.0002        3.9954        3.9956       3.745120       0.03794
   4     651.6        0.2590        0.0002        3.7089        3.7090       3.450038       0.04035
   3     718.7        0.2740        0.0002        3.4018        3.4020       3.128039       0.04047
   2     792.3        0.0492        0.8010        0.0977        0.8987       0.849439       0.26133
   1     891.5        0.0020        0.3408        0.0083        0.3491       0.347050       0.04275
   0    1013.0        0.0023        0.2770        0.0067        0.2837       0.281389       0.00456



 Wavenumbers:  3250. -  4000. cm-1, ATM      1
 LEVEL PRESSURE   UPWARD FLUX   DIFDOWN FLUX  DIRDOWN FLUX  DOWNWARD FLUX   NET FLUX    HEATING RATE
          mb          W/m2          W/m2          W/m2        W/m2          W/m2       degree/day
  51    .06700        0.0126        0.0000        9.1795        9.1795       9.166888       0.00000
  50    .07753        0.0126        0.0000        9.1747        9.1747       9.162046       3.88148
  49    .09103        0.0126        0.0000        9.1713        9.1713       9.158658       2.11747
  48    0.1069        0.0126        0.0000        9.1688        9.1688       9.156133       1.34402
  47    0.1255        0.0126        0.0000        9.1665        9.1665       9.153874       1.02422
  46    0.1487        0.0126        0.0000        9.1641        9.1641       9.151432       0.88991
  45    0.1794        0.0126        0.0000        9.1612        9.1612       9.148554       0.79008
  44    0.2165        0.0126        0.0000        9.1583        9.1583       9.145634       0.66430
  43    0.2613        0.0126        0.0000        9.1553        9.1553       9.142661       0.56041
  42    0.3336        0.0126        0.0000        9.1511        9.1511       9.138482       0.48723
  41    0.4307        0.0126        0.0000        9.1464        9.1464       9.133714       0.41459
  40    0.5894        0.0126        0.0000        9.1393        9.1394       9.126708       0.37255
  39     1.339        0.0126        0.0000        9.1127        9.1127       9.100095       0.29962
  38     1.782        0.0126        0.0000        9.1011        9.1011       9.088507       0.22062
  37     2.292        0.0126        0.0000        9.0901        9.0901       9.077440       0.18329
  36     2.964        0.0126        0.0000        9.0776        9.0776       9.065010       0.15603
  35     3.853        0.0126        0.0000        9.0629        9.0629       9.050220       0.14036
  34     5.035        0.0126        0.0000        9.0441        9.0441       9.031481       0.13386
  33     6.613        0.0126        0.0000        9.0191        9.0191       9.006479       0.13366
  32     8.786        0.0126        0.0000        8.9843        8.9843       8.971696       0.13509
  31     11.80        0.0126        0.0000        8.9327        8.9327       8.920079       0.14451
  30     15.07        0.0126        0.0000        8.8758        8.8759       8.863234       0.14676
  29     18.79        0.0126        0.0000        8.8110        8.8110       8.798407       0.14698
  28     23.16        0.0126        0.0000        8.7365        8.7366       8.723962       0.14395
  27     28.12        0.0126        0.0000        8.6554        8.6555       8.642849       0.13789
  26     33.73        0.0126        0.0000        8.5719        8.5719       8.559350       0.12554
  25     40.54        0.0126        0.0001        8.4812        8.4812       8.468626       0.11255
  24     48.69        0.0126        0.0001        8.3838        8.3839       8.371325       0.10069
  23     57.69        0.0126        0.0001        8.2861        8.2862       8.273589       0.09161
  22     68.43        0.0126        0.0001        8.1751        8.1751       8.162593       0.08726
  21     81.20        0.0125        0.0001        8.0457        8.0458       8.033235       0.08548
  20     96.49        0.0125        0.0001        7.8949        7.8950       7.882531       0.08318
  19     114.6        0.0125        0.0001        7.7162        7.7163       7.703822       0.08344
  18     136.5        0.0125        0.0002        7.5193        7.5194       7.506978       0.07569
  17     162.9        0.0124        0.0002        7.2913        7.2915       7.279086       0.07284
  16     196.4        0.0124        0.0002        6.9660        6.9662       6.953813       0.08188
  15     218.7        0.0124        0.0002        6.6648        6.6650       6.652622       0.11435
  14     243.0        0.0124        0.0002        6.2619        6.2622       6.249822       0.13970
  13     269.0        0.0124        0.0003        5.7576        5.7579       5.745510       0.16360
  12     297.5        0.0124        0.0003        5.1719        5.1722       5.159792       0.17372
  11     328.5        0.0124        0.0002        4.5757        4.5760       4.563586       0.16211
  10     361.9        0.0125        0.0002        3.9995        3.9998       3.987332       0.14580
   9     398.1        0.0126        0.0002        3.4655        3.4657       3.453147       0.12445
   8     437.6        0.0128        0.0002        2.9740        2.9742       2.961485       0.10512
   7     480.5        0.0131        0.0002        2.5307        2.5309       2.517765       0.08714
   6     533.0        0.0138        0.0002        2.0614        2.0616       2.047797       0.07560
   5     589.8        0.0150        0.0002        1.6150        1.6151       1.600128       0.06645
   4     651.6        0.0176        0.0001        1.1565        1.1566       1.138937       0.06307
   3     718.7        0.0239        0.0001        0.7390        0.7391       0.715192       0.05325
   2     792.3        0.0020        0.0979        0.0140        0.1119       0.109945       0.06941
   1     891.5        0.0000        0.0140        0.0004        0.0145       0.014453       0.00813
   0    1013.0        0.0000        0.0013        0.0000        0.0013       0.001278       0.00091



 Wavenumbers:  4000. -  4650. cm-1, ATM      1
 LEVEL PRESSURE   UPWARD FLUX   DIFDOWN FLUX  DIRDOWN FLUX  DOWNWARD FLUX   NET FLUX    HEATING RATE
          mb          W/m2          W/m2          W/m2        W/m2          W/m2       degree/day
  51    .06700        2.3087        0.0000       10.7795       10.7795       8.470854       0.00000
  50    .07753        2.3087        0.0000       10.7795       10.7795       8.470853       0.00080
  49    .09103        2.3087        0.0000       10.7795       10.7795       8.470852       0.00078
  48    0.1069        2.3087        0.0000       10.7795       10.7795       8.470850       0.00077
  47    0.1255        2.3087        0.0000       10.7795       10.7795       8.470848       0.00075
  46    0.1487        2.3087        0.0000       10.7795       10.7795       8.470846       0.00076
  45    0.1794        2.3087        0.0000       10.7795       10.7795       8.470844       0.00078
  44    0.2165        2.3087        0.0000       10.7795       10.7795       8.470840       0.00076
  43    0.2613        2.3087        0.0000       10.7795       10.7795       8.470836       0.00075
  42    0.3336        2.3087        0.0000       10.7795       10.7795       8.470830       0.00077
  41    0.4307        2.3087        0.0000       10.7795       10.7795       8.470821       0.00077
  40    0.5894        2.3087        0.0000       10.7795       10.7795       8.470806       0.00080
  39     1.339        2.3087        0.0000       10.7794       10.7794       8.470716       0.00101
  38     1.782        2.3087        0.0000       10.7793       10.7793       8.470646       0.00133
  37     2.292        2.3087        0.0000       10.7792       10.7792       8.470552       0.00156
  36     2.964        2.3087        0.0000       10.7791       10.7791       8.470412       0.00176
  35     3.853        2.3087        0.0000       10.7789       10.7789       8.470203       0.00198
  34     5.035        2.3087        0.0000       10.7786       10.7786       8.469896       0.00220
  33     6.613        2.3087        0.0000       10.7781       10.7781       8.469444       0.00242
  32     8.786        2.3087        0.0000       10.7774       10.7774       8.468776       0.00259
  31     11.80        2.3087        0.0000       10.7763       10.7764       8.467727       0.00294
  30     15.07        2.3087        0.0001       10.7751       10.7752       8.466496       0.00318
  29     18.79        2.3087        0.0001       10.7736       10.7737       8.465008       0.00337
  28     23.16        2.3086        0.0001       10.7717       10.7718       8.463160       0.00357
  27     28.12        2.3086        0.0001       10.7695       10.7696       8.460922       0.00380
  26     33.73        2.3086        0.0001       10.7667       10.7668       8.458163       0.00415
  25     40.54        2.3087        0.0002       10.7629       10.7631       8.454421       0.00464
  24     48.69        2.3087        0.0002       10.7579       10.7581       8.449435       0.00516
  23     57.69        2.3087        0.0002       10.7520       10.7522       8.443524       0.00554
  22     68.43        2.3088        0.0003       10.7446       10.7449       8.436116       0.00582
  21     81.20        2.3088        0.0003       10.7355       10.7358       8.426994       0.00603
  20     96.49        2.3090        0.0004       10.7245       10.7249       8.415897       0.00612
  19     114.6        2.3092        0.0005       10.7107       10.7112       8.402025       0.00648
  18     136.5        2.3094        0.0005       10.6942       10.6947       8.385318       0.00642
  17     162.9        2.3098        0.0006       10.6740       10.6747       8.364849       0.00654
  16     196.4        2.3105        0.0008       10.6464       10.6471       8.336648       0.00710
  15     218.7        2.3111        0.0009       10.6255       10.6263       8.315228       0.00813
  14     243.0        2.3120        0.0010       10.5980       10.5990       8.287038       0.00978
  13     269.0        2.3133        0.0011       10.5611       10.5622       8.248877       0.01238
  12     297.5        2.3152        0.0012       10.5119       10.5131       8.197931       0.01511
  11     328.5        2.3178        0.0013       10.4499       10.4512       8.133355       0.01756
  10     361.9        2.3213        0.0014       10.3702       10.3716       8.050316       0.02101
   9     398.1        2.3257        0.0015       10.2678       10.2693       7.943631       0.02486
   8     437.6        2.3314        0.0017       10.1390       10.1407       7.809229       0.02874
   7     480.5        2.3390        0.0018        9.9877        9.9895       7.650529       0.03117
   6     533.0        2.3509        0.0020        9.7937        9.7957       7.444721       0.03311
   5     589.8        2.3689        0.0021        9.5752        9.5773       7.208454       0.03507
   4     651.6        2.3992        0.0023        9.2958        9.2981       6.898926       0.04233
   3     718.7        2.4535        0.0025        8.9267        8.9292       6.475666       0.05319
   2     792.3        0.9020        5.5989        0.2954        5.8944       4.992376       0.17012
   1     891.5        0.2467        4.3556        0.0291        4.3847       4.138030       0.07270
   0    1013.0        0.2631        3.9723        0.0264        3.9987       3.735592       0.02794



 Wavenumbers:  4650. -  5150. cm-1, ATM      1
 LEVEL PRESSURE   UPWARD FLUX   DIFDOWN FLUX  DIRDOWN FLUX  DOWNWARD FLUX   NET FLUX    HEATING RATE
          mb          W/m2          W/m2          W/m2        W/m2          W/m2       degree/day
  51    .06700        1.5181        0.0000       10.2033       10.2033       8.685288       0.00000
  50    .07753        1.5181        0.0000       10.2031       10.2031       8.685052       0.18901
  49    .09103        1.5181        0.0000       10.2028       10.2028       8.684757       0.18428
  48    0.1069        1.5181        0.0000       10.2025       10.2025       8.684421       0.17931
  47    0.1255        1.5181        0.0000       10.2021       10.2021       8.684036       0.17426
  46    0.1487        1.5181        0.0000       10.2016       10.2016       8.683555       0.17536
  45    0.1794        1.5181        0.0000       10.2010       10.2010       8.682905       0.17850
  44    0.2165        1.5181        0.0000       10.2002       10.2002       8.682145       0.17277
  43    0.2613        1.5181        0.0000       10.1993       10.1993       8.681260       0.16690
  42    0.3336        1.5181        0.0000       10.1979       10.1979       8.679827       0.16702
  41    0.4307        1.5181        0.0000       10.1960       10.1960       8.677987       0.16002
  40    0.5894        1.5181        0.0000       10.1932       10.1932       8.675113       0.15283
  39     1.339        1.5180        0.0000       10.1816       10.1816       8.663522       0.13050
  38     1.782        1.5180        0.0000       10.1760       10.1760       8.657993       0.10526
  37     2.292        1.5180        0.0000       10.1706       10.1706       8.652536       0.09037
  36     2.964        1.5180        0.0000       10.1646       10.1647       8.646613       0.07435
  35     3.853        1.5180        0.0000       10.1584       10.1584       8.640399       0.05898
  34     5.035        1.5180        0.0000       10.1521       10.1521       8.634063       0.04526
  33     6.613        1.5180        0.0000       10.1456       10.1456       8.627605       0.03452
  32     8.786        1.5180        0.0001       10.1386       10.1386       8.620593       0.02723
  31     11.80        1.5180        0.0001       10.1295       10.1296       8.611551       0.02532
  30     15.07        1.5180        0.0001       10.1196       10.1197       8.601669       0.02551
  29     18.79        1.5180        0.0001       10.1076       10.1077       8.589657       0.02724
  28     23.16        1.5180        0.0001       10.0923       10.0924       8.574345       0.02961
  27     28.12        1.5181        0.0002       10.0731       10.0733       8.555240       0.03248
  26     33.73        1.5181        0.0002       10.0500       10.0502       8.532132       0.03474
  25     40.54        1.5182        0.0002       10.0201       10.0204       8.502207       0.03712
  24     48.69        1.5182        0.0003        9.9820        9.9822       8.464005       0.03953
  23     57.69        1.5184        0.0003        9.9384        9.9388       8.420425       0.04085
  22     68.43        1.5185        0.0004        9.8858        9.8862       8.367634       0.04150
  21     81.20        1.5188        0.0005        9.8234        9.8239       8.305160       0.04128
  20     96.49        1.5191        0.0006        9.7518        9.7523       8.233226       0.03970
  19     114.6        1.5196        0.0007        9.6719        9.6726       8.153010       0.03746
  18     136.5        1.5202        0.0008        9.5858        9.5866       8.066341       0.03333
  17     162.9        1.5212        0.0009        9.4940        9.4950       7.973783       0.02959
  16     196.4        1.5227        0.0011        9.3883        9.3894       7.866729       0.02695
  15     218.7        1.5238        0.0012        9.3229        9.3241       7.800323       0.02521
  14     243.0        1.5253        0.0013        9.2520        9.2533       7.727994       0.02509
  13     269.0        1.5274        0.0015        9.1717        9.1731       7.645777       0.02667
  12     297.5        1.5302        0.0016        9.0763        9.0779       7.547694       0.02909
  11     328.5        1.5339        0.0018        8.9650        8.9667       7.432814       0.03124
  10     361.9        1.5387        0.0019        8.8349        8.8368       7.298097       0.03408
   9     398.1        1.5450        0.0021        8.6820        8.6841       7.139061       0.03705
   8     437.6        1.5533        0.0023        8.5028        8.5051       6.951764       0.04005
   7     480.5        1.5641        0.0024        8.2948        8.2972       6.733121       0.04294
   6     533.0        1.5808        0.0026        8.0209        8.0235       6.442685       0.04672
   5     589.8        1.6044        0.0028        7.7063        7.7091       6.104711       0.05017
   4     651.6        1.6402        0.0030        7.3412        7.3442       5.703971       0.05480
   3     718.7        1.6968        0.0031        6.9387        6.9418       5.245001       0.05768
   2     792.3        0.5400        4.1947        0.2337        4.4284       3.888339       0.15559
   1     891.5        0.0476        3.1803        0.0232        3.2035       3.155962       0.06232
   0    1013.0        0.0515        2.8568        0.0207        2.8775       2.825978       0.02291



 Wavenumbers:  5150. -  6150. cm-1, ATM      1
 LEVEL PRESSURE   UPWARD FLUX   DIFDOWN FLUX  DIRDOWN FLUX  DOWNWARD FLUX   NET FLUX    HEATING RATE
          mb          W/m2          W/m2          W/m2        W/m2          W/m2       degree/day
  51    .06700        4.4720        0.0000       25.5798       25.5798      21.107852       0.00000
  50    .07753        4.4720        0.0000       25.5798       25.5798      21.107812       0.03158
  49    .09103        4.4720        0.0000       25.5797       25.5797      21.107761       0.03207
  48    0.1069        4.4720        0.0000       25.5797       25.5797      21.107700       0.03258
  47    0.1255        4.4720        0.0000       25.5796       25.5796      21.107627       0.03308
  46    0.1487        4.4720        0.0000       25.5795       25.5795      21.107531       0.03485
  45    0.1794        4.4720        0.0000       25.5794       25.5794      21.107396       0.03709
  44    0.2165        4.4720        0.0000       25.5792       25.5792      21.107231       0.03766
  43    0.2613        4.4720        0.0000       25.5790       25.5790      21.107028       0.03823
  42    0.3336        4.4720        0.0000       25.5786       25.5786      21.106681       0.04040
  41    0.4307        4.4720        0.0000       25.5782       25.5782      21.106210       0.04094
  40    0.5894        4.4720        0.0000       25.5774       25.5774      21.105422       0.04195
  39     1.339        4.4719        0.0000       25.5735       25.5736      21.101622       0.04278
  38     1.782        4.4719        0.0000       25.5713       25.5713      21.099410       0.04211
  37     2.292        4.4719        0.0001       25.5688       25.5688      21.096906       0.04146
  36     2.964        4.4719        0.0001       25.5656       25.5656      21.093726       0.03992
  35     3.853        4.4719        0.0001       25.5615       25.5616      21.089684       0.03836
  34     5.035        4.4719        0.0001       25.5562       25.5564      21.084480       0.03718
  33     6.613        4.4719        0.0002       25.5494       25.5496      21.077729       0.03609
  32     8.786        4.4719        0.0002       25.5406       25.5408      21.068982       0.03397
  31     11.80        4.4718        0.0003       25.5287       25.5290      21.057153       0.03312
  30     15.07        4.4718        0.0004       25.5167       25.5171      21.045292       0.03062
  29     18.79        4.4718        0.0005       25.5042       25.5047      21.032895       0.02811
  28     23.16        4.4718        0.0006       25.4907       25.4913      21.019542       0.02582
  27     28.12        4.4718        0.0008       25.4764       25.4772      21.005465       0.02393
  26     33.73        4.4717        0.0009       25.4620       25.4630      20.991203       0.02144
  25     40.54        4.4718        0.0011       25.4463       25.4474      20.975612       0.01934
  24     48.69        4.4718        0.0013       25.4294       25.4307      20.958924       0.01727
  23     57.69        4.4718        0.0016       25.4126       25.4142      20.942362       0.01552
  22     68.43        4.4719        0.0019       25.3944       25.3963      20.924386       0.01413
  21     81.20        4.4720        0.0022       25.3744       25.3767      20.904612       0.01307
  20     96.49        4.4722        0.0027       25.3519       25.3546      20.882395       0.01226
  19     114.6        4.4724        0.0032       25.3262       25.3293      20.856920       0.01189
  18     136.5        4.4727        0.0037       25.2962       25.2999      20.827271       0.01140
  17     162.9        4.4730        0.0044       25.2521       25.2566      20.783533       0.01398
  16     196.4        4.4735        0.0054       25.1593       25.1646      20.691123       0.02326
  15     218.7        4.4739        0.0059       25.0159       25.0219      20.547931       0.05436
  14     243.0        4.4745        0.0065       24.7089       24.7154      20.240952       0.10647
  13     269.0        4.4753        0.0071       24.1619       24.1689      19.693664       0.17754
  12     297.5        4.4765        0.0077       23.4544       23.4620      18.985535       0.21002
  11     328.5        4.4782        0.0082       22.7355       22.7437      18.265475       0.19578
  10     361.9        4.4806        0.0088       21.9224       21.9312      17.450591       0.20617
   9     398.1        4.4840        0.0093       20.9939       21.0032      16.519200       0.21699
   8     437.6        4.4890        0.0098       19.9833       19.9931      15.504145       0.21703
   7     480.5        4.4961        0.0103       18.9483       18.9586      14.462439       0.20459
   6     533.0        4.5087        0.0108       17.7796       17.7904      13.281689       0.18995
   5     589.8        4.5298        0.0113       16.6726       16.6839      12.154063       0.16738
   4     651.6        4.5703        0.0118       15.6343       15.6461      11.075846       0.14745
   3     718.7        4.6512        0.0124       14.7738       14.7862      10.135030       0.11823
   2     792.3        1.8420        9.9993        0.5194       10.5187       8.676688       0.16726
   1     891.5        0.5932        8.2305        0.0538        8.2843       7.691135       0.08387
   0    1013.0        0.6199        7.6038        0.0495        7.6534       7.033437       0.04567



 Wavenumbers:  6150. -  7700. cm-1, ATM      1
 LEVEL PRESSURE   UPWARD FLUX   DIFDOWN FLUX  DIRDOWN FLUX  DOWNWARD FLUX   NET FLUX    HEATING RATE
          mb          W/m2          W/m2          W/m2        W/m2          W/m2       degree/day
  51    .06700        7.9248        0.0000       47.3109       47.3109      39.386108       0.00000
  50    .07753        7.9248        0.0000       47.3108       47.3108      39.386051       0.04553
  49    .09103        7.9247        0.0000       47.3107       47.3107      39.385978       0.04583
  48    0.1069        7.9247        0.0000       47.3106       47.3106      39.385891       0.04614
  47    0.1255        7.9247        0.0000       47.3105       47.3105      39.385789       0.04645
  46    0.1487        7.9247        0.0000       47.3104       47.3104      39.385656       0.04852
  45    0.1794        7.9247        0.0000       47.3102       47.3102      39.385469       0.05127
  44    0.2165        7.9247        0.0000       47.3100       47.3100      39.385242       0.05167
  43    0.2613        7.9247        0.0000       47.3097       47.3097      39.384965       0.05210
  42    0.3336        7.9247        0.0000       47.3092       47.3092      39.384496       0.05471
  41    0.4307        7.9247        0.0000       47.3085       47.3086      39.383861       0.05521
  40    0.5894        7.9247        0.0001       47.3074       47.3075      39.382802       0.05633
  39     1.339        7.9246        0.0001       47.3022       47.3023      39.377710       0.05733
  38     1.782        7.9246        0.0002       47.2991       47.2993      39.374739       0.05655
  37     2.292        7.9245        0.0003       47.2956       47.2959      39.371364       0.05591
  36     2.964        7.9245        0.0003       47.2912       47.2915      39.367045       0.05421
  35     3.853        7.9244        0.0004       47.2855       47.2859      39.361511       0.05252
  34     5.035        7.9243        0.0006       47.2780       47.2786      39.354330       0.05129
  33     6.613        7.9241        0.0008       47.2683       47.2691      39.344943       0.05019
  32     8.786        7.9240        0.0010       47.2556       47.2566      39.332643       0.04777
  31     11.80        7.9237        0.0014       47.2380       47.2394      39.315740       0.04732
  30     15.07        7.9234        0.0018       47.2201       47.2218      39.298452       0.04463
  29     18.79        7.9230        0.0022       47.2008       47.2030      39.279973       0.04190
  28     23.16        7.9226        0.0027       47.1795       47.1822      39.259583       0.03943
  27     28.12        7.9222        0.0033       47.1565       47.1598      39.237589       0.03739
  26     33.73        7.9217        0.0039       47.1324       47.1363      39.214668       0.03446
  25     40.54        7.9210        0.0047       47.1054       47.1101      39.189032       0.03180
  24     48.69        7.9203        0.0057       47.0754       47.0811      39.160779       0.02924
  23     57.69        7.9195        0.0067       47.0449       47.0516      39.132158       0.02683
  22     68.43        7.9185        0.0079       47.0110       47.0189      39.100422       0.02495
  21     81.20        7.9174        0.0094       46.9729       46.9823      39.064930       0.02345
  20     96.49        7.9160        0.0112       46.9294       46.9406      39.024592       0.02226
  19     114.6        7.9143        0.0133       46.8790       46.8923      38.977962       0.02177
  18     136.5        7.9124        0.0158       46.8200       46.8357      38.923345       0.02100
  17     162.9        7.9101        0.0187       46.7361       46.7548      38.844735       0.02513
  16     196.4        7.9072        0.0225       46.5703       46.5928      38.685566       0.04006
  15     218.7        7.9055        0.0250       46.3473       46.3723      38.466838       0.08304
  14     243.0        7.9038        0.0275       45.9299       45.9574      38.053657       0.14330
  13     269.0        7.9024        0.0301       45.1708       45.2009      37.298449       0.24499
  12     297.5        7.9020        0.0326       44.0115       44.0440      36.142084       0.34297
  11     328.5        7.9026        0.0351       42.7242       42.7593      34.856653       0.34951
  10     361.9        7.9051        0.0376       41.3539       41.3915      33.486406       0.34669
   9     398.1        7.9104        0.0400       39.7953       39.8353      31.924836       0.36381
   8     437.6        7.9204        0.0422       37.9948       38.0370      30.116545       0.38662
   7     480.5        7.9375        0.0443       36.0647       36.1090      28.171551       0.38199
   6     533.0        7.9708        0.0464       33.7773       33.8237      25.852880       0.37300
   5     589.8        8.0313        0.0483       31.4082       31.4565      23.425157       0.36035
   4     651.6        8.1534        0.0496       28.8834       28.9330      20.779654       0.36178
   3     718.7        8.4051        0.0507       26.4104       26.4611      18.055987       0.34229
   2     792.3        3.7176       17.7221        0.9355       18.6576      14.940002       0.35737
   1     891.5        1.7501       14.2133        0.0951       14.3084      12.558374       0.20267
   0    1013.0        1.8857       12.5467        0.0834       12.6301      10.744425       0.12595



 Wavenumbers:  7700. -  8050. cm-1, ATM      1
 LEVEL PRESSURE   UPWARD FLUX   DIFDOWN FLUX  DIRDOWN FLUX  DOWNWARD FLUX   NET FLUX    HEATING RATE
          mb          W/m2          W/m2          W/m2        W/m2          W/m2       degree/day
  51    .06700        5.0315        0.0000       11.1810       11.1810       6.149456       0.00000
  50    .07753        5.0315        0.0000       11.1809       11.1809       6.149435       0.01703
  49    .09103        5.0315        0.0000       11.1809       11.1809       6.149408       0.01669
  48    0.1069        5.0315        0.0000       11.1809       11.1809       6.149377       0.01634
  47    0.1255        5.0315        0.0000       11.1809       11.1809       6.149342       0.01599
  46    0.1487        5.0315        0.0000       11.1808       11.1808       6.149297       0.01623
  45    0.1794        5.0315        0.0000       11.1808       11.1808       6.149237       0.01670
  44    0.2165        5.0316        0.0000       11.1807       11.1807       6.149165       0.01638
  43    0.2613        5.0316        0.0000       11.1806       11.1806       6.149079       0.01607
  42    0.3336        5.0316        0.0000       11.1805       11.1805       6.148938       0.01645
  41    0.4307        5.0316        0.0000       11.1803       11.1804       6.148751       0.01627
  40    0.5894        5.0317        0.0000       11.1801       11.1801       6.148446       0.01625
  39     1.339        5.0319        0.0001       11.1788       11.1789       6.147000       0.01627
  38     1.782        5.0320        0.0001       11.1781       11.1782       6.146151       0.01617
  37     2.292        5.0322        0.0001       11.1772       11.1773       6.145168       0.01628
  36     2.964        5.0324        0.0002       11.1761       11.1762       6.143877       0.01620
  35     3.853        5.0326        0.0002       11.1746       11.1748       6.142173       0.01618
  34     5.035        5.0330        0.0003       11.1726       11.1729       6.139908       0.01618
  33     6.613        5.0334        0.0003       11.1700       11.1703       6.136884       0.01617
  32     8.786        5.0340        0.0005       11.1664       11.1669       6.132810       0.01582
  31     11.80        5.0349        0.0006       11.1613       11.1619       6.126986       0.01631
  30     15.07        5.0359        0.0008       11.1558       11.1566       6.120739       0.01613
  29     18.79        5.0370        0.0010       11.1497       11.1507       6.113690       0.01598
  28     23.16        5.0383        0.0012       11.1425       11.1437       6.105467       0.01590
  27     28.12        5.0397        0.0015       11.1343       11.1358       6.096080       0.01596
  26     33.73        5.0414        0.0018       11.1252       11.1270       6.085597       0.01576
  25     40.54        5.0434        0.0021       11.1142       11.1163       6.072962       0.01567
  24     48.69        5.0458        0.0026       11.1010       11.1036       6.057777       0.01571
  23     57.69        5.0485        0.0030       11.0866       11.0896       6.041157       0.01558
  22     68.43        5.0517        0.0036       11.0695       11.0731       6.021446       0.01550
  21     81.20        5.0555        0.0043       11.0494       11.0536       5.998082       0.01544
  20     96.49        5.0602        0.0051       11.0255       11.0306       5.970411       0.01527
  19     114.6        5.0657        0.0060       10.9975       11.0035       5.937791       0.01523
  18     136.5        5.0724        0.0071       10.9648       10.9719       5.899448       0.01474
  17     162.9        5.0805        0.0084       10.9263       10.9347       5.854220       0.01446
  16     196.4        5.0912        0.0102       10.8773       10.8874       5.796225       0.01460
  15     218.7        5.0983        0.0113       10.8455       10.8568       5.758488       0.01433
  14     243.0        5.1062        0.0125       10.8114       10.8240       5.717722       0.01414
  13     269.0        5.1149        0.0138       10.7749       10.7887       5.673759       0.01426
  12     297.5        5.1246        0.0153       10.7357       10.7510       5.626372       0.01405
  11     328.5        5.1353        0.0168       10.6937       10.7105       5.575250       0.01390
  10     361.9        5.1472        0.0185       10.6489       10.6673       5.520160       0.01394
   9     398.1        5.1604        0.0202       10.6008       10.6210       5.460606       0.01387
   8     437.6        5.1752        0.0221       10.5491       10.5712       5.395972       0.01382
   7     480.5        5.1919        0.0242       10.4934       10.5176       5.325676       0.01381
   6     533.0        5.2138        0.0267       10.4243       10.4510       5.237211       0.01423
   5     589.8        5.2393        0.0294       10.3479       10.3773       5.138009       0.01472
   4     651.6        5.2700        0.0323       10.2613       10.2936       5.023629       0.01564
   3     718.7        5.3078        0.0354       10.1618       10.1971       4.889320       0.01688
   2     792.3        3.6824        7.8259        0.3994        8.2253       4.542895       0.03973
   1     891.5        2.9913        7.2049        0.0457        7.2506       4.259333       0.02413
   0    1013.0        3.0553        7.0378        0.0446        7.0823       4.027018       0.01613



 Wavenumbers:  8050. - 12850. cm-1, ATM      1
 LEVEL PRESSURE   UPWARD FLUX   DIFDOWN FLUX  DIRDOWN FLUX  DOWNWARD FLUX   NET FLUX    HEATING RATE
          mb          W/m2          W/m2          W/m2        W/m2          W/m2       degree/day
  51    .06700       92.6213        0.0000      156.5418      156.5418      63.920465       0.00000
  50    .07753       92.6213        0.0000      156.5417      156.5417      63.920465       0.00000
  49    .09103       92.6213        0.0001      156.5417      156.5417      63.920465      -0.00000
  48    0.1069       92.6212        0.0001      156.5416      156.5417      63.920465      -0.00000
  47    0.1255       92.6212        0.0002      156.5415      156.5417      63.920465      -0.00000
  46    0.1487       92.6212        0.0002      156.5414      156.5417      63.920465       0.00000
  45    0.1794       92.6212        0.0003      156.5413      156.5416      63.920465      -0.00000
  44    0.2165       92.6211        0.0004      156.5412      156.5416      63.920465      -0.00000
  43    0.2613       92.6211        0.0005      156.5410      156.5415      63.920465      -0.00000
  42    0.3336       92.6210        0.0008      156.5407      156.5414      63.920465       0.00000
  41    0.4307       92.6209        0.0010      156.5403      156.5413      63.920465      -0.00000
  40    0.5894       92.6207        0.0015      156.5397      156.5412      63.920465       0.00000
  39     1.339       92.6199        0.0036      156.5367      156.5403      63.920465      -0.00000
  38     1.782       92.6194        0.0048      156.5350      156.5398      63.920465      -0.00000
  37     2.292       92.6188        0.0063      156.5330      156.5393      63.920465      -0.00000
  36     2.964       92.6180        0.0082      156.5303      156.5385      63.920465       0.00000
  35     3.853       92.6170        0.0107      156.5268      156.5375      63.920465       0.00000
  34     5.035       92.6157        0.0140      156.5222      156.5362      63.920465      -0.00000
  33     6.613       92.6139        0.0184      156.5160      156.5344      63.920465       0.00000
  32     8.786       92.6116        0.0244      156.5076      156.5320      63.920465      -0.00000
  31     11.80       92.6082        0.0330      156.4957      156.5286      63.920465       0.00000
  30     15.07       92.6045        0.0422      156.4828      156.5249      63.920465       0.00000
  29     18.79       92.6003        0.0526      156.4682      156.5208      63.920465       0.00000
  28     23.16       92.5955        0.0647      156.4512      156.5159      63.920465      -0.00000
  27     28.12       92.5899        0.0787      156.4317      156.5104      63.920465      -0.00000
  26     33.73       92.5837        0.0943      156.4099      156.5042      63.920465       0.00000
  25     40.54       92.5762        0.1132      156.3834      156.4966      63.920465       0.00000
  24     48.69       92.5671        0.1360      156.3515      156.4875      63.920465      -0.00000
  23     57.69       92.5571        0.1611      156.3164      156.4775      63.920465       0.00000
  22     68.43       92.5451        0.1910      156.2746      156.4656      63.920465       0.00000
  21     81.20       92.5309        0.2268      156.2246      156.4513      63.920465      -0.00000
  20     96.49       92.5139        0.2694      156.1649      156.4343      63.920465       0.00000
  19     114.6       92.4938        0.3201      156.0879      156.4081      63.914238       0.00291
  18     136.5       92.4700        0.3803      155.9962      156.3765      63.906512       0.00297
  17     162.9       92.4416        0.4522      155.8831      156.3353      63.893692       0.00410
  16     196.4       92.4048        0.5457      155.7199      156.2657      63.860834       0.00827
  15     218.7       92.3809        0.6072      155.5733      156.1805      63.799543       0.02327
  14     243.0       92.3558        0.6740      155.3367      156.0107      63.654850       0.05018
  13     269.0       92.3306        0.7463      154.9514      155.6977      63.367082       0.09335
  12     297.5       92.3072        0.8241      154.3896      155.2137      62.906438       0.13662
  11     328.5       92.2869        0.9079      153.7151      154.6230      62.336076       0.15508
  10     361.9       92.2724        0.9979      152.9087      153.9067      61.634245       0.17757
   9     398.1       92.2681        1.0942      151.8986      152.9928      60.724688       0.21191
   8     437.6       92.2817        1.1965      150.6031      151.7997      59.518013       0.25799
   7     480.5       92.3225        1.3047      149.0014      150.3061      57.983629       0.30135
   6     533.0       92.4227        1.4355      146.7375      148.1731      55.750367       0.35926
   5     589.8       92.6243        1.5725      143.8730      145.4455      52.821242       0.43478
   4     651.6       93.0434        1.7129      140.0955      141.8084      48.764991       0.55470
   3     718.7       93.8604        1.8552      135.5278      137.3829      43.522537       0.65883
   2     792.3       76.4299      108.4855        5.3949      113.8804      37.450547       0.69639
   1     891.5       70.8186      100.2031        0.6071      100.8102      29.991666       0.63471
   0    1013.0       74.0505       93.8184        0.5615       94.3799      20.329440       0.67090



 Wavenumbers: 12850. - 16000. cm-1, ATM      1
 LEVEL PRESSURE   UPWARD FLUX   DIFDOWN FLUX  DIRDOWN FLUX  DOWNWARD FLUX   NET FLUX    HEATING RATE
          mb          W/m2          W/m2          W/m2        W/m2          W/m2       degree/day
  51    .06700       78.9260        0.0000       98.0872       98.0872      19.161264       0.00000
  50    .07753       78.9260        0.0001       98.0864       98.0864      19.160472       0.63467
  49    .09103       78.9260        0.0002       98.0853       98.0855      19.159477       0.62162
  48    0.1069       78.9260        0.0003       98.0841       98.0843      19.158334       0.60833
  47    0.1255       78.9260        0.0004       98.0826       98.0830      19.157021       0.59533
  46    0.1487       78.9260        0.0005       98.0809       98.0814      19.155364       0.60417
  45    0.1794       78.9261        0.0007       98.0784       98.0792      19.153109       0.61906
  44    0.2165       78.9261        0.0010       98.0756       98.0766      19.150456       0.60352
  43    0.2613       78.9263        0.0012       98.0723       98.0736      19.147335       0.58820
  42    0.3336       78.9265        0.0017       98.0670       98.0687      19.142241       0.59392
  41    0.4307       78.9269        0.0023       98.0602       98.0625      19.135652       0.57290
  40    0.5894       78.9277        0.0034       98.0496       98.0529      19.125266       0.55232
  39     1.339       78.9344        0.0082       98.0043       98.0125      19.078152       0.53042
  38     1.782       78.9404        0.0110       97.9793       97.9903      19.049834       0.53913
  37     2.292       78.9495        0.0142       97.9498       97.9640      19.014542       0.58453
  36     2.964       78.9644        0.0185       97.9088       97.9273      18.962896       0.64832
  35     3.853       78.9886        0.0242       97.8503       97.8745      18.885959       0.73014
  34     5.035       79.0249        0.0317       97.7680       97.7997      18.774811       0.79399
  33     6.613       79.0756        0.0417       97.6562       97.6979      18.622353       0.81504
  32     8.786       79.1416        0.0552       97.5107       97.5659      18.424338       0.76902
  31     11.80       79.2275        0.0745       97.3179       97.3924      18.164864       0.72644
  30     15.07       79.3099        0.0952       97.1283       97.2235      17.913610       0.64869
  29     18.79       79.3942        0.1186       96.9300       97.0486      17.654434       0.58763
  28     23.16       79.4823        0.1458       96.7166       96.8624      17.380099       0.53048
  27     28.12       79.5711        0.1770       96.4935       96.6705      17.099332       0.47728
  26     33.73       79.6535        0.2119       96.2731       96.4850      16.831483       0.40272
  25     40.54       79.7331        0.2540       96.0408       96.2948      16.561643       0.33477
  24     48.69       79.8099        0.3048       95.7946       96.0994      16.289441       0.28169
  23     57.69       79.8757        0.3606       95.5573       95.9179      16.042226       0.23173
  22     68.43       79.9338        0.4271       95.3106       95.7377      15.803957       0.18731
  21     81.20       79.9754        0.5065       95.0643       95.5708      15.595436       0.13779
  20     96.49       79.9994        0.6011       94.8153       95.4164      15.417009       0.09848
  19     114.6       80.0281        0.7147       94.5411       95.2557      15.227611       0.08844
  18     136.5       80.0508        0.8492       94.2320       95.0813      15.030478       0.07580
  17     162.9       80.0675        1.0095       93.8753       94.8848      14.817353       0.06812
  16     196.4       80.0670        1.2173       93.4347       94.6520      14.584985       0.05849
  15     218.7       80.0589        1.3538       93.1513       94.5051      14.446234       0.05268
  14     243.0       80.0468        1.5022       92.8439       94.3462      14.299352       0.05094
  13     269.0       80.0307        1.6630       92.5111       94.1741      14.143368       0.05060
  12     297.5       80.0113        1.8367       92.1495       93.9862      13.974865       0.04998
  11     328.5       79.9907        2.0245       91.7554       93.7799      13.789165       0.05049
  10     361.9       79.9698        2.2266       91.3262       93.5528      13.583003       0.05216
   9     398.1       79.9502        2.4441       90.8575       93.3016      13.351400       0.05396
   8     437.6       79.9351        2.6775       90.3418       93.0193      13.084227       0.05712
   7     480.5       79.9276        2.9276       89.7728       92.7004      12.772820       0.06116
   6     533.0       79.9352        3.2351       89.0428       92.2779      12.342741       0.06919
   5     589.8       79.9748        3.5656       88.2038       91.7694      11.794672       0.08135
   4     651.6       80.0813        3.9188       87.1979       91.1168      11.035469       0.10382
   3     718.7       80.2807        4.2931       86.0161       90.3092      10.028566       0.12654
   2     792.3       71.6325       76.7552        3.6676       80.4228       8.790304       0.14201
   1     891.5       69.0065       75.4760        0.4410       75.9170       6.910496       0.15996
   0    1013.0       70.1941       73.8299        0.4259       74.2559       4.061795       0.19780



 Wavenumbers: 16000. - 22650. cm-1, ATM      1
 LEVEL PRESSURE   UPWARD FLUX   DIFDOWN FLUX  DIRDOWN FLUX  DOWNWARD FLUX   NET FLUX    HEATING RATE
          mb          W/m2          W/m2          W/m2        W/m2          W/m2       degree/day
  51    .06700      139.7562        0.0000      156.3892      156.3892      16.633035       0.00000
  50    .07753      139.7562        0.0004      156.3887      156.3891      16.632888       0.11780
  49    .09103      139.7562        0.0009      156.3879      156.3888      16.632674       0.13361
  48    0.1069      139.7562        0.0015      156.3871      156.3885      16.632388       0.15236
  47    0.1255      139.7562        0.0021      156.3861      156.3882      16.632005       0.17368
  46    0.1487      139.7562        0.0029      156.3847      156.3877      16.631440       0.20580
  45    0.1794      139.7563        0.0041      156.3828      156.3869      16.630557       0.24232
  44    0.2165      139.7565        0.0054      156.3805      156.3859      16.629360       0.27234
  43    0.2613      139.7569        0.0070      156.3776      156.3846      16.627736       0.30617
  42    0.3336      139.7576        0.0096      156.3726      156.3823      16.624648       0.36005
  41    0.4307      139.7588        0.0131      156.3657      156.3788      16.619993       0.40474
  40    0.5894      139.7614        0.0188      156.3537      156.3725      16.611115       0.47211
  39     1.339      139.7836        0.0457      156.2834      156.3291      16.545525       0.73843
  38     1.782      139.8042        0.0615      156.2324      156.2938      16.489650       1.06377
  37     2.292      139.8351        0.0798      156.1641      156.2439      16.408771       1.33957
  36     2.964      139.8865        0.1038      156.0605      156.1643      16.277746       1.64475
  35     3.853      139.9697        0.1354      155.9041      156.0395      16.069843       1.97304
  34     5.035      140.0952        0.1775      155.6774      155.8548      15.759671       2.21574
  33     6.613      140.2705        0.2336      155.3656      155.5992      15.328626       2.30436
  32     8.786      140.4990        0.3090      154.9577      155.2667      14.767749       2.17825
  31     11.80      140.7962        0.4169      154.4153      154.8321      14.035964       2.04877
  30     15.07      141.0808        0.5325      153.8804      154.4129      13.332028       1.81743
  29     18.79      141.3714        0.6629      153.3191      153.9820      12.610575       1.63575
  28     23.16      141.6750        0.8149      152.7126      153.5275      11.852534       1.46581
  27     28.12      141.9803        0.9886      152.0755      153.0641      11.083774       1.30684
  26     33.73      142.2619        1.1827      151.4409      152.6236      10.361698       1.08566
  25     40.54      142.5327        1.4170      150.7637      152.1807       9.648046       0.88537
  24     48.69      142.7915        1.6992      150.0338      151.7331       8.941540       0.73112
  23     57.69      143.0106        2.0088      149.3151      151.3240       8.313402       0.58878
  22     68.43      143.2010        2.3772      148.5476      150.9248       7.723763       0.46354
  21     81.20      143.3314        2.8157      147.7517      150.5674       7.236007       0.32230
  20     96.49      143.3971        3.3377      146.9127      150.2504       6.853252       0.21125
  19     114.6      143.4292        3.9557      145.9763      149.9320       6.502820       0.16363
  18     136.5      143.4361        4.6855      144.9088      149.5942       6.158095       0.13256
  17     162.9      143.4161        5.5503      143.6785      149.2289       5.812790       0.11037
  16     196.4      143.3291        6.6662      142.1651      148.8313       5.502235       0.07817
  15     218.7      143.2495        7.3954      141.2033      148.5988       5.349245       0.05808
  14     243.0      143.1528        8.1847      140.1753      148.3600       5.207151       0.04928
  13     269.0      143.0374        9.0361      139.0797      148.1158       5.078358       0.04178
  12     297.5      142.9025        9.9517      137.9141      147.8658       4.963239       0.03414
  11     328.5      142.7522       10.9358      136.6676      147.6034       4.851202       0.03046
  10     361.9      142.5861       11.9893      135.3392      147.3285       4.742382       0.02753
   9     398.1      142.4039       13.1163      133.9235      147.0397       4.635884       0.02481
   8     437.6      142.2063       14.3186      132.4163      146.7349       4.528572       0.02294
   7     480.5      141.9931       15.5985      130.8147      146.4132       4.420142       0.02130
   6     533.0      141.7307       17.1617      128.8599      146.0216       4.290851       0.02080
   5     589.8      141.4521       18.8317      126.7679      145.5997       4.147635       0.02126
   4     651.6      141.1634       20.6103      124.5274      145.1378       3.974365       0.02370
   3     718.7      140.8710       22.4991      122.1285      144.6275       3.756536       0.02738
   2     792.3      129.6616      127.8087        5.3331      133.1418       3.480274       0.03168
   1     891.5      125.8551      128.2164        0.6512      128.8676       3.012493       0.03981
   0    1013.0      126.0081      127.6642        0.6275      128.2917       2.283592       0.05061



 Wavenumbers: 22650. - 29000. cm-1, ATM      1
 LEVEL PRESSURE   UPWARD FLUX   DIFDOWN FLUX  DIRDOWN FLUX  DOWNWARD FLUX   NET FLUX    HEATING RATE
          mb          W/m2          W/m2          W/m2        W/m2          W/m2       degree/day
  51    .06700       58.4807        0.0000       59.0156       59.0156       0.534953       0.00000
  50    .07753       58.4806        0.0005       59.0151       59.0155       0.534953       0.00000
  49    .09103       58.4805        0.0010       59.0144       59.0154       0.534953      -0.00000
  48    0.1069       58.4803        0.0017       59.0136       59.0153       0.534953       0.00000
  47    0.1255       58.4802        0.0025       59.0127       59.0151       0.534953       0.00000
  46    0.1487       58.4800        0.0034       59.0115       59.0149       0.534953       0.00000
  45    0.1794       58.4797        0.0048       59.0099       59.0147       0.534953       0.00000
  44    0.2165       58.4794        0.0063       59.0080       59.0144       0.534953      -0.00000
  43    0.2613       58.4791        0.0082       59.0058       59.0140       0.534953      -0.00000
  42    0.3336       58.4785        0.0113       59.0022       59.0134       0.534953      -0.00000
  41    0.4307       58.4777        0.0153       58.9973       59.0126       0.534953       0.00000
  40    0.5894       58.4764        0.0220       58.9894       59.0113       0.534953       0.00000
  39     1.339       58.4703        0.0535       58.9518       59.0052       0.534953       0.00000
  38     1.782       58.4667        0.0719       58.9297       59.0016       0.534953      -0.00000
  37     2.292       58.4625        0.0933       58.9042       58.9975       0.534953      -0.00000
  36     2.964       58.4571        0.1214       58.8706       58.9920       0.534953       0.00000
  35     3.853       58.4499        0.1585       58.8264       58.9848       0.534953      -0.00000
  34     5.035       58.4403        0.2077       58.7676       58.9753       0.534953       0.00000
  33     6.613       58.4276        0.2734       58.6891       58.9625       0.534953      -0.00000
  32     8.786       58.4104        0.3619       58.5834       58.9453       0.534953       0.00000
  31     11.80       58.3858        0.4883       58.4324       58.9208       0.534953       0.00000
  30     15.07       58.3595        0.6238       58.2706       58.8945       0.534953      -0.00000
  29     18.79       58.3299        0.7766       58.0882       58.8648       0.534953       0.00000
  28     23.16       58.2953        0.9545       57.8757       58.8302       0.534953      -0.00000
  27     28.12       58.2559        1.1575       57.6333       58.7908       0.534953       0.00000
  26     33.73       58.2119        1.3838       57.3631       58.7468       0.534953       0.00000
  25     40.54       58.1590        1.6561       57.0379       58.6939       0.534953      -0.00000
  24     48.69       58.0955        1.9826       56.6479       58.6305       0.534953       0.00000
  23     57.69       58.0262        2.3391       56.2221       58.5612       0.534953       0.00000
  22     68.43       57.9443        2.7607       55.7186       58.4792       0.534953       0.00000
  21     81.20       57.8475        3.2585       55.1239       58.3824       0.534953       0.00000
  20     96.49       57.7333        3.8454       54.4228       58.2682       0.534953      -0.00000
  19     114.6       57.5994        4.5334       53.6010       58.1344       0.534953       0.00000
  18     136.5       57.4431        5.3363       52.6418       57.9780       0.534953      -0.00000
  17     162.9       57.2603        6.2749       51.5203       57.7952       0.534953       0.00000
  16     196.4       57.0285        7.4640       50.0994       57.5634       0.534953       0.00000
  15     218.7       56.8794        8.2281       49.1863       57.4144       0.534953      -0.00000
  14     243.0       56.7202        9.0439       48.2113       57.2551       0.534953      -0.00000
  13     269.0       56.5509        9.9109       47.1749       57.0858       0.534953      -0.00000
  12     297.5       56.3716       10.8283       46.0783       56.9065       0.534953       0.00000
  11     328.5       56.1820       11.7974       44.9195       56.7170       0.534953       0.00000
  10     361.9       55.9827       12.8158       43.7018       56.5176       0.534953       0.00000
   9     398.1       55.7734       13.8834       42.4250       56.3084       0.534953       0.00000
   8     437.6       55.5548       14.9981       41.0916       56.0897       0.534953      -0.00000
   7     480.5       55.3271       16.1575       39.7045       55.8620       0.534953       0.00000
   6     533.0       55.0558       17.5365       38.0543       55.5908       0.534953      -0.00000
   5     589.8       54.7742       18.9661       36.3431       55.3091       0.534953       0.00000
   4     651.6       54.4834       20.4388       34.5795       55.0184       0.534953       0.00000
   3     718.7       54.1846       21.9493       32.7702       54.7195       0.534953       0.00000
   2     792.3       51.1520       50.2763        1.4106       51.6870       0.534953      -0.00000
   1     891.5       50.0661       50.4347        0.1664       50.6011       0.534953       0.00000
   0    1013.0       49.9323       50.3161        0.1512       50.4673       0.534953      -0.00000



 Wavenumbers: 29000. - 38000. cm-1, ATM      1
 LEVEL PRESSURE   UPWARD FLUX   DIFDOWN FLUX  DIRDOWN FLUX  DOWNWARD FLUX   NET FLUX    HEATING RATE
          mb          W/m2          W/m2          W/m2        W/m2          W/m2       degree/day
  51    .06700        8.7348        0.0000       20.8114       20.8114      12.076555       0.00000
  50    .07753        8.7346        0.0003       20.8070       20.8074      12.072748       3.05152
  49    .09103        8.7344        0.0007       20.8009       20.8016      12.067211       3.46081
  48    0.1069        8.7341        0.0012       20.7928       20.7939      12.059801       3.94425
  47    0.1255        8.7338        0.0017       20.7820       20.7837      12.049897       4.49029
  46    0.1487        8.7335        0.0024       20.7665       20.7688      12.035334       5.30838
  45    0.1794        8.7330        0.0033       20.7424       20.7457      12.012669       6.22197
  44    0.2165        8.7325        0.0044       20.7103       20.7147      11.982147       6.94332
  43    0.2613        8.7319        0.0056       20.6675       20.6731      11.941152       7.72723
  42    0.3336        8.7311        0.0077       20.5880       20.5956      11.864592       8.92614
  41    0.4307        8.7300        0.0104       20.4722       20.4826      11.752641       9.73390
  40    0.5894        8.7284        0.0147       20.2637       20.2784      11.549960      10.77832
  39     1.339        8.7250        0.0331       19.0984       19.1315      10.406504      12.87324
  38     1.782        8.7254        0.0427       18.4394       18.4820       9.756597      12.37318
  37     2.292        8.7281        0.0529       17.7714       17.8244       9.096277      10.93662
  36     2.964        8.7346        0.0656       17.0421       17.1078       8.373193       9.07689
  35     3.853        8.7473        0.0815       16.2678       16.3494       7.602076       7.31804
  34     5.035        8.7683        0.1017       15.4803       15.5820       6.813673       5.63202
  33     6.613        8.7989        0.1275       14.7157       14.8431       6.044217       4.11352
  32     8.786        8.8393        0.1612       13.9936       14.1548       5.315432       2.83034
  31     11.80        8.8921        0.2082       13.2835       13.4918       4.599685       2.00387
  30     15.07        8.9429        0.2570       12.7394       12.9963       4.053419       1.41035
  29     18.79        8.9954        0.3110       12.2666       12.5776       3.582188       1.06843
  28     23.16        9.0512        0.3725       11.8300       12.2025       3.151277       0.83324
  27     28.12        9.1083        0.4413       11.4279       11.8692       2.760818       0.66375
  26     33.73        9.1611        0.5171       11.0695       11.5866       2.425536       0.50411
  25     40.54        9.2111        0.6078       10.7209       11.3286       2.117592       0.38204
  24     48.69        9.2582        0.7153       10.3742       11.0895       1.831260       0.29631
  23     57.69        9.2968        0.8316       10.0549       10.8865       1.589703       0.22642
  22     68.43        9.3280        0.9681        9.7327       10.7009       1.372859       0.17047
  21     81.20        9.3428        1.1293        9.4134       10.5428       1.199955       0.11425
  20     96.49        9.3392        1.3188        9.0887       10.4075       1.068340       0.07264
  19     114.6        9.3253        1.5377        8.7388       10.2765       0.951192       0.05470
  18     136.5        9.3041        1.7880        8.3549       10.1429       0.838790       0.04322
  17     162.9        9.2756        2.0732        7.9311       10.0044       0.728742       0.03518
  16     196.4        9.2280        2.4265        7.4333        9.8599       0.631885       0.02438
  15     218.7        9.1937        2.6488        7.1295        9.7783       0.584648       0.01793
  14     243.0        9.1561        2.8811        6.8161        9.6971       0.541032       0.01513
  13     269.0        9.1150        3.1226        6.4943        9.6169       0.501869       0.01270
  12     297.5        9.0706        3.3722        6.1657        9.5379       0.467348       0.01024
  11     328.5        9.0242        3.6290        5.8295        9.4585       0.434299       0.00899
  10     361.9        8.9762        3.8905        5.4886        9.3791       0.402870       0.00795
   9     398.1        8.9269        4.1560        5.1440        9.3000       0.373088       0.00694
   8     437.6        8.8767        4.4241        4.7969        9.2211       0.344379       0.00614
   7     480.5        8.8259        4.6927        4.4504        9.1431       0.317130       0.00535
   6     533.0        8.7677        4.9989        4.0563        9.0551       0.287428       0.00478
   5     589.8        8.7102        5.3007        3.6682        8.9688       0.258673       0.00427
   4     651.6        8.6544        5.5944        3.2905        8.8849       0.230543       0.00385
   3     718.7        8.6007        5.8785        2.9252        8.8037       0.202994       0.00346
   2     792.3        8.3021        8.3588        0.1195        8.4783       0.176199       0.00307
   1     891.5        8.1987        8.3297        0.0130        8.3427       0.143993       0.00274
   0    1013.0        8.1887        8.2869        0.0105        8.2974       0.108696       0.00245



 Wavenumbers: 38000. - 50000. cm-1, ATM      1
 LEVEL PRESSURE   UPWARD FLUX   DIFDOWN FLUX  DIRDOWN FLUX  DOWNWARD FLUX   NET FLUX    HEATING RATE
          mb          W/m2          W/m2          W/m2        W/m2          W/m2       degree/day
  51    .06700        0.0061        0.0000        1.2836        1.2836       1.277518       0.00000
  50    .07753        0.0061        0.0001        1.2812        1.2812       1.275183       1.87150
  49    .09103        0.0060        0.0002        1.2777        1.2778       1.271851       2.08247
  48    0.1069        0.0059        0.0002        1.2731        1.2734       1.267473       2.33059
  47    0.1255        0.0058        0.0004        1.2672        1.2675       1.261717       2.60908
  46    0.1487        0.0057        0.0005        1.2586        1.2591       1.253391       3.03499
  45    0.1794        0.0055        0.0007        1.2455        1.2462       1.240623       3.50520
  44    0.2165        0.0054        0.0009        1.2282        1.2291       1.223697       3.85037
  43    0.2613        0.0052        0.0011        1.2054        1.2065       1.201348       4.21261
  42    0.3336        0.0049        0.0015        1.1639        1.1654       1.160524       4.75970
  41    0.4307        0.0045        0.0020        1.1051        1.1070       1.102565       5.03943
  40    0.5894        0.0039        0.0026        1.0039        1.0064       1.002524       5.32007
  39     1.339        0.0022        0.0035        0.5438        0.5473       0.545104       5.14971
  38     1.782        0.0016        0.0032        0.3635        0.3666       0.365006       3.42879
  37     2.292        0.0012        0.0027        0.2356        0.2383       0.237058       2.11916
  36     2.964        0.0009        0.0022        0.1455        0.1477       0.146786       1.13318
  35     3.853        0.0006        0.0017        0.0858        0.0875       0.086906       0.56828
  34     5.035        0.0004        0.0013        0.0488        0.0501       0.049701       0.26578
  33     6.613        0.0003        0.0010        0.0273        0.0282       0.027974       0.11615
  32     8.786        0.0002        0.0007        0.0144        0.0151       0.014928       0.05067
  31     11.80        0.0001        0.0004        0.0065        0.0070       0.006903       0.02247
  30     15.07        0.0000        0.0003        0.0031        0.0034       0.003329       0.00923
  29     18.79        0.0000        0.0002        0.0014        0.0016       0.001583       0.00396
  28     23.16        0.0000        0.0001        0.0006        0.0007       0.000720       0.00167
  27     28.12        0.0000        0.0001        0.0003        0.0003       0.000317       0.00069
  26     33.73        0.0000        0.0000        0.0001        0.0001       0.000140       0.00027
  25     40.54        0.0000        0.0000        0.0000        0.0001       0.000057       0.00010
  24     48.69        0.0000        0.0000        0.0000        0.0000       0.000021       0.00004
  23     57.69        0.0000        0.0000        0.0000        0.0000       0.000008       0.00001
  22     68.43        0.0000        0.0000        0.0000        0.0000       0.000003       0.00000
  21     81.20        0.0000        0.0000        0.0000        0.0000       0.000001       0.00000
  20     96.49        0.0000        0.0000        0.0000        0.0000       0.000000       0.00000
  19     114.6        0.0000        0.0000        0.0000        0.0000       0.000000       0.00000
  18     136.5        0.0000        0.0000        0.0000        0.0000       0.000000       0.00000
  17     162.9        0.0000        0.0000        0.0000        0.0000       0.000000       0.00000
  16     196.4        0.0000        0.0000        0.0000        0.0000       0.000000       0.00000
  15     218.7        0.0000        0.0000        0.0000        0.0000       0.000000       0.00000
  14     243.0        0.0000        0.0000        0.0000        0.0000       0.000000       0.00000
  13     269.0        0.0000        0.0000        0.0000        0.0000       0.000000       0.00000
  12     297.5        0.0000        0.0000        0.0000        0.0000       0.000000       0.00000
  11     328.5        0.0000        0.0000        0.0000        0.0000       0.000000       0.00000
  10     361.9        0.0000        0.0000        0.0000        0.0000       0.000000       0.00000
   9     398.1        0.0000        0.0000        0.0000        0.0000       0.000000       0.00000
   8     437.6        0.0000        0.0000        0.0000        0.0000       0.000000       0.00000
   7     480.5        0.0000        0.0000        0.0000        0.0000       0.000000       0.00000
   6     533.0        0.0000        0.0000        0.0000        0.0000       0.000000       0.00000
   5     589.8        0.0000        0.0000        0.0000        0.0000       0.000000       0.00000
   4     651.6        0.0000        0.0000        0.0000        0.0000       0.000000       0.00000
   3     718.7        0.0000        0.0000        0.0000        0.0000       0.000000       0.00000
   2     792.3        0.0000        0.0000        0.0000        0.0000       0.000000       0.00000
   1     891.5        0.0000        0.0000        0.0000        0.0000       0.000000       0.00000
   0    1013.0        0.0000        0.0000        0.0000        0.0000       0.000000       0.00000



 Wavenumbers:   820. -  2600. cm-1, ATM      1
 LEVEL PRESSURE   UPWARD FLUX   DIFDOWN FLUX  DIRDOWN FLUX  DOWNWARD FLUX   NET FLUX    HEATING RATE
          mb          W/m2          W/m2          W/m2        W/m2          W/m2       degree/day
  51    .06700        0.2112        0.0000        6.0047        6.0047       5.793472       0.00000
  50    .07753        0.2112        0.0000        6.0008        6.0008       5.789619       3.08820
  49    .09103        0.2112        0.0000        5.9999        5.9999       5.788733       0.55357
  48    0.1069        0.2112        0.0000        5.9989        5.9989       5.787744       0.52651
  47    0.1255        0.2112        0.0000        5.9978        5.9978       5.786627       0.50648
  46    0.1487        0.2112        0.0000        5.9964        5.9964       5.785270       0.49456
  45    0.1794        0.2112        0.0000        5.9947        5.9947       5.783551       0.47198
  44    0.2165        0.2112        0.0000        5.9929        5.9929       5.781708       0.41909
  43    0.2613        0.2112        0.0000        5.9909        5.9909       5.779749       0.36931
  42    0.3336        0.2112        0.0000        5.9880        5.9880       5.776871       0.33554
  41    0.4307        0.2112        0.0000        5.9846        5.9846       5.773402       0.30163
  40    0.5894        0.2112        0.0000        5.9791        5.9791       5.767897       0.29275
  39     1.339        0.2112        0.0000        5.9536        5.9536       5.742411       0.28692
  38     1.782        0.2112        0.0000        5.9395        5.9395       5.728274       0.26916
  37     2.292        0.2112        0.0000        5.9237        5.9237       5.712523       0.26087
  36     2.964        0.2112        0.0000        5.9039        5.9039       5.692750       0.24821
  35     3.853        0.2112        0.0000        5.8793        5.8793       5.668096       0.23398
  34     5.035        0.2112        0.0000        5.8487        5.8487       5.637534       0.21832
  33     6.613        0.2112        0.0000        5.8108        5.8108       5.599572       0.20295
  32     8.786        0.2112        0.0000        5.7631        5.7631       5.551951       0.18494
  31     11.80        0.2112        0.0000        5.7039        5.7039       5.492698       0.16589
  30     15.07        0.2112        0.0000        5.6539        5.6539       5.442662       0.12918
  29     18.79        0.2112        0.0000        5.6127        5.6127       5.401529       0.09326
  28     23.16        0.2112        0.0000        5.5794        5.5794       5.368155       0.06453
  27     28.12        0.2112        0.0000        5.5518        5.5518       5.340590       0.04686
  26     33.73        0.2112        0.0000        5.5268        5.5268       5.315538       0.03767
  25     40.54        0.2112        0.0000        5.4993        5.4993       5.288093       0.03405
  24     48.69        0.2113        0.0000        5.4678        5.4678       5.256548       0.03264
  23     57.69        0.2113        0.0000        5.4340        5.4340       5.222754       0.03168
  22     68.43        0.2113        0.0000        5.3947        5.3948       5.183472       0.03088
  21     81.20        0.2113        0.0000        5.3497        5.3497       5.138427       0.02976
  20     96.49        0.2113        0.0000        5.2982        5.2982       5.086899       0.02844
  19     114.6        0.2114        0.0000        5.2389        5.2389       5.027556       0.02771
  18     136.5        0.2114        0.0000        5.1716        5.1717       4.960273       0.02587
  17     162.9        0.2114        0.0000        5.0890        5.0890       4.877601       0.02643
  16     196.4        0.2115        0.0000        4.9668        4.9668       4.755292       0.03079
  15     218.7        0.2116        0.0000        4.8585        4.8585       4.646837       0.04118
  14     243.0        0.2118        0.0000        4.7078        4.7079       4.496070       0.05229
  13     269.0        0.2120        0.0000        4.5343        4.5343       4.322264       0.05638
  12     297.5        0.2124        0.0000        4.3419        4.3420       4.129585       0.05715
  11     328.5        0.2129        0.0000        4.1281        4.1281       3.915278       0.05827
  10     361.9        0.2135        0.0000        3.8786        3.8787       3.665167       0.06328
   9     398.1        0.2143        0.0000        3.6159        3.6159       3.401604       0.06140
   8     437.6        0.2154        0.0000        3.3759        3.3759       3.160449       0.05156
   7     480.5        0.2168        0.0000        3.1957        3.1958       2.978982       0.03564
   6     533.0        0.2189        0.0000        3.0467        3.0467       2.827793       0.02432
   5     589.8        0.2221        0.0000        2.9023        2.9023       2.680206       0.02191
   4     651.6        0.2279        0.0000        2.7183        2.7184       2.490477       0.02595
   3     718.7        0.2388        0.0000        2.5058        2.5059       2.267074       0.02808
   2     792.3        0.0448        0.6555        0.0556        0.7111       0.666264       0.18359
   1     891.5        0.0014        0.2904        0.0040        0.2945       0.293052       0.03176
   0    1013.0        0.0017        0.2316        0.0032        0.2348       0.233062       0.00417

  Modules and versions used in this calculation:

       rrtmg_sw.1col.f90:  $Revision$                    rrtmg_sw_init.f90:  $Revision$        
     rrtmgsw_cldprop.f90:  $Revision$                  rrtmgsw_cldprmc.f90:  NOT USED          
     rrtmg_sw_reftra.f90:  $Revision$                  rrtmg_sw_spcvrt.f90:  NOT USED          
     rrtmg_sw_spcvmc.f90:  NOT USED                    rrtmgsw_setcoef.f90:  NOT USED          
     rrtmg_sw_taumol.f90:  $Revision$                  rrtmg_sw_vrtqdr.f90:  NOT USED          
                rrtatm.f:  NOT USED                             util_xxx.f:  NOT USED          
                 extra.f:  NOT USED                       rrtmg_sw_k_g.f90:  $Revision$        

