

 Wavenumbers:   820. - 50000. cm-1, ATM      1
 LEVEL PRESSURE   UPWARD FLUX   DIFDOWN FLUX  DIRDOWN FLUX  DOWNWARD FLUX   NET FLUX    HEATING RATE
          mb          W/m2          W/m2          W/m2        W/m2          W/m2       degree/day
  51    .06700      209.3888        0.0000      397.8738      397.8738     188.484978       0.00000
  50    .07753      209.3882        0.0012      397.8577      397.8588     188.470651      11.48286
  49    .09103      209.3874        0.0026      397.8417      397.8443     188.456924       8.57980
  48    0.1069      209.3866        0.0043      397.8228      397.8271     188.440536       8.72355
  47    0.1255      209.3856        0.0062      397.7995      397.8056     188.420053       9.28600
  46    0.1487      209.3844        0.0086      397.7674      397.7759     188.391548      10.39031
  45    0.1794      209.3828        0.0119      397.7202      397.7320     188.349200      11.62559
  44    0.2165      209.3810        0.0157      397.6598      397.6755     188.294493      12.44483
  43    0.2613      209.3790        0.0203      397.5823      397.6026     188.223629      13.35758
  42    0.3336      209.3758        0.0278      397.4441      397.4719     188.096089      14.86988
  41    0.4307      209.3718        0.0376      397.2513      397.2890     187.917126      15.56044
  40    0.5894      209.3659        0.0534      396.9238      396.9773     187.611311      16.26283
  39     1.339      209.3489        0.1241      395.4223      395.5464     186.197462      15.91738
  38     1.782      209.3461        0.1637      394.7250      394.8887     185.542583      12.46784
  37     2.292      209.3491        0.2088      394.0527      394.2615     184.912394      10.43757
  36     2.964      209.3623        0.2672      393.2958      393.5630     184.200712       8.93376
  35     3.853      209.3927        0.3436      392.4268      392.7705     183.377760       7.80997
  34     5.035      209.4459        0.4442      391.4394      391.8835     182.437683       6.71552
  33     6.613      209.5239        0.5773      390.3226      390.8999     181.375981       5.67586
  32     8.786      209.6242        0.7554      389.0591      389.8145     180.190326       4.60465
  31     11.80      209.7462        1.0080      387.5485      388.5565     178.810384       3.86340
  30     15.07      209.8520        1.2771      386.1563      387.4334     177.581361       3.17310
  29     18.79      209.9492        1.5785      384.7539      386.3325     176.383274       2.71643
  28     23.16      210.0370        1.9278      383.2764      385.2042     175.167170       2.35155
  27     28.12      210.1073        2.3238      381.7455      384.0694     173.962074       2.04858
  26     33.73      210.1417        2.7637      380.2168      382.9805     172.838770       1.68892
  25     40.54      210.1321        3.2912      378.5644      381.8556     171.723426       1.38371
  24     48.69      210.0717        3.9213      376.7572      380.6786     170.606896       1.15543
  23     57.69      209.9584        4.6069      374.9411      379.5480     169.589608       0.95355
  22     68.43      209.7734        5.4149      372.9538      378.3687     168.595310       0.78165
  21     81.20      209.4836        6.3670      370.8117      377.1787     167.695131       0.59482
  20     96.49      209.0761        7.4868      368.4756      375.9624     166.886388       0.44637
  19     114.6      208.5722        8.7943      365.8339      374.6282     166.056036       0.38772
  18     136.5      207.9628       10.3121      362.8400      373.1521     165.189319       0.33327
  17     162.9      207.2320       12.0757      359.3892      371.4650     164.232982       0.30568
  16     196.4      206.2620       14.2980      355.0144      369.3124     163.050442       0.29766
  15     218.7      205.6232       15.7186      351.9594      367.6780     162.054769       0.37802
  14     243.0      204.9351       17.2288      348.2675      365.4964     160.561218       0.51801
  13     269.0      204.1983       18.8270      343.7550      362.5819     158.383612       0.70641
  12     297.5      203.4154       20.5106      338.5068      359.0174     155.601962       0.82501
  11     328.5      202.5898       22.2814      332.8831      355.1644     152.574669       0.82311
  10     361.9      201.7259       24.1339      326.8113      350.9452     149.219288       0.84894
   9     398.1      200.8277       26.0675      320.2372      346.3047     145.477062       0.87185
   8     437.6      199.9054       28.0767      313.1616      341.2383     141.332854       0.88606
   7     480.5      198.9692       30.1579      305.6964      335.8542     136.885068       0.87353
   6     533.0      197.9040       32.6205      296.6807      329.3012     131.397139       0.88283
   5     589.8      196.8960       35.1593      287.0555      322.2148     125.318760       0.90223
   4     651.6      196.0711       37.7620      276.4494      314.2114     118.140337       0.98167
   3     718.7      195.6155       40.4128      265.1657      305.5785     109.962989       1.02767
   2     792.3      127.9739      223.9645        1.8609      225.8254      97.851517       1.38905
   1     891.5      107.9162      198.5149        0.0665      198.5813      90.665085       0.61153
   0    1013.0      108.3460      192.3322        0.0616      192.3938      84.047813       0.45947



 Wavenumbers:  2600. -  3250. cm-1, ATM      1
 LEVEL PRESSURE   UPWARD FLUX   DIFDOWN FLUX  DIRDOWN FLUX  DOWNWARD FLUX   NET FLUX    HEATING RATE
          mb          W/m2          W/m2          W/m2        W/m2          W/m2       degree/day
  51    .06700        0.1912        0.0000        3.5066        3.5066       3.315424       0.00000
  50    .07753        0.1912        0.0000        3.5066        3.5066       3.315416       0.00640
  49    .09103        0.1912        0.0000        3.5066        3.5066       3.315406       0.00627
  48    0.1069        0.1912        0.0000        3.5066        3.5066       3.315395       0.00613
  47    0.1255        0.1912        0.0000        3.5066        3.5066       3.315381       0.00599
  46    0.1487        0.1912        0.0000        3.5066        3.5066       3.315365       0.00607
  45    0.1794        0.1912        0.0000        3.5065        3.5065       3.315342       0.00624
  44    0.2165        0.1912        0.0000        3.5065        3.5065       3.315315       0.00611
  43    0.2613        0.1912        0.0000        3.5065        3.5065       3.315283       0.00598
  42    0.3336        0.1912        0.0000        3.5064        3.5064       3.315231       0.00615
  41    0.4307        0.1912        0.0000        3.5064        3.5064       3.315160       0.00618
  40    0.5894        0.1912        0.0000        3.5062        3.5062       3.315041       0.00633
  39     1.339        0.1912        0.0000        3.5055        3.5055       3.314342       0.00787
  38     1.782        0.1912        0.0000        3.5050        3.5050       3.313811       0.01011
  37     2.292        0.1912        0.0000        3.5043        3.5043       3.313118       0.01147
  36     2.964        0.1912        0.0000        3.5033        3.5033       3.312127       0.01245
  35     3.853        0.1912        0.0000        3.5019        3.5019       3.310750       0.01307
  34     5.035        0.1912        0.0000        3.5001        3.5001       3.308889       0.01329
  33     6.613        0.1912        0.0000        3.4977        3.4977       3.306479       0.01288
  32     8.786        0.1912        0.0000        3.4947        3.4947       3.303508       0.01154
  31     11.80        0.1912        0.0000        3.4911        3.4911       3.299873       0.01018
  30     15.07        0.1912        0.0000        3.4878        3.4878       3.296652       0.00832
  29     18.79        0.1912        0.0000        3.4848        3.4848       3.293588       0.00695
  28     23.16        0.1912        0.0000        3.4816        3.4816       3.290368       0.00623
  27     28.12        0.1912        0.0000        3.4779        3.4779       3.286750       0.00615
  26     33.73        0.1912        0.0000        3.4735        3.4735       3.282283       0.00672
  25     40.54        0.1912        0.0000        3.4671        3.4671       3.275956       0.00785
  24     48.69        0.1912        0.0000        3.4582        3.4583       3.267060       0.00921
  23     57.69        0.1912        0.0000        3.4472        3.4472       3.256010       0.01036
  22     68.43        0.1912        0.0000        3.4329        3.4329       3.241748       0.01121
  21     81.20        0.1912        0.0000        3.4152        3.4152       3.224016       0.01172
  20     96.49        0.1912        0.0000        3.3940        3.3941       3.202867       0.01167
  19     114.6        0.1912        0.0000        3.3693        3.3694       3.178140       0.01155
  18     136.5        0.1913        0.0001        3.3424        3.3425       3.151236       0.01035
  17     162.9        0.1913        0.0001        3.3141        3.3142       3.122889       0.00906
  16     196.4        0.1913        0.0001        3.2825        3.2826       3.091240       0.00797
  15     218.7        0.1914        0.0001        3.2621        3.2622       3.070814       0.00775
  14     243.0        0.1915        0.0001        3.2371        3.2372       3.045708       0.00871
  13     269.0        0.1917        0.0001        3.2052        3.2053       3.013675       0.01039
  12     297.5        0.1919        0.0001        3.1631        3.1632       2.971251       0.01258
  11     328.5        0.1923        0.0001        3.1094        3.1095       2.917275       0.01468
  10     361.9        0.1928        0.0001        3.0408        3.0409       2.848192       0.01748
   9     398.1        0.1934        0.0001        2.9535        2.9536       2.760190       0.02050
   8     437.6        0.1944        0.0001        2.8452        2.8453       2.650898       0.02337
   7     480.5        0.1958        0.0001        2.7179        2.7180       2.522283       0.02526
   6     533.0        0.1980        0.0002        2.5566        2.5568       2.358749       0.02631
   5     589.8        0.2015        0.0002        2.3805        2.3807       2.179221       0.02665
   4     651.6        0.2074        0.0002        2.1827        2.1829       1.975481       0.02786
   3     718.7        0.2174        0.0002        1.9647        1.9649       1.747507       0.02865
   2     792.3        0.0282        0.3050        0.0082        0.3132       0.284989       0.16773
   1     891.5        0.0205        0.1126        0.0002        0.1128       0.092318       0.01640
   0    1013.0        0.0234        0.0933        0.0001        0.0935       0.070052       0.00155



 Wavenumbers:  3250. -  4000. cm-1, ATM      1
 LEVEL PRESSURE   UPWARD FLUX   DIFDOWN FLUX  DIRDOWN FLUX  DOWNWARD FLUX   NET FLUX    HEATING RATE
          mb          W/m2          W/m2          W/m2        W/m2          W/m2       degree/day
  51    .06700        0.0078        0.0000        5.9117        5.9117       5.903831       0.00000
  50    .07753        0.0078        0.0000        5.9074        5.9074       5.899620       3.37561
  49    .09103        0.0078        0.0000        5.9050        5.9050       5.897155       1.54074
  48    0.1069        0.0078        0.0000        5.9031        5.9031       5.895266       1.00535
  47    0.1255        0.0078        0.0000        5.9013        5.9013       5.893487       0.80634
  46    0.1487        0.0078        0.0000        5.8994        5.8994       5.891575       0.69708
  45    0.1794        0.0078        0.0000        5.8972        5.8972       5.889399       0.59741
  44    0.2165        0.0078        0.0000        5.8951        5.8951       5.887252       0.48841
  43    0.2613        0.0078        0.0000        5.8929        5.8929       5.885056       0.41398
  42    0.3336        0.0078        0.0000        5.8897        5.8897       5.881836       0.37536
  41    0.4307        0.0078        0.0000        5.8857        5.8857       5.877925       0.34011
  40    0.5894        0.0078        0.0000        5.8798        5.8798       5.872018       0.31410
  39     1.339        0.0078        0.0000        5.8590        5.8590       5.851216       0.23419
  38     1.782        0.0078        0.0000        5.8506        5.8506       5.842748       0.16123
  37     2.292        0.0078        0.0000        5.8424        5.8424       5.834543       0.13590
  36     2.964        0.0078        0.0000        5.8327        5.8327       5.824894       0.12112
  35     3.853        0.0078        0.0000        5.8206        5.8206       5.812746       0.11528
  34     5.035        0.0078        0.0000        5.8045        5.8045       5.796715       0.11452
  33     6.613        0.0078        0.0000        5.7828        5.7828       5.774979       0.11620
  32     8.786        0.0078        0.0000        5.7527        5.7527       5.744876       0.11691
  31     11.80        0.0078        0.0000        5.7088        5.7089       5.701054       0.12269
  30     15.07        0.0078        0.0000        5.6617        5.6618       5.653962       0.12158
  29     18.79        0.0078        0.0000        5.6101        5.6102       5.602377       0.11696
  28     23.16        0.0078        0.0000        5.5539        5.5539       5.546115       0.10879
  27     28.12        0.0078        0.0000        5.4957        5.4958       5.487967       0.09885
  26     33.73        0.0078        0.0000        5.4379        5.4379       5.430157       0.08692
  25     40.54        0.0078        0.0001        5.3749        5.3750       5.367197       0.07811
  24     48.69        0.0078        0.0001        5.3044        5.3045       5.296735       0.07292
  23     57.69        0.0077        0.0001        5.2294        5.2295       5.221732       0.07030
  22     68.43        0.0077        0.0001        5.1416        5.1417       5.133970       0.06899
  21     81.20        0.0077        0.0001        5.0402        5.0403       5.032556       0.06701
  20     96.49        0.0077        0.0001        4.9260        4.9261       4.918375       0.06302
  19     114.6        0.0077        0.0001        4.7954        4.7956       4.787900       0.06092
  18     136.5        0.0077        0.0002        4.6558        4.6560       4.648307       0.05368
  17     162.9        0.0076        0.0002        4.4963        4.4964       4.488815       0.05098
  16     196.4        0.0076        0.0002        4.2728        4.2731       4.265460       0.05622
  15     218.7        0.0076        0.0002        4.0724        4.0727       4.065090       0.07607
  14     243.0        0.0076        0.0002        3.8102        3.8105       3.802940       0.09092
  13     269.0        0.0075        0.0002        3.4720        3.4722       3.464683       0.10973
  12     297.5        0.0075        0.0002        3.0589        3.0591       3.051580       0.12252
  11     328.5        0.0075        0.0002        2.6499        2.6502       2.642631       0.11119
  10     361.9        0.0076        0.0002        2.2815        2.2817       2.274127       0.09324
   9     398.1        0.0076        0.0002        1.9524        1.9526       1.944947       0.07669
   8     437.6        0.0077        0.0002        1.6512        1.6515       1.643712       0.06441
   7     480.5        0.0079        0.0002        1.3776        1.3778       1.369860       0.05378
   6     533.0        0.0083        0.0002        1.0886        1.0888       1.080482       0.04655
   5     589.8        0.0091        0.0002        0.8105        0.8106       0.801555       0.04140
   4     651.6        0.0106        0.0001        0.5333        0.5334       0.522818       0.03812
   3     718.7        0.0140        0.0001        0.3032        0.3033       0.289239       0.02935
   2     792.3        0.0004        0.0210        0.0007        0.0217       0.021292       0.03073
   1     891.5        0.0000        0.0021        0.0000        0.0021       0.002070       0.00164
   0    1013.0        0.0000        0.0002        0.0000        0.0002       0.000139       0.00013



 Wavenumbers:  4000. -  4650. cm-1, ATM      1
 LEVEL PRESSURE   UPWARD FLUX   DIFDOWN FLUX  DIRDOWN FLUX  DOWNWARD FLUX   NET FLUX    HEATING RATE
          mb          W/m2          W/m2          W/m2        W/m2          W/m2       degree/day
  51    .06700        2.0531        0.0000        6.9421        6.9421       4.888933       0.00000
  50    .07753        2.0531        0.0000        6.9421        6.9421       4.888932       0.00080
  49    .09103        2.0531        0.0000        6.9421        6.9421       4.888930       0.00078
  48    0.1069        2.0531        0.0000        6.9421        6.9421       4.888929       0.00076
  47    0.1255        2.0531        0.0000        6.9421        6.9421       4.888927       0.00075
  46    0.1487        2.0531        0.0000        6.9421        6.9421       4.888925       0.00076
  45    0.1794        2.0531        0.0000        6.9421        6.9421       4.888922       0.00078
  44    0.2165        2.0531        0.0000        6.9421        6.9421       4.888919       0.00076
  43    0.2613        2.0531        0.0000        6.9420        6.9421       4.888915       0.00075
  42    0.3336        2.0531        0.0000        6.9420        6.9420       4.888908       0.00077
  41    0.4307        2.0531        0.0000        6.9420        6.9420       4.888899       0.00077
  40    0.5894        2.0531        0.0000        6.9420        6.9420       4.888885       0.00080
  39     1.339        2.0531        0.0000        6.9419        6.9419       4.888795       0.00101
  38     1.782        2.0531        0.0000        6.9418        6.9419       4.888725       0.00133
  37     2.292        2.0531        0.0000        6.9418        6.9418       4.888631       0.00156
  36     2.964        2.0531        0.0000        6.9416        6.9416       4.888491       0.00176
  35     3.853        2.0531        0.0000        6.9414        6.9414       4.888283       0.00197
  34     5.035        2.0531        0.0000        6.9411        6.9411       4.887977       0.00219
  33     6.613        2.0531        0.0000        6.9406        6.9406       4.887526       0.00241
  32     8.786        2.0531        0.0000        6.9399        6.9400       4.886862       0.00258
  31     11.80        2.0531        0.0000        6.9389        6.9389       4.885820       0.00292
  30     15.07        2.0531        0.0001        6.9376        6.9377       4.884602       0.00315
  29     18.79        2.0531        0.0001        6.9361        6.9362       4.883133       0.00333
  28     23.16        2.0531        0.0001        6.9343        6.9344       4.881315       0.00351
  27     28.12        2.0531        0.0001        6.9321        6.9322       4.879124       0.00373
  26     33.73        2.0531        0.0001        6.9294        6.9295       4.876434       0.00404
  25     40.54        2.0531        0.0002        6.9257        6.9259       4.872805       0.00450
  24     48.69        2.0531        0.0002        6.9209        6.9211       4.867998       0.00497
  23     57.69        2.0531        0.0002        6.9152        6.9154       4.862339       0.00530
  22     68.43        2.0531        0.0003        6.9081        6.9084       4.855297       0.00554
  21     81.20        2.0532        0.0003        6.8995        6.8998       4.846679       0.00569
  20     96.49        2.0532        0.0004        6.8891        6.8895       4.836260       0.00575
  19     114.6        2.0534        0.0005        6.8762        6.8767       4.823330       0.00604
  18     136.5        2.0535        0.0005        6.8608        6.8614       4.807837       0.00596
  17     162.9        2.0538        0.0006        6.8421        6.8428       4.788951       0.00604
  16     196.4        2.0543        0.0008        6.8166        6.8174       4.763071       0.00651
  15     218.7        2.0547        0.0009        6.7976        6.7984       4.743662       0.00737
  14     243.0        2.0554        0.0009        6.7731        6.7741       4.718674       0.00867
  13     269.0        2.0564        0.0010        6.7409        6.7420       4.685598       0.01073
  12     297.5        2.0579        0.0012        6.6982        6.6993       4.641469       0.01309
  11     328.5        2.0599        0.0013        6.6434        6.6447       4.584789       0.01541
  10     361.9        2.0626        0.0014        6.5741        6.5755       4.512905       0.01819
   9     398.1        2.0660        0.0015        6.4889        6.4904       4.424422       0.02061
   8     437.6        2.0704        0.0016        6.3876        6.3893       4.318856       0.02257
   7     480.5        2.0761        0.0018        6.2749        6.2766       4.200487       0.02325
   6     533.0        2.0851        0.0019        6.1332        6.1351       4.050008       0.02421
   5     589.8        2.0983        0.0021        5.9653        5.9674       3.869102       0.02685
   4     651.6        2.1201        0.0023        5.7389        5.7411       3.620995       0.03393
   3     718.7        2.1582        0.0024        5.4502        5.4526       3.294423       0.04104
   2     792.3        0.8108        3.0204        0.0280        3.0484       2.237609       0.12120
   1     891.5        0.4930        2.2644        0.0008        2.2651       1.772167       0.03961
   0    1013.0        0.5228        2.0847        0.0007        2.0854       1.562573       0.01455



 Wavenumbers:  4650. -  5150. cm-1, ATM      1
 LEVEL PRESSURE   UPWARD FLUX   DIFDOWN FLUX  DIRDOWN FLUX  DOWNWARD FLUX   NET FLUX    HEATING RATE
          mb          W/m2          W/m2          W/m2        W/m2          W/m2       degree/day
  51    .06700        1.3796        0.0000        6.5710        6.5710       5.191399       0.00000
  50    .07753        1.3796        0.0000        6.5708        6.5708       5.191163       0.18877
  49    .09103        1.3796        0.0000        6.5705        6.5705       5.190869       0.18352
  48    0.1069        1.3796        0.0000        6.5701        6.5701       5.190535       0.17796
  47    0.1255        1.3796        0.0000        6.5697        6.5697       5.190155       0.17229
  46    0.1487        1.3796        0.0000        6.5693        6.5693       5.189682       0.17259
  45    0.1794        1.3796        0.0000        6.5686        6.5686       5.189045       0.17464
  44    0.2165        1.3796        0.0000        6.5679        6.5679       5.188308       0.16778
  43    0.2613        1.3796        0.0000        6.5670        6.5670       5.187455       0.16069
  42    0.3336        1.3796        0.0000        6.5657        6.5657       5.186093       0.15885
  41    0.4307        1.3796        0.0000        6.5640        6.5640       5.184372       0.14963
  40    0.5894        1.3796        0.0000        6.5613        6.5613       5.181757       0.13905
  39     1.339        1.3796        0.0000        6.5516        6.5516       5.171985       0.11001
  38     1.782        1.3796        0.0000        6.5473        6.5474       5.167772       0.08022
  37     2.292        1.3796        0.0000        6.5435        6.5435       5.163887       0.06434
  36     2.964        1.3796        0.0000        6.5395        6.5395       5.159935       0.04961
  35     3.853        1.3796        0.0000        6.5356        6.5356       5.155995       0.03740
  34     5.035        1.3796        0.0000        6.5315        6.5316       5.151995       0.02857
  33     6.613        1.3796        0.0000        6.5271        6.5272       5.147603       0.02348
  32     8.786        1.3796        0.0001        6.5216        6.5217       5.142110       0.02133
  31     11.80        1.3796        0.0001        6.5135        6.5136       5.134033       0.02261
  30     15.07        1.3796        0.0001        6.5041        6.5042       5.124665       0.02419
  29     18.79        1.3796        0.0001        6.4926        6.4927       5.113148       0.02611
  28     23.16        1.3796        0.0001        6.4780        6.4781       5.098554       0.02822
  27     28.12        1.3796        0.0002        6.4600        6.4601       5.080574       0.03057
  26     33.73        1.3796        0.0002        6.4385        6.4387       5.059134       0.03224
  25     40.54        1.3796        0.0002        6.4114        6.4116       5.031993       0.03367
  24     48.69        1.3797        0.0003        6.3777        6.3780       4.998329       0.03484
  23     57.69        1.3797        0.0003        6.3406        6.3409       4.961198       0.03480
  22     68.43        1.3798        0.0004        6.2974        6.2978       4.917947       0.03400
  21     81.20        1.3800        0.0005        6.2485        6.2490       4.869037       0.03232
  20     96.49        1.3802        0.0006        6.1952        6.1957       4.815522       0.02954
  19     114.6        1.3805        0.0007        6.1386        6.1392       4.758696       0.02653
  18     136.5        1.3810        0.0008        6.0795        6.0803       4.699350       0.02282
  17     162.9        1.3816        0.0009        6.0168        6.0177       4.636124       0.02021
  16     196.4        1.3826        0.0011        5.9412        5.9423       4.559723       0.01923
  15     218.7        1.3834        0.0012        5.8915        5.8927       4.509253       0.01916
  14     243.0        1.3845        0.0013        5.8346        5.8360       4.451493       0.02003
  13     269.0        1.3859        0.0015        5.7676        5.7690       4.383138       0.02217
  12     297.5        1.3879        0.0016        5.6858        5.6874       4.299422       0.02483
  11     328.5        1.3906        0.0017        5.5899        5.5917       4.201031       0.02675
  10     361.9        1.3941        0.0019        5.4787        5.4806       4.086532       0.02897
   9     398.1        1.3986        0.0020        5.3502        5.3523       3.953641       0.03096
   8     437.6        1.4046        0.0022        5.2035        5.2057       3.801068       0.03262
   7     480.5        1.4124        0.0024        5.0390        5.0413       3.628983       0.03380
   6     533.0        1.4243        0.0025        4.8308        4.8333       3.409066       0.03538
   5     589.8        1.4409        0.0027        4.6030        4.6057       3.164795       0.03626
   4     651.6        1.4657        0.0029        4.3500        4.3529       2.887131       0.03797
   3     718.7        1.5036        0.0030        4.0793        4.0823       2.578629       0.03877
   2     792.3        0.5511        2.1732        0.0216        2.1949       1.643725       0.10722
   1     891.5        0.3377        1.5848        0.0006        1.5854       1.247733       0.03370
   0    1013.0        0.3621        1.4439        0.0005        1.4444       1.082304       0.01149



 Wavenumbers:  5150. -  6150. cm-1, ATM      1
 LEVEL PRESSURE   UPWARD FLUX   DIFDOWN FLUX  DIRDOWN FLUX  DOWNWARD FLUX   NET FLUX    HEATING RATE
          mb          W/m2          W/m2          W/m2        W/m2          W/m2       degree/day
  51    .06700        4.0335        0.0000       16.4735       16.4735      12.440037       0.00000
  50    .07753        4.0335        0.0000       16.4735       16.4735      12.439998       0.03158
  49    .09103        4.0335        0.0000       16.4734       16.4734      12.439946       0.03206
  48    0.1069        4.0335        0.0000       16.4734       16.4734      12.439885       0.03256
  47    0.1255        4.0335        0.0000       16.4733       16.4733      12.439812       0.03306
  46    0.1487        4.0335        0.0000       16.4732       16.4732      12.439717       0.03483
  45    0.1794        4.0335        0.0000       16.4730       16.4730      12.439582       0.03706
  44    0.2165        4.0335        0.0000       16.4729       16.4729      12.439416       0.03761
  43    0.2613        4.0335        0.0000       16.4727       16.4727      12.439214       0.03817
  42    0.3336        4.0335        0.0000       16.4723       16.4723      12.438868       0.04031
  41    0.4307        4.0335        0.0000       16.4719       16.4719      12.438399       0.04082
  40    0.5894        4.0335        0.0000       16.4711       16.4711      12.437613       0.04177
  39     1.339        4.0334        0.0000       16.4673       16.4673      12.433848       0.04239
  38     1.782        4.0334        0.0000       16.4651       16.4651      12.431669       0.04147
  37     2.292        4.0334        0.0001       16.4626       16.4626      12.429216       0.04063
  36     2.964        4.0334        0.0001       16.4595       16.4595      12.426118       0.03889
  35     3.853        4.0334        0.0001       16.4555       16.4556      12.422210       0.03709
  34     5.035        4.0334        0.0001       16.4505       16.4506      12.417225       0.03560
  33     6.613        4.0334        0.0002       16.4440       16.4442      12.410841       0.03413
  32     8.786        4.0333        0.0002       16.4358       16.4361      12.402704       0.03160
  31     11.80        4.0333        0.0003       16.4249       16.4252      12.391929       0.03016
  30     15.07        4.0333        0.0004       16.4143       16.4147      12.381389       0.02721
  29     18.79        4.0333        0.0005       16.4034       16.4039      12.370658       0.02433
  28     23.16        4.0332        0.0006       16.3920       16.3926      12.359384       0.02180
  27     28.12        4.0332        0.0008       16.3803       16.3811      12.347879       0.01956
  26     33.73        4.0332        0.0009       16.3687       16.3696      12.336493       0.01712
  25     40.54        4.0331        0.0011       16.3564       16.3575      12.324372       0.01504
  24     48.69        4.0331        0.0013       16.3435       16.3448      12.311694       0.01312
  23     57.69        4.0331        0.0016       16.3309       16.3325      12.299340       0.01158
  22     68.43        4.0332        0.0019       16.3174       16.3193      12.286116       0.01040
  21     81.20        4.0332        0.0022       16.3027       16.3049      12.271678       0.00954
  20     96.49        4.0333        0.0026       16.2861       16.2888      12.255473       0.00894
  19     114.6        4.0334        0.0031       16.2671       16.2702      12.236797       0.00872
  18     136.5        4.0335        0.0037       16.2445       16.2482      12.214704       0.00850
  17     162.9        4.0337        0.0044       16.2108       16.2152      12.181470       0.01062
  16     196.4        4.0340        0.0053       16.1360       16.1413      12.107244       0.01868
  15     218.7        4.0343        0.0059       16.0099       16.0158      11.981491       0.04774
  14     243.0        4.0346        0.0064       15.7396       15.7461      11.711450       0.09366
  13     269.0        4.0352        0.0070       15.3077       15.3147      11.279508       0.14012
  12     297.5        4.0361        0.0075       14.7951       14.8026      10.766569       0.15213
  11     328.5        4.0373        0.0081       14.2426       14.2507      10.213402       0.15040
  10     361.9        4.0391        0.0086       13.6155       13.6241       9.585024       0.15899
   9     398.1        4.0416        0.0091       12.9439       12.9530       8.911386       0.15694
   8     437.6        4.0453        0.0096       12.2429       12.2525       8.207181       0.15056
   7     480.5        4.0506        0.0101       11.5524       11.5625       7.511862       0.13656
   6     533.0        4.0599        0.0105       10.8188       10.8294       6.769526       0.11942
   5     589.8        4.0753        0.0110       10.1668       10.1779       6.102594       0.09899
   4     651.6        4.1042        0.0115        9.5867        9.5982       5.494027       0.08322
   3     718.7        4.1589        0.0121        9.1006        9.1127       4.953777       0.06789
   2     792.3        1.6753        5.6112        0.0516        5.6628       3.987471       0.11082
   1     891.5        1.0069        4.4605        0.0016        4.4621       3.455172       0.04530
   0    1013.0        1.0459        4.1703        0.0014        4.1718       3.125895       0.02286



 Wavenumbers:  6150. -  7700. cm-1, ATM      1
 LEVEL PRESSURE   UPWARD FLUX   DIFDOWN FLUX  DIRDOWN FLUX  DOWNWARD FLUX   NET FLUX    HEATING RATE
          mb          W/m2          W/m2          W/m2        W/m2          W/m2       degree/day
  51    .06700        6.6127        0.0000       30.4684       30.4684      23.855670       0.00000
  50    .07753        6.6127        0.0000       30.4683       30.4683      23.855614       0.04553
  49    .09103        6.6127        0.0000       30.4682       30.4683      23.855540       0.04582
  48    0.1069        6.6127        0.0000       30.4682       30.4682      23.855454       0.04613
  47    0.1255        6.6127        0.0000       30.4681       30.4681      23.855351       0.04643
  46    0.1487        6.6127        0.0000       30.4679       30.4679      23.855218       0.04850
  45    0.1794        6.6127        0.0000       30.4677       30.4677      23.855032       0.05124
  44    0.2165        6.6127        0.0000       30.4675       30.4675      23.854805       0.05163
  43    0.2613        6.6127        0.0000       30.4672       30.4672      23.854528       0.05205
  42    0.3336        6.6127        0.0000       30.4667       30.4667      23.854060       0.05464
  41    0.4307        6.6127        0.0000       30.4661       30.4661      23.853426       0.05511
  40    0.5894        6.6127        0.0001       30.4650       30.4650      23.852369       0.05619
  39     1.339        6.6126        0.0001       30.4598       30.4599      23.847305       0.05701
  38     1.782        6.6126        0.0002       30.4567       30.4569      23.844362       0.05603
  37     2.292        6.6125        0.0003       30.4533       30.4535      23.841027       0.05523
  36     2.964        6.6124        0.0003       30.4489       30.4492      23.836777       0.05335
  35     3.853        6.6124        0.0004       30.4433       30.4437      23.831355       0.05146
  34     5.035        6.6122        0.0006       30.4360       30.4366      23.824362       0.04995
  33     6.613        6.6121        0.0008       30.4266       30.4274      23.815292       0.04849
  32     8.786        6.6119        0.0010       30.4144       30.4154      23.803532       0.04568
  31     11.80        6.6116        0.0014       30.3978       30.3992      23.787591       0.04463
  30     15.07        6.6113        0.0017       30.3811       30.3828      23.771550       0.04142
  29     18.79        6.6109        0.0022       30.3635       30.3656      23.754686       0.03824
  28     23.16        6.6105        0.0026       30.3443       30.3470      23.736429       0.03530
  27     28.12        6.6101        0.0032       30.3239       30.3272      23.717075       0.03290
  26     33.73        6.6096        0.0039       30.3029       30.3068      23.697251       0.02981
  25     40.54        6.6089        0.0046       30.2799       30.2845      23.675565       0.02690
  24     48.69        6.6082        0.0056       30.2548       30.2603      23.652173       0.02421
  23     57.69        6.6073        0.0066       30.2296       30.2362      23.628833       0.02188
  22     68.43        6.6063        0.0078       30.2020       30.2098      23.603457       0.01995
  21     81.20        6.6051        0.0092       30.1714       30.1807      23.575518       0.01846
  20     96.49        6.6037        0.0110       30.1369       30.1478      23.544101       0.01734
  19     114.6        6.6021        0.0130       30.0970       30.1100      23.507990       0.01686
  18     136.5        6.6001        0.0155       30.0504       30.0659      23.465813       0.01622
  17     162.9        6.5977        0.0184       29.9842       30.0025      23.404833       0.01949
  16     196.4        6.5947        0.0221       29.8533       29.8754      23.280657       0.03126
  15     218.7        6.5929        0.0245       29.6742       29.6988      23.105897       0.06635
  14     243.0        6.5910        0.0270       29.3154       29.3424      22.751426       0.12294
  13     269.0        6.5894        0.0295       28.6682       28.6977      22.108334       0.20862
  12     297.5        6.5883        0.0319       27.7720       27.8039      21.215613       0.26477
  11     328.5        6.5880        0.0343       26.8285       26.8628      20.274739       0.25582
  10     361.9        6.5890        0.0367       25.7886       25.8253      19.236354       0.26272
   9     398.1        6.5919        0.0390       24.6047       24.6437      18.051809       0.27597
   8     437.6        6.5980        0.0411       23.3058       23.3469      16.748907       0.27857
   7     480.5        6.6089        0.0430       21.9700       22.0129      15.404078       0.26412
   6     533.0        6.6308        0.0449       20.4313       20.4763      13.845492       0.25073
   5     589.8        6.6708        0.0466       18.8913       18.9379      12.267102       0.23428
   4     651.6        6.7512        0.0479       17.2864       17.3343      10.583127       0.23029
   3     718.7        6.9112        0.0488       15.7330       15.7818       8.870575       0.21522
   2     792.3        2.7178        9.6888        0.0923        9.7810       7.063184       0.20729
   1     891.5        1.5870        7.5310        0.0028        7.5338       5.946851       0.09499
   0    1013.0        1.6948        6.7577        0.0025        6.7601       5.065367       0.06121



 Wavenumbers:  7700. -  8050. cm-1, ATM      1
 LEVEL PRESSURE   UPWARD FLUX   DIFDOWN FLUX  DIRDOWN FLUX  DOWNWARD FLUX   NET FLUX    HEATING RATE
          mb          W/m2          W/m2          W/m2        W/m2          W/m2       degree/day
  51    .06700        3.0199        0.0000        7.2006        7.2006       4.180675       0.00000
  50    .07753        3.0199        0.0000        7.2006        7.2006       4.180655       0.01584
  49    .09103        3.0199        0.0000        7.2005        7.2005       4.180631       0.01553
  48    0.1069        3.0199        0.0000        7.2005        7.2005       4.180602       0.01520
  47    0.1255        3.0199        0.0000        7.2005        7.2005       4.180569       0.01487
  46    0.1487        3.0199        0.0000        7.2004        7.2005       4.180528       0.01509
  45    0.1794        3.0199        0.0000        7.2004        7.2004       4.180471       0.01553
  44    0.2165        3.0199        0.0000        7.2003        7.2003       4.180404       0.01523
  43    0.2613        3.0199        0.0000        7.2003        7.2003       4.180325       0.01495
  42    0.3336        3.0200        0.0000        7.2001        7.2001       4.180194       0.01529
  41    0.4307        3.0200        0.0000        7.2000        7.2000       4.180020       0.01513
  40    0.5894        3.0200        0.0000        7.1997        7.1997       4.179736       0.01511
  39     1.339        3.0201        0.0001        7.1984        7.1985       4.178392       0.01513
  38     1.782        3.0202        0.0001        7.1977        7.1978       4.177603       0.01502
  37     2.292        3.0202        0.0001        7.1968        7.1969       4.176690       0.01512
  36     2.964        3.0204        0.0001        7.1957        7.1958       4.175491       0.01505
  35     3.853        3.0205        0.0002        7.1942        7.1944       4.173908       0.01502
  34     5.035        3.0207        0.0002        7.1922        7.1925       4.171807       0.01501
  33     6.613        3.0209        0.0003        7.1896        7.1899       4.169003       0.01499
  32     8.786        3.0212        0.0004        7.1860        7.1865       4.165230       0.01465
  31     11.80        3.0217        0.0006        7.1810        7.1815       4.159843       0.01508
  30     15.07        3.0222        0.0007        7.1755        7.1763       4.154074       0.01489
  29     18.79        3.0228        0.0009        7.1694        7.1703       4.147576       0.01473
  28     23.16        3.0234        0.0011        7.1623        7.1634       4.140013       0.01462
  27     28.12        3.0242        0.0013        7.1543        7.1556       4.131399       0.01464
  26     33.73        3.0251        0.0016        7.1453        7.1469       4.121805       0.01442
  25     40.54        3.0261        0.0019        7.1344        7.1364       4.110278       0.01430
  24     48.69        3.0274        0.0023        7.1215        7.1238       4.096476       0.01428
  23     57.69        3.0288        0.0027        7.1075        7.1102       4.081434       0.01410
  22     68.43        3.0304        0.0032        7.0909        7.0941       4.063678       0.01396
  21     81.20        3.0325        0.0038        7.0714        7.0752       4.042748       0.01383
  20     96.49        3.0349        0.0046        7.0484        7.0530       4.018118       0.01359
  19     114.6        3.0378        0.0054        7.0217        7.0271       3.989299       0.01346
  18     136.5        3.0413        0.0064        6.9906        6.9970       3.955710       0.01292
  17     162.9        3.0455        0.0076        6.9544        6.9620       3.916472       0.01254
  16     196.4        3.0512        0.0091        6.9088        6.9179       3.866749       0.01252
  15     218.7        3.0549        0.0101        6.8795        6.8896       3.834697       0.01217
  14     243.0        3.0591        0.0112        6.8482        6.8594       3.800340       0.01192
  13     269.0        3.0636        0.0124        6.8148        6.8272       3.763583       0.01192
  12     297.5        3.0687        0.0137        6.7794        6.7930       3.724290       0.01165
  11     328.5        3.0744        0.0150        6.7415        6.7566       3.682190       0.01145
  10     361.9        3.0807        0.0165        6.7014        6.7179       3.637237       0.01137
   9     398.1        3.0877        0.0181        6.6586        6.6767       3.589002       0.01124
   8     437.6        3.0956        0.0198        6.6128        6.6326       3.537007       0.01112
   7     480.5        3.1045        0.0216        6.5638        6.5853       3.480831       0.01103
   6     533.0        3.1162        0.0238        6.5031        6.5268       3.410631       0.01129
   5     589.8        3.1299        0.0261        6.4362        6.4623       3.332464       0.01160
   4     651.6        3.1465        0.0286        6.3609        6.3895       3.243040       0.01223
   3     718.7        3.1669        0.0313        6.2745        6.3058       3.138814       0.01310
   2     792.3        1.4130        4.2828        0.0413        4.3241       2.911104       0.02612
   1     891.5        0.8768        3.6487        0.0014        3.6501       2.773304       0.01173
   0    1013.0        0.8939        3.5641        0.0014        3.5655       2.671592       0.00706



 Wavenumbers:  8050. - 12850. cm-1, ATM      1
 LEVEL PRESSURE   UPWARD FLUX   DIFDOWN FLUX  DIRDOWN FLUX  DOWNWARD FLUX   NET FLUX    HEATING RATE
          mb          W/m2          W/m2          W/m2        W/m2          W/m2       degree/day
  51    .06700       41.1791        0.0000      100.8135      100.8135      59.634451       0.00000
  50    .07753       41.1790        0.0000      100.8135      100.8135      59.634451       0.00000
  49    .09103       41.1790        0.0001      100.8134      100.8135      59.634451      -0.00000
  48    0.1069       41.1790        0.0001      100.8134      100.8135      59.634451      -0.00000
  47    0.1255       41.1790        0.0001      100.8133      100.8134      59.634451       0.00000
  46    0.1487       41.1789        0.0002      100.8132      100.8134      59.634451       0.00000
  45    0.1794       41.1789        0.0003      100.8131      100.8133      59.634451      -0.00000
  44    0.2165       41.1788        0.0004      100.8129      100.8133      59.634451      -0.00000
  43    0.2613       41.1788        0.0005      100.8127      100.8132      59.634451       0.00000
  42    0.3336       41.1786        0.0006      100.8125      100.8131      59.634451      -0.00000
  41    0.4307       41.1785        0.0009      100.8121      100.8129      59.634451      -0.00000
  40    0.5894       41.1782        0.0012      100.8115      100.8127      59.634451       0.00000
  39     1.339       41.1770        0.0030      100.8085      100.8115      59.634451       0.00000
  38     1.782       41.1763        0.0040      100.8068      100.8108      59.634451      -0.00000
  37     2.292       41.1755        0.0052      100.8047      100.8100      59.634451       0.00000
  36     2.964       41.1744        0.0068      100.8021      100.8089      59.634451      -0.00000
  35     3.853       41.1730        0.0089      100.7986      100.8075      59.634451      -0.00000
  34     5.035       41.1711        0.0116      100.7940      100.8056      59.634451       0.00000
  33     6.613       41.1686        0.0153      100.7878      100.8031      59.634451      -0.00000
  32     8.786       41.1652        0.0203      100.7794      100.7997      59.634451       0.00000
  31     11.80       41.1604        0.0274      100.7674      100.7948      59.634451      -0.00000
  30     15.07       41.1552        0.0351      100.7546      100.7896      59.634451       0.00000
  29     18.79       41.1493        0.0437      100.7400      100.7837      59.634451      -0.00000
  28     23.16       41.1424        0.0539      100.7230      100.7768      59.634451       0.00000
  27     28.12       41.1345        0.0654      100.7035      100.7689      59.634451      -0.00000
  26     33.73       41.1256        0.0784      100.6817      100.7601      59.634451      -0.00000
  25     40.54       41.1149        0.0941      100.6552      100.7494      59.634451      -0.00000
  24     48.69       41.1020        0.1131      100.6234      100.7364      59.634451       0.00000
  23     57.69       41.0878        0.1339      100.5883      100.7222      59.634451      -0.00000
  22     68.43       41.0708        0.1588      100.5464      100.7053      59.634451      -0.00000
  21     81.20       41.0506        0.1885      100.4965      100.6850      59.634451       0.00000
  20     96.49       41.0264        0.2239      100.4370      100.6609      59.634451      -0.00000
  19     114.6       40.9978        0.2660      100.3601      100.6261      59.628339       0.00285
  18     136.5       40.9637        0.3160      100.2685      100.5845      59.620769       0.00291
  17     162.9       40.9231        0.3756      100.1557      100.5314      59.608223       0.00401
  16     196.4       40.8704        0.4531       99.9935      100.4466      59.576199       0.00806
  15     218.7       40.8359        0.5041       99.8490      100.3531      59.517139       0.02242
  14     243.0       40.7989        0.5594       99.6218      100.1812      59.382301       0.04677
  13     269.0       40.7599        0.6190       99.2701       99.8892      59.129291       0.08208
  12     297.5       40.7199        0.6832       98.7863       99.4695      58.749554       0.11263
  11     328.5       40.6795        0.7522       98.2127       98.9649      58.285360       0.12621
  10     361.9       40.6401        0.8260       97.5096       98.3356      57.695461       0.14925
   9     398.1       40.6041        0.9047       96.6249       97.5296      56.925494       0.17939
   8     437.6       40.5756        0.9879       95.5141       96.5020      55.926371       0.21362
   7     480.5       40.5598        1.0755       94.1664       95.2419      54.682069       0.24438
   6     533.0       40.5683        1.1805       92.2972       93.4778      52.909474       0.28515
   5     589.8       40.6295        1.2895       90.0044       91.2938      50.664335       0.33325
   4     651.6       40.8074        1.3994       87.0975       88.4969      47.689529       0.40681
   3     718.7       41.1998        1.5091       83.6639       85.1729      43.973136       0.46705
   2     792.3       18.0264       57.9391        0.5686       58.5076      40.481264       0.40048
   1     891.5       10.9072       48.2182        0.0196       48.2377      37.330526       0.26811
   0    1013.0       11.3329       45.1872        0.0179       45.2051      33.872202       0.24013



 Wavenumbers: 12850. - 16000. cm-1, ATM      1
 LEVEL PRESSURE   UPWARD FLUX   DIFDOWN FLUX  DIRDOWN FLUX  DOWNWARD FLUX   NET FLUX    HEATING RATE
          mb          W/m2          W/m2          W/m2        W/m2          W/m2       degree/day
  51    .06700       37.1688        0.0000       63.1686       63.1686      25.999750       0.00000
  50    .07753       37.1688        0.0001       63.1677       63.1678      25.998969       0.62542
  49    .09103       37.1688        0.0001       63.1666       63.1668      25.997997       0.60790
  48    0.1069       37.1687        0.0002       63.1654       63.1656      25.996889       0.58960
  47    0.1255       37.1687        0.0003       63.1640       63.1643      25.995629       0.57124
  46    0.1487       37.1687        0.0004       63.1623       63.1627      25.994057       0.57297
  45    0.1794       37.1686        0.0006       63.1600       63.1606      25.991949       0.57882
  44    0.2165       37.1686        0.0008       63.1573       63.1581      25.989510       0.55484
  43    0.2613       37.1685        0.0010       63.1542       63.1552      25.986695       0.53051
  42    0.3336       37.1685        0.0014       63.1493       63.1507      25.982209       0.52307
  41    0.4307       37.1685        0.0019       63.1431       63.1451      25.976594       0.48817
  40    0.5894       37.1685        0.0027       63.1338       63.1366      25.968082       0.45269
  39     1.339       37.1700        0.0067       63.0956       63.1022      25.932210       0.40385
  38     1.782       37.1720        0.0090       63.0740       63.0830      25.911029       0.40325
  37     2.292       37.1752        0.0116       63.0477       63.0593      25.884129       0.44553
  36     2.964       37.1808        0.0151       63.0095       63.0247      25.843812       0.50611
  35     3.853       37.1904        0.0197       62.9533       62.9730      25.782587       0.58104
  34     5.035       37.2052        0.0259       62.8725       62.8984      25.693204       0.63851
  33     6.613       37.2259        0.0340       62.7621       62.7961      25.570182       0.65768
  32     8.786       37.2528        0.0450       62.6182       62.6633      25.410482       0.62022
  31     11.80       37.2872        0.0607       62.4284       62.4891      25.201865       0.58406
  30     15.07       37.3194        0.0775       62.2426       62.3201      25.000660       0.51947
  29     18.79       37.3517        0.0964       62.0493       62.1457      24.794070       0.46840
  28     23.16       37.3844        0.1185       61.8425       61.9609      24.576525       0.42066
  27     28.12       37.4162        0.1437       61.6278       61.7715      24.355284       0.37610
  26     33.73       37.4437        0.1718       61.4177       61.5895      24.145817       0.31494
  25     40.54       37.4674        0.2057       61.1983       61.4040      23.936611       0.25954
  24     48.69       37.4869        0.2465       60.9680       61.2145      23.727612       0.21628
  23     57.69       37.4995        0.2913       60.7478       61.0391      23.539612       0.17622
  22     68.43       37.5050        0.3446       60.5202       60.8648      23.359823       0.14134
  21     81.20       37.4984        0.4081       60.2938       60.7019      23.203483       0.10331
  20     96.49       37.4785        0.4837       60.0643       60.5479      23.069404       0.07400
  19     114.6       37.4545        0.5739       59.8078       60.3817      22.927164       0.06642
  18     136.5       37.4209        0.6806       59.5158       60.1964      22.775549       0.05830
  17     162.9       37.3761        0.8074       59.1773       59.9847      22.608680       0.05334
  16     196.4       37.3078        0.9714       58.7611       59.7326      22.424730       0.04630
  15     218.7       37.2595        1.0789       58.4958       59.5747      22.315208       0.04158
  14     243.0       37.2055        1.1954       58.2104       59.4058      22.200309       0.03985
  13     269.0       37.1457        1.3214       57.9039       59.2253      22.079590       0.03916
  12     297.5       37.0802        1.4572       57.5736       59.0309      21.950633       0.03825
  11     328.5       37.0097        1.6037       57.2160       58.8197      21.809976       0.03824
  10     361.9       36.9345        1.7608       56.8288       58.5896      21.655052       0.03920
   9     398.1       36.8551        1.9294       56.4074       58.3368      21.481674       0.04039
   8     437.6       36.7727        2.1098       55.9445       58.0543      21.281603       0.04278
   7     480.5       36.6886        2.3023       55.4356       57.7379      21.049244       0.04563
   6     533.0       36.5931        2.5377       54.7850       57.3227      20.729584       0.05142
   5     589.8       36.5051        2.7893       54.0438       56.8332      20.328104       0.05959
   4     651.6       36.4404        3.0563       53.1687       56.2250      19.784554       0.07433
   3     718.7       36.4115        3.3370       52.1625       55.4995      19.087993       0.08754
   2     792.3       23.2624       41.2738        0.3902       41.6640      18.401577       0.07872
   1     891.5       19.3181       36.9181        0.0146       36.9328      17.614616       0.06697
   0    1013.0       19.5514       36.0720        0.0140       36.0860      16.534583       0.07499



 Wavenumbers: 16000. - 22650. cm-1, ATM      1
 LEVEL PRESSURE   UPWARD FLUX   DIFDOWN FLUX  DIRDOWN FLUX  DOWNWARD FLUX   NET FLUX    HEATING RATE
          mb          W/m2          W/m2          W/m2        W/m2          W/m2       degree/day
  51    .06700       76.1822        0.0000      100.7153      100.7153      24.533144       0.00000
  50    .07753       76.1820        0.0003      100.7147      100.7151      24.533027       0.09420
  49    .09103       76.1819        0.0007      100.7140      100.7147      24.532856       0.10685
  48    0.1069       76.1817        0.0012      100.7131      100.7143      24.532627       0.12184
  47    0.1255       76.1815        0.0017      100.7121      100.7139      24.532321       0.13888
  46    0.1487       76.1813        0.0024      100.7108      100.7132      24.531869       0.16457
  45    0.1794       76.1811        0.0034      100.7089      100.7122      24.531163       0.19377
  44    0.2165       76.1808        0.0045      100.7066      100.7110      24.530206       0.21777
  43    0.2613       76.1806        0.0058      100.7037      100.7095      24.528907       0.24482
  42    0.3336       76.1802        0.0080      100.6987      100.7067      24.526438       0.28791
  41    0.4307       76.1799        0.0108      100.6918      100.7026      24.522716       0.32363
  40    0.5894       76.1797        0.0155      100.6797      100.6953      24.515617       0.37748
  39     1.339       76.1841        0.0378      100.6095      100.6473      24.463184       0.59030
  38     1.782       76.1907        0.0508      100.5585      100.6093      24.418531       0.85013
  37     2.292       76.2022        0.0659      100.4903      100.5562      24.353915       1.07020
  36     2.964       76.2232        0.0857      100.3868      100.4725      24.249286       1.31341
  35     3.853       76.2591        0.1119      100.2306      100.3425      24.083385       1.57443
  34     5.035       76.3148        0.1465      100.0045      100.1510      23.836143       1.76620
  33     6.613       76.3935        0.1927       99.6939       99.8866      23.493075       1.83404
  32     8.786       76.4953        0.2549       99.2881       99.5429      23.047581       1.73014
  31     11.80       76.6252        0.3435       98.7496       99.0931      22.467892       1.62295
  30     15.07       76.7461        0.4382       98.2198       98.6581      21.911934       1.43537
  29     18.79       76.8662        0.5449       97.6651       98.2101      21.343861       1.28800
  28     23.16       76.9874        0.6691       97.0671       97.7362      20.748875       1.15051
  27     28.12       77.1036        0.8105       96.4406       97.2511      20.147488       1.02232
  26     33.73       77.2017        0.9683       95.8179       96.7862      19.584512       0.84645
  25     40.54       77.2831        1.1582       95.1548       96.3131      19.029974       0.68797
  24     48.69       77.3454        1.3863       94.4420       95.8283      18.482907       0.56613
  23     57.69       77.3793        1.6359       93.7416       95.3775      17.998217       0.45432
  22     68.43       77.3824        1.9318       92.9954       94.9272      17.544799       0.35645
  21     81.20       77.3352        2.2831       92.2231       94.5062      17.171016       0.24699
  20     96.49       77.2319        2.6996       91.4110       94.1106      16.878687       0.16134
  19     114.6       77.0862        3.1909       90.5070       93.6979      16.611706       0.12466
  18     136.5       76.8984        3.7682       89.4803       93.2485      16.350059       0.10061
  17     162.9       76.6620        4.4488       88.3023       92.7511      16.089084       0.08342
  16     196.4       76.3265        5.3212       86.8607       92.1820      15.855538       0.05879
  15     218.7       76.0963        5.8880       85.9494       91.8373      15.740986       0.04349
  14     243.0       75.8426        6.4983       84.9792       91.4775      15.634952       0.03678
  13     269.0       75.5640        7.1534       83.9498       91.1032      15.539167       0.03107
  12     297.5       75.2601        7.8538       82.8601       90.7139      15.453831       0.02531
  11     328.5       74.9319        8.6020       81.7009       90.3029      15.371063       0.02250
  10     361.9       74.5793        9.3978       80.4725       89.8703      15.290948       0.02027
   9     398.1       74.2015       10.2429       79.1714       89.4143      15.212808       0.01821
   8     437.6       73.7987       11.1377       77.7953       88.9330      15.134326       0.01678
   7     480.5       73.3705       12.0824       76.3434       88.4258      15.055286       0.01552
   6     533.0       72.8495       13.2251       74.5859       87.8109      14.961396       0.01510
   5     589.8       72.2972       14.4324       72.7227       87.1551      14.857878       0.01537
   4     651.6       71.7170       15.7026       70.7478       86.4504      14.733374       0.01703
   3     718.7       71.1122       17.0337       68.6568       85.6905      14.578321       0.01949
   2     792.3       55.2213       69.1038        0.5311       69.6349      14.413583       0.01889
   1     891.5       50.6424       64.8092        0.0203       64.8295      14.187106       0.01927
   0    1013.0       50.4960       64.3315        0.0192       64.3507      13.854710       0.02308



 Wavenumbers: 22650. - 29000. cm-1, ATM      1
 LEVEL PRESSURE   UPWARD FLUX   DIFDOWN FLUX  DIRDOWN FLUX  DOWNWARD FLUX   NET FLUX    HEATING RATE
          mb          W/m2          W/m2          W/m2        W/m2          W/m2       degree/day
  51    .06700       32.6355        0.0000       38.0063       38.0063       5.370836       0.00000
  50    .07753       32.6353        0.0004       38.0057       38.0061       5.370836       0.00000
  49    .09103       32.6351        0.0009       38.0050       38.0059       5.370836       0.00000
  48    0.1069       32.6348        0.0014       38.0042       38.0057       5.370836       0.00000
  47    0.1255       32.6345        0.0020       38.0033       38.0054       5.370836       0.00000
  46    0.1487       32.6342        0.0028       38.0022       38.0050       5.370836      -0.00000
  45    0.1794       32.6337        0.0039       38.0006       38.0045       5.370836       0.00000
  44    0.2165       32.6331        0.0052       37.9987       38.0039       5.370836       0.00000
  43    0.2613       32.6324        0.0067       37.9965       38.0032       5.370836      -0.00000
  42    0.3336       32.6313        0.0093       37.9928       38.0021       5.370836       0.00000
  41    0.4307       32.6298        0.0126       37.9880       38.0006       5.370836      -0.00000
  40    0.5894       32.6273        0.0181       37.9800       37.9981       5.370836       0.00000
  39     1.339       32.6156        0.0439       37.9425       37.9864       5.370836       0.00000
  38     1.782       32.6087        0.0591       37.9204       37.9795       5.370836      -0.00000
  37     2.292       32.6008        0.0767       37.8949       37.9716       5.370836       0.00000
  36     2.964       32.5903        0.0997       37.8614       37.9612       5.370836       0.00000
  35     3.853       32.5765        0.1301       37.8172       37.9474       5.370836      -0.00000
  34     5.035       32.5583        0.1705       37.7586       37.9291       5.370836       0.00000
  33     6.613       32.5339        0.2244       37.6803       37.9047       5.370836       0.00000
  32     8.786       32.5010        0.2968       37.5750       37.8719       5.370836       0.00000
  31     11.80       32.4542        0.4002       37.4249       37.8250       5.370836       0.00000
  30     15.07       32.4040        0.5107       37.2642       37.7749       5.370836      -0.00000
  29     18.79       32.3475        0.6351       37.0833       37.7184       5.370836       0.00000
  28     23.16       32.2818        0.7797       36.8730       37.6527       5.370836      -0.00000
  27     28.12       32.2070        0.9441       36.6338       37.5779       5.370836       0.00000
  26     33.73       32.1238        1.1269       36.3677       37.4946       5.370836       0.00000
  25     40.54       32.0238        1.3461       36.0486       37.3947       5.370836       0.00000
  24     48.69       31.9043        1.6079       35.6672       37.2751       5.370836       0.00000
  23     57.69       31.7742        1.8923       35.2527       37.1450       5.370836      -0.00000
  22     68.43       31.6208        2.2267       34.7649       36.9916       5.370836       0.00000
  21     81.20       31.4404        2.6190       34.1922       36.8113       5.370836       0.00000
  20     96.49       31.2288        3.0779       33.5217       36.5996       5.370836       0.00000
  19     114.6       30.9821        3.6106       32.7424       36.3530       5.370836      -0.00000
  18     136.5       30.6962        4.2254       31.8416       36.0670       5.370836       0.00000
  17     162.9       30.3644        4.9345       30.8008       35.7353       5.370836       0.00000
  16     196.4       29.9480        5.8181       29.5007       35.3188       5.370836       0.00000
  15     218.7       29.6827        6.3768       28.6767       35.0535       5.370836       0.00000
  14     243.0       29.4015        6.9655       27.8068       34.7723       5.370836       0.00000
  13     269.0       29.1049        7.5823       26.8934       34.4757       5.370836       0.00000
  12     297.5       28.7934        8.2248       25.9394       34.1643       5.370836      -0.00000
  11     328.5       28.4670        8.8925       24.9454       33.8379       5.370836       0.00000
  10     361.9       28.1270        9.5812       23.9166       33.4978       5.370836       0.00000
   9     398.1       27.7736       10.2894       22.8551       33.1445       5.370836      -0.00000
   8     437.6       27.4083       11.0125       21.7666       32.7791       5.370836      -0.00000
   7     480.5       27.0317       11.7475       20.6551       32.4026       5.370836       0.00000
   6     533.0       26.5889       12.5972       19.3625       31.9597       5.370836      -0.00000
   5     589.8       26.1350       13.4502       18.0557       31.5059       5.370836       0.00000
   4     651.6       25.6716       14.3011       16.7414       31.0424       5.370836      -0.00000
   3     718.7       25.2018       15.1396       15.4330       30.5726       5.370836      -0.00000
   2     792.3       21.2009       26.4547        0.1170       26.5718       5.370836       0.00000
   1     891.5       19.8254       25.1920        0.0043       25.1963       5.370836       0.00000
   0    1013.0       19.5750       24.9421        0.0037       24.9458       5.370836       0.00000



 Wavenumbers: 29000. - 38000. cm-1, ATM      1
 LEVEL PRESSURE   UPWARD FLUX   DIFDOWN FLUX  DIRDOWN FLUX  DOWNWARD FLUX   NET FLUX    HEATING RATE
          mb          W/m2          W/m2          W/m2        W/m2          W/m2       degree/day
  51    .06700        4.7473        0.0000       13.4026       13.4026       8.655322       0.00000
  50    .07753        4.7471        0.0003       13.3983       13.3986       8.651523       3.04425
  49    .09103        4.7468        0.0007       13.3921       13.3928       8.646004       3.44952
  48    0.1069        4.7465        0.0011       13.3840       13.3851       8.638628       3.92659
  47    0.1255        4.7461        0.0016       13.3733       13.3749       8.628783       4.46297
  46    0.1487        4.7457        0.0022       13.3579       13.3600       8.614342       5.26413
  45    0.1794        4.7451        0.0030       13.3340       13.3371       8.591943       6.14897
  44    0.2165        4.7444        0.0040       13.3024       13.3064       8.561926       6.82843
  43    0.2613        4.7437        0.0051       13.2604       13.2655       8.521873       7.54972
  42    0.3336        4.7424        0.0070       13.1833       13.1903       8.447871       8.62796
  41    0.4307        4.7409        0.0095       13.0729       13.0824       8.341505       9.24826
  40    0.5894        4.7385        0.0133       12.8796       12.8929       8.154474       9.94607
  39     1.339        4.7298        0.0295       11.9165       11.9461       7.216229      10.56293
  38     1.782        4.7264        0.0378       11.4399       11.4777       6.751328       8.85098
  37     2.292        4.7238        0.0467       10.9796       11.0263       6.302507       7.43364
  36     2.964        4.7221        0.0575       10.4786       10.5361       5.814051       6.13159
  35     3.853        4.7223        0.0709        9.9429       10.0138       5.291464       4.95945
  34     5.035        4.7252        0.0876        9.4007        9.4883       4.763126       3.77423
  33     6.613        4.7308        0.1088        8.8752        8.9841       4.253272       2.72568
  32     8.786        4.7385        0.1362        8.3786        8.5148       3.776232       1.85265
  31     11.80        4.7479        0.1737        7.8897        8.0633       3.315478       1.28997
  30     15.07        4.7557        0.2124        7.5108        7.7232       2.967434       0.89858
  29     18.79        4.7629        0.2545        7.1776        7.4321       2.669255       0.67606
  28     23.16        4.7691        0.3020        6.8664        7.1684       2.399246       0.52211
  27     28.12        4.7738        0.3544        6.5780        6.9324       2.158608       0.40907
  26     33.73        4.7745        0.4115        6.3195        6.7310       1.956451       0.30395
  25     40.54        4.7700        0.4788        6.0663        6.5451       1.775117       0.22497
  24     48.69        4.7596        0.5577        5.8128        6.3706       1.610918       0.16992
  23     57.69        4.7436        0.6419        5.5777        6.2196       1.475975       0.12649
  22     68.43        4.7194        0.7392        5.3379        6.0771       1.357672       0.09300
  21     81.20        4.6830        0.8521        5.0965        5.9486       1.265635       0.06082
  20     96.49        4.6330        0.9824        4.8476        5.8301       1.197132       0.03781
  19     114.6        4.5723        1.1300        4.5799        5.7099       1.137536       0.02783
  18     136.5        4.5021        1.2947        4.2891        5.5838       1.081711       0.02147
  17     162.9        4.4218        1.4772        3.9732        5.4504       1.028531       0.01700
  16     196.4        4.3203        1.6954        3.6080        5.3034       0.983114       0.01143
  15     218.7        4.2562        1.8280        3.3898        5.2178       0.961511       0.00820
  14     243.0        4.1896        1.9629        3.1686        5.1315       0.941928       0.00679
  13     269.0        4.1205        2.0991        2.9461        5.0452       0.924668       0.00560
  12     297.5        4.0495        2.2353        2.7239        4.9593       0.909749       0.00442
  11     328.5        3.9773        2.3702        2.5029        4.8731       0.895748       0.00381
  10     361.9        3.9044        2.5025        2.2846        4.7871       0.882686       0.00330
   9     398.1        3.8312        2.6309        2.0708        4.7017       0.870557       0.00283
   8     437.6        3.7581        2.7541        1.8631        4.6172       0.859102       0.00245
   7     480.5        3.6854        2.8712        1.6626        4.5338       0.848441       0.00209
   6     533.0        3.6033        2.9958        1.4445        4.4403       0.837065       0.00183
   5     589.8        3.5229        3.1090        1.2402        4.3491       0.826297       0.00160
   4     651.6        3.4446        3.2091        1.0514        4.2606       0.815986       0.00141
   3     718.7        3.3687        3.2955        0.8794        4.1748       0.806100       0.00124
   2     792.3        3.0403        3.8311        0.0062        3.8372       0.796986       0.00105
   1     891.5        2.8840        3.6704        0.0002        3.6706       0.786660       0.00088
   0    1013.0        2.8271        3.6026        0.0001        3.6028       0.775674       0.00076



 Wavenumbers: 38000. - 50000. cm-1, ATM      1
 LEVEL PRESSURE   UPWARD FLUX   DIFDOWN FLUX  DIRDOWN FLUX  DOWNWARD FLUX   NET FLUX    HEATING RATE
          mb          W/m2          W/m2          W/m2        W/m2          W/m2       degree/day
  51    .06700        0.0051        0.0000        0.8267        0.8267       0.821528       0.00000
  50    .07753        0.0051        0.0001        0.8242        0.8243       0.819196       1.86936
  49    .09103        0.0050        0.0002        0.8207        0.8209       0.815872       2.07705
  48    0.1069        0.0049        0.0002        0.8162        0.8164       0.811514       2.31984
  47    0.1255        0.0048        0.0004        0.8103        0.8106       0.805801       2.59006
  46    0.1487        0.0047        0.0005        0.8018        0.8023       0.797567       3.00143
  45    0.1794        0.0045        0.0007        0.7889        0.7896       0.785013       3.44648
  44    0.2165        0.0044        0.0009        0.7720        0.7729       0.768507       3.75474
  43    0.2613        0.0042        0.0011        0.7500        0.7511       0.746955       4.06246
  42    0.3336        0.0039        0.0015        0.7106        0.7121       0.708267       4.51071
  41    0.4307        0.0035        0.0019        0.6566        0.6584       0.654972       4.63387
  40    0.5894        0.0029        0.0024        0.5680        0.5704       0.567464       4.65357
  39     1.339        0.0015        0.0030        0.2422        0.2452       0.243720       3.64476
  38     1.782        0.0010        0.0026        0.1493        0.1519       0.150889       1.76735
  37     2.292        0.0007        0.0022        0.0924        0.0946       0.093932       0.94336
  36     2.964        0.0005        0.0018        0.0539        0.0557       0.055224       0.48589
  35     3.853        0.0003        0.0013        0.0295        0.0308       0.030502       0.23462
  34     5.035        0.0002        0.0010        0.0154        0.0164       0.016181       0.10230
  33     6.613        0.0001        0.0007        0.0073        0.0080       0.007912       0.04420
  32     8.786        0.0000        0.0004        0.0030        0.0034       0.003390       0.01756
  31     11.80        0.0000        0.0003        0.0010        0.0012       0.001199       0.00613
  30     15.07        0.0000        0.0001        0.0003        0.0005       0.000463       0.00190
  29     18.79        0.0000        0.0001        0.0001        0.0002       0.000182       0.00064
  28     23.16        0.0000        0.0000        0.0000        0.0001       0.000071       0.00022
  27     28.12        0.0000        0.0000        0.0000        0.0000       0.000028       0.00007
  26     33.73        0.0000        0.0000        0.0000        0.0000       0.000011       0.00002
  25     40.54        0.0000        0.0000        0.0000        0.0000       0.000005       0.00001
  24     48.69        0.0000        0.0000        0.0000        0.0000       0.000002       0.00000
  23     57.69        0.0000        0.0000        0.0000        0.0000       0.000001       0.00000
  22     68.43        0.0000        0.0000        0.0000        0.0000       0.000000       0.00000
  21     81.20        0.0000        0.0000        0.0000        0.0000       0.000000       0.00000
  20     96.49        0.0000        0.0000        0.0000        0.0000       0.000000       0.00000
  19     114.6        0.0000        0.0000        0.0000        0.0000       0.000000       0.00000
  18     136.5        0.0000        0.0000        0.0000        0.0000       0.000000       0.00000
  17     162.9        0.0000        0.0000        0.0000        0.0000       0.000000       0.00000
  16     196.4        0.0000        0.0000        0.0000        0.0000       0.000000       0.00000
  15     218.7        0.0000        0.0000        0.0000        0.0000       0.000000       0.00000
  14     243.0        0.0000        0.0000        0.0000        0.0000       0.000000       0.00000
  13     269.0        0.0000        0.0000        0.0000        0.0000       0.000000       0.00000
  12     297.5        0.0000        0.0000        0.0000        0.0000       0.000000       0.00000
  11     328.5        0.0000        0.0000        0.0000        0.0000       0.000000       0.00000
  10     361.9        0.0000        0.0000        0.0000        0.0000       0.000000       0.00000
   9     398.1        0.0000        0.0000        0.0000        0.0000       0.000000       0.00000
   8     437.6        0.0000        0.0000        0.0000        0.0000       0.000000       0.00000
   7     480.5        0.0000        0.0000        0.0000        0.0000       0.000000       0.00000
   6     533.0        0.0000        0.0000        0.0000        0.0000       0.000000       0.00000
   5     589.8        0.0000        0.0000        0.0000        0.0000       0.000000       0.00000
   4     651.6        0.0000        0.0000        0.0000        0.0000       0.000000       0.00000
   3     718.7        0.0000        0.0000        0.0000        0.0000       0.000000       0.00000
   2     792.3        0.0000        0.0000        0.0000        0.0000       0.000000       0.00000
   1     891.5        0.0000        0.0000        0.0000        0.0000       0.000000       0.00000
   0    1013.0        0.0000        0.0000        0.0000        0.0000       0.000000       0.00000



 Wavenumbers:   820. -  2600. cm-1, ATM      1
 LEVEL PRESSURE   UPWARD FLUX   DIFDOWN FLUX  DIRDOWN FLUX  DOWNWARD FLUX   NET FLUX    HEATING RATE
          mb          W/m2          W/m2          W/m2        W/m2          W/m2       degree/day
  51    .06700        0.1730        0.0000        3.8670        3.8670       3.693978       0.00000
  50    .07753        0.1730        0.0000        3.8643        3.8643       3.691252       2.18510
  49    .09103        0.1730        0.0000        3.8635        3.8635       3.690430       0.51377
  48    0.1069        0.1730        0.0000        3.8626        3.8626       3.689525       0.48158
  47    0.1255        0.1730        0.0000        3.8616        3.8616       3.688547       0.44311
  46    0.1487        0.1730        0.0000        3.8605        3.8605       3.687416       0.41229
  45    0.1794        0.1730        0.0000        3.8591        3.8591       3.686052       0.37466
  44    0.2165        0.1730        0.0000        3.8577        3.8577       3.684638       0.32152
  43    0.2613        0.1730        0.0000        3.8562        3.8562       3.683134       0.28349
  42    0.3336        0.1730        0.0000        3.8539        3.8539       3.680828       0.26887
  41    0.4307        0.1730        0.0000        3.8509        3.8509       3.677852       0.25879
  40    0.5894        0.1730        0.0000        3.8460        3.8460       3.672969       0.25969
  39     1.339        0.1730        0.0000        3.8240        3.8240       3.650948       0.24791
  38     1.782        0.1730        0.0000        3.8119        3.8119       3.638829       0.23072
  37     2.292        0.1730        0.0000        3.7986        3.7986       3.625512       0.22057
  36     2.964        0.1730        0.0000        3.7823        3.7823       3.609219       0.20452
  35     3.853        0.1730        0.0000        3.7623        3.7623       3.589288       0.18915
  34     5.035        0.1730        0.0000        3.7378        3.7378       3.564772       0.17513
  33     6.613        0.1730        0.0000        3.7076        3.7076       3.534530       0.16167
  32     8.786        0.1731        0.0000        3.6716        3.6716       3.498534       0.13979
  31     11.80        0.1731        0.0000        3.6316        3.6316       3.458520       0.11203
  30     15.07        0.1731        0.0000        3.6017        3.6017       3.428689       0.07702
  29     18.79        0.1731        0.0000        3.5785        3.5785       3.405452       0.05268
  28     23.16        0.1731        0.0000        3.5580        3.5581       3.384987       0.03957
  27     28.12        0.1731        0.0000        3.5377        3.5377       3.364611       0.03464
  26     33.73        0.1731        0.0000        3.5162        3.5162       3.343135       0.03229
  25     40.54        0.1731        0.0000        3.4913        3.4914       3.318268       0.03085
  24     48.69        0.1731        0.0000        3.4628        3.4628       3.289704       0.02956
  23     57.69        0.1731        0.0000        3.4327        3.4327       3.259630       0.02819
  22     68.43        0.1731        0.0000        3.3986        3.3986       3.225515       0.02682
  21     81.20        0.1731        0.0000        3.3606        3.3606       3.187478       0.02513
  20     96.49        0.1731        0.0000        3.3183        3.3183       3.145161       0.02336
  19     114.6        0.1732        0.0000        3.2715        3.2715       3.098303       0.02188
  18     136.5        0.1732        0.0000        3.2206        3.2206       3.047437       0.01956
  17     162.9        0.1732        0.0000        3.1613        3.1613       2.988074       0.01897
  16     196.4        0.1733        0.0000        3.0792        3.0792       2.905881       0.02069
  15     218.7        0.1734        0.0000        3.0115        3.0115       2.838185       0.02570
  14     243.0        0.1735        0.0000        2.9223        2.9223       2.748860       0.03098
  13     269.0        0.1736        0.0000        2.8151        2.8152       2.641539       0.03481
  12     297.5        0.1739        0.0000        2.6710        2.6710       2.497166       0.04282
  11     328.5        0.1742        0.0000        2.4998        2.4998       2.325629       0.04664
  10     361.9        0.1747        0.0000        2.3186        2.3186       2.143934       0.04597
   9     398.1        0.1753        0.0000        2.1555        2.1556       1.980296       0.03812
   8     437.6        0.1760        0.0000        2.0290        2.0290       1.852987       0.02722
   7     480.5        0.1770        0.0000        1.9377        1.9378       1.760808       0.01810
   6     533.0        0.1784        0.0000        1.8432        1.8432       1.664829       0.01544
   5     589.8        0.1806        0.0000        1.7350        1.7350       1.554479       0.01638
   4     651.6        0.1843        0.0000        1.6037        1.6038       1.419438       0.01847
   3     718.7        0.1911        0.0000        1.4647        1.4648       1.273639       0.01832
   2     792.3        0.0259        0.2597        0.0041        0.2638       0.237897       0.11879
   1     891.5        0.0172        0.1029        0.0001        0.1030       0.085726       0.01295
   0    1013.0        0.0207        0.0825        0.0001        0.0826       0.061884       0.00166

  Modules and versions used in this calculation:

       rrtmg_sw.1col.f90:  $Revision$                    rrtmg_sw_init.f90:  $Revision$        
     rrtmgsw_cldprop.f90:  $Revision$                  rrtmgsw_cldprmc.f90:  NOT USED          
     rrtmg_sw_reftra.f90:  $Revision$                  rrtmg_sw_spcvrt.f90:  NOT USED          
     rrtmg_sw_spcvmc.f90:  NOT USED                    rrtmgsw_setcoef.f90:  NOT USED          
     rrtmg_sw_taumol.f90:  $Revision$                  rrtmg_sw_vrtqdr.f90:  NOT USED          
                rrtatm.f:  NOT USED                             util_xxx.f:  NOT USED          
                 extra.f:  NOT USED                       rrtmg_sw_k_g.f90:  $Revision$        

