

 Wavenumbers:   820. - 50000. cm-1, ATM      1
 LEVEL PRESSURE   UPWARD FLUX   DIFDOWN FLUX  DIRDOWN FLUX  DOWNWARD FLUX   NET FLUX    HEATING RATE
          mb          W/m2          W/m2          W/m2        W/m2          W/m2       degree/day
  51    .06700      208.7824        0.0000      397.8738      397.8738     189.091430       0.00000
  50    .07753      208.7817        0.0012      397.8577      397.8588     189.077103      11.48307
  49    .09103      208.7810        0.0026      397.8417      397.8444     189.063376       8.58008
  48    0.1069      208.7801        0.0043      397.8228      397.8271     189.046987       8.72390
  47    0.1255      208.7792        0.0062      397.7995      397.8057     189.026503       9.28644
  46    0.1487      208.7780        0.0086      397.7674      397.7760     188.997996      10.39088
  45    0.1794      208.7765        0.0119      397.7202      397.7321     188.955646      11.62630
  44    0.2165      208.7747        0.0158      397.6598      397.6756     188.900935      12.44567
  43    0.2613      208.7727        0.0204      397.5823      397.6028     188.830066      13.35855
  42    0.3336      208.7696        0.0280      397.4441      397.4721     188.702516      14.87108
  41    0.4307      208.7657        0.0379      397.2513      397.2892     188.523537      15.56182
  40    0.5894      208.7599        0.0538      396.9238      396.9776     188.217691      16.26450
  39     1.339      208.7437        0.1251      395.4223      395.5473     186.803595      15.92015
  38     1.782      208.7414        0.1650      394.7250      394.8899     186.148502      12.47191
  37     2.292      208.7451        0.2104      394.0527      394.2631     185.518003      10.44272
  36     2.964      208.7593        0.2693      393.2958      393.5652     184.805817       8.94009
  35     3.853      208.7912        0.3464      392.4268      392.7732     183.982064       7.81757
  34     5.035      208.8464        0.4478      391.4394      391.8872     183.040794       6.72404
  33     6.613      208.9273        0.5821      390.3226      390.9047     181.977435       5.68472
  32     8.786      209.0312        0.7617      389.0591      389.8208     180.789624       4.61303
  31     11.80      209.1582        1.0166      387.5485      388.5651     179.406866       3.87129
  30     15.07      209.2692        1.2880      386.1563      387.4443     178.175123       3.18012
  29     18.79      209.3719        1.5922      384.7539      386.3461     176.974237       2.72278
  28     23.16      209.4658        1.9446      383.2764      385.2210     175.755174       2.35727
  27     28.12      209.5427        2.3442      381.7455      384.0898     174.547057       2.05372
  26     33.73      209.5841        2.7882      380.2168      383.0050     173.420905       1.69320
  25     40.54      209.5822        3.3206      378.5644      381.8850     172.302744       1.38720
  24     48.69      209.5305        3.9567      376.7572      380.7139     171.183428       1.15832
  23     57.69      209.4262        4.6488      374.9411      379.5899     170.163679       0.95586
  22     68.43      209.2513        5.4646      372.9538      378.4184     169.167102       0.78344
  21     81.20      208.9727        6.4261      370.8117      377.2379     168.265130       0.59601
  20     96.49      208.5777        7.5572      368.4756      376.0328     167.455117       0.44707
  19     114.6      208.0882        8.8780      365.8339      374.7119     166.623734       0.38820
  18     136.5      207.4956       10.4117      362.8400      373.2517     165.756102       0.33363
  17     162.9      206.7846       12.1943      359.3892      371.5836     164.798966       0.30594
  16     196.4      205.8398       14.4414      355.0144      369.4558     163.616045       0.29776
  15     218.7      205.2173       15.8783      351.9594      367.8377     162.620389       0.37801
  14     243.0      204.5469       17.4064      348.2675      365.6739     161.127012       0.51795
  13     269.0      203.8291       19.0239      343.7550      362.7789     158.949800       0.70628
  12     297.5      203.0665       20.7285      338.5068      359.2353     156.168835       0.82480
  11     328.5      202.2627       22.5221      332.8831      355.4052     153.142500       0.82285
  10     361.9      201.4222       24.3993      326.8113      351.2106     149.788421       0.84862
   9     398.1      200.5490       26.3597      320.2372      346.5969     146.047939       0.87145
   8     437.6      199.6533       28.3977      313.1616      341.5593     141.906070       0.88556
   7     480.5      198.7450       30.5100      305.6964      336.2064     137.461408       0.87291
   6     533.0      197.7135       33.0113      296.6807      329.6920     131.978435       0.88204
   5     589.8      196.7402       35.5921      287.0555      322.6476     125.907350       0.90115
   4     651.6      195.9492       38.2405      276.4494      314.6899     118.740676       0.98006
   3     718.7      195.5242       40.9408      265.1657      306.1065     110.582298       1.02528
   2     792.3      127.5892      224.3696        1.8609      226.2305      98.641379       1.36949
   1     891.5      107.2535      198.8766        0.0665      198.9430      91.689527       0.59157
   0    1013.0      107.5303      192.8152        0.0616      192.8768      85.346498       0.44043



 Wavenumbers:  2600. -  3250. cm-1, ATM      1
 LEVEL PRESSURE   UPWARD FLUX   DIFDOWN FLUX  DIRDOWN FLUX  DOWNWARD FLUX   NET FLUX    HEATING RATE
          mb          W/m2          W/m2          W/m2        W/m2          W/m2       degree/day
  51    .06700        0.1891        0.0000        3.5066        3.5066       3.317475       0.00000
  50    .07753        0.1891        0.0000        3.5066        3.5066       3.317467       0.00640
  49    .09103        0.1891        0.0000        3.5066        3.5066       3.317457       0.00627
  48    0.1069        0.1891        0.0000        3.5066        3.5066       3.317446       0.00613
  47    0.1255        0.1891        0.0000        3.5066        3.5066       3.317433       0.00599
  46    0.1487        0.1891        0.0000        3.5066        3.5066       3.317416       0.00607
  45    0.1794        0.1891        0.0000        3.5065        3.5065       3.317393       0.00624
  44    0.2165        0.1891        0.0000        3.5065        3.5065       3.317366       0.00611
  43    0.2613        0.1891        0.0000        3.5065        3.5065       3.317335       0.00598
  42    0.3336        0.1891        0.0000        3.5064        3.5064       3.317282       0.00615
  41    0.4307        0.1891        0.0000        3.5064        3.5064       3.317211       0.00618
  40    0.5894        0.1891        0.0000        3.5062        3.5062       3.317092       0.00633
  39     1.339        0.1891        0.0000        3.5055        3.5055       3.316393       0.00787
  38     1.782        0.1891        0.0000        3.5050        3.5050       3.315862       0.01011
  37     2.292        0.1891        0.0000        3.5043        3.5043       3.315170       0.01147
  36     2.964        0.1891        0.0000        3.5033        3.5033       3.314178       0.01245
  35     3.853        0.1891        0.0000        3.5019        3.5019       3.312801       0.01307
  34     5.035        0.1891        0.0000        3.5001        3.5001       3.310940       0.01329
  33     6.613        0.1891        0.0000        3.4977        3.4977       3.308531       0.01288
  32     8.786        0.1891        0.0000        3.4947        3.4947       3.305560       0.01154
  31     11.80        0.1891        0.0000        3.4911        3.4911       3.301924       0.01018
  30     15.07        0.1891        0.0000        3.4878        3.4878       3.298703       0.00832
  29     18.79        0.1891        0.0000        3.4848        3.4848       3.295639       0.00695
  28     23.16        0.1891        0.0000        3.4816        3.4816       3.292419       0.00623
  27     28.12        0.1891        0.0000        3.4779        3.4779       3.288801       0.00615
  26     33.73        0.1891        0.0000        3.4735        3.4735       3.284334       0.00672
  25     40.54        0.1891        0.0000        3.4671        3.4671       3.278007       0.00785
  24     48.69        0.1891        0.0000        3.4582        3.4583       3.269111       0.00921
  23     57.69        0.1891        0.0000        3.4472        3.4472       3.258062       0.01036
  22     68.43        0.1891        0.0000        3.4329        3.4329       3.243799       0.01121
  21     81.20        0.1892        0.0000        3.4152        3.4152       3.226067       0.01172
  20     96.49        0.1892        0.0000        3.3940        3.3941       3.204918       0.01167
  19     114.6        0.1892        0.0000        3.3693        3.3694       3.180191       0.01155
  18     136.5        0.1892        0.0001        3.3424        3.3425       3.153287       0.01035
  17     162.9        0.1892        0.0001        3.3141        3.3142       3.124941       0.00906
  16     196.4        0.1893        0.0001        3.2825        3.2826       3.093292       0.00797
  15     218.7        0.1893        0.0001        3.2621        3.2622       3.072867       0.00775
  14     243.0        0.1894        0.0001        3.2371        3.2372       3.047762       0.00871
  13     269.0        0.1896        0.0001        3.2052        3.2053       3.015730       0.01039
  12     297.5        0.1899        0.0001        3.1631        3.1632       2.973307       0.01258
  11     328.5        0.1902        0.0001        3.1094        3.1095       2.919333       0.01468
  10     361.9        0.1907        0.0001        3.0408        3.0409       2.850253       0.01748
   9     398.1        0.1914        0.0001        2.9535        2.9536       2.762255       0.02050
   8     437.6        0.1923        0.0001        2.8452        2.8453       2.652969       0.02337
   7     480.5        0.1937        0.0001        2.7179        2.7180       2.524361       0.02526
   6     533.0        0.1959        0.0002        2.5566        2.5568       2.360838       0.02631
   5     589.8        0.1994        0.0002        2.3805        2.3807       2.181327       0.02665
   4     651.6        0.2052        0.0002        2.1827        2.1829       1.977613       0.02786
   3     718.7        0.2152        0.0002        1.9647        1.9649       1.749680       0.02864
   2     792.3        0.0216        0.3047        0.0082        0.3128       0.291209       0.16727
   1     891.5        0.0063        0.1119        0.0002        0.1121       0.105814       0.01578
   0    1013.0        0.0072        0.0927        0.0001        0.0929       0.085664       0.00140



 Wavenumbers:  3250. -  4000. cm-1, ATM      1
 LEVEL PRESSURE   UPWARD FLUX   DIFDOWN FLUX  DIRDOWN FLUX  DOWNWARD FLUX   NET FLUX    HEATING RATE
          mb          W/m2          W/m2          W/m2        W/m2          W/m2       degree/day
  51    .06700        0.0078        0.0000        5.9117        5.9117       5.903831       0.00000
  50    .07753        0.0078        0.0000        5.9074        5.9074       5.899620       3.37561
  49    .09103        0.0078        0.0000        5.9050        5.9050       5.897155       1.54074
  48    0.1069        0.0078        0.0000        5.9031        5.9031       5.895266       1.00535
  47    0.1255        0.0078        0.0000        5.9013        5.9013       5.893488       0.80634
  46    0.1487        0.0078        0.0000        5.8994        5.8994       5.891575       0.69708
  45    0.1794        0.0078        0.0000        5.8972        5.8972       5.889399       0.59741
  44    0.2165        0.0078        0.0000        5.8951        5.8951       5.887252       0.48841
  43    0.2613        0.0078        0.0000        5.8929        5.8929       5.885056       0.41398
  42    0.3336        0.0078        0.0000        5.8897        5.8897       5.881836       0.37536
  41    0.4307        0.0078        0.0000        5.8857        5.8857       5.877925       0.34011
  40    0.5894        0.0078        0.0000        5.8798        5.8798       5.872018       0.31410
  39     1.339        0.0078        0.0000        5.8590        5.8590       5.851216       0.23419
  38     1.782        0.0078        0.0000        5.8506        5.8506       5.842748       0.16123
  37     2.292        0.0078        0.0000        5.8424        5.8424       5.834543       0.13590
  36     2.964        0.0078        0.0000        5.8327        5.8327       5.824894       0.12112
  35     3.853        0.0078        0.0000        5.8206        5.8206       5.812747       0.11528
  34     5.035        0.0078        0.0000        5.8045        5.8045       5.796715       0.11452
  33     6.613        0.0078        0.0000        5.7828        5.7828       5.774979       0.11620
  32     8.786        0.0078        0.0000        5.7527        5.7527       5.744876       0.11691
  31     11.80        0.0078        0.0000        5.7088        5.7089       5.701054       0.12269
  30     15.07        0.0078        0.0000        5.6617        5.6618       5.653962       0.12158
  29     18.79        0.0078        0.0000        5.6101        5.6102       5.602377       0.11696
  28     23.16        0.0078        0.0000        5.5539        5.5539       5.546115       0.10879
  27     28.12        0.0078        0.0000        5.4957        5.4958       5.487967       0.09885
  26     33.73        0.0078        0.0000        5.4379        5.4379       5.430157       0.08692
  25     40.54        0.0078        0.0001        5.3749        5.3750       5.367197       0.07811
  24     48.69        0.0078        0.0001        5.3044        5.3045       5.296735       0.07292
  23     57.69        0.0077        0.0001        5.2294        5.2295       5.221732       0.07030
  22     68.43        0.0077        0.0001        5.1416        5.1417       5.133970       0.06899
  21     81.20        0.0077        0.0001        5.0402        5.0403       5.032557       0.06701
  20     96.49        0.0077        0.0001        4.9260        4.9261       4.918375       0.06302
  19     114.6        0.0077        0.0001        4.7954        4.7956       4.787900       0.06092
  18     136.5        0.0077        0.0002        4.6558        4.6560       4.648307       0.05368
  17     162.9        0.0076        0.0002        4.4963        4.4964       4.488815       0.05098
  16     196.4        0.0076        0.0002        4.2728        4.2731       4.265460       0.05622
  15     218.7        0.0076        0.0002        4.0724        4.0727       4.065090       0.07607
  14     243.0        0.0076        0.0002        3.8102        3.8105       3.802940       0.09092
  13     269.0        0.0075        0.0002        3.4720        3.4722       3.464683       0.10973
  12     297.5        0.0075        0.0002        3.0589        3.0591       3.051580       0.12252
  11     328.5        0.0075        0.0002        2.6499        2.6502       2.642631       0.11119
  10     361.9        0.0076        0.0002        2.2815        2.2817       2.274127       0.09324
   9     398.1        0.0076        0.0002        1.9524        1.9526       1.944947       0.07669
   8     437.6        0.0077        0.0002        1.6512        1.6515       1.643712       0.06441
   7     480.5        0.0079        0.0002        1.3776        1.3778       1.369860       0.05378
   6     533.0        0.0083        0.0002        1.0886        1.0888       1.080483       0.04655
   5     589.8        0.0091        0.0002        0.8105        0.8106       0.801555       0.04140
   4     651.6        0.0106        0.0001        0.5333        0.5334       0.522818       0.03812
   3     718.7        0.0140        0.0001        0.3032        0.3033       0.289239       0.02935
   2     792.3        0.0004        0.0210        0.0007        0.0217       0.021293       0.03073
   1     891.5        0.0000        0.0021        0.0000        0.0021       0.002074       0.00164
   0    1013.0        0.0000        0.0002        0.0000        0.0002       0.000176       0.00013



 Wavenumbers:  4000. -  4650. cm-1, ATM      1
 LEVEL PRESSURE   UPWARD FLUX   DIFDOWN FLUX  DIRDOWN FLUX  DOWNWARD FLUX   NET FLUX    HEATING RATE
          mb          W/m2          W/m2          W/m2        W/m2          W/m2       degree/day
  51    .06700        1.8187        0.0000        6.9421        6.9421       5.123389       0.00000
  50    .07753        1.8187        0.0000        6.9421        6.9421       5.123388       0.00080
  49    .09103        1.8187        0.0000        6.9421        6.9421       5.123387       0.00078
  48    0.1069        1.8187        0.0000        6.9421        6.9421       5.123386       0.00076
  47    0.1255        1.8187        0.0000        6.9421        6.9421       5.123384       0.00075
  46    0.1487        1.8187        0.0000        6.9421        6.9421       5.123382       0.00076
  45    0.1794        1.8187        0.0000        6.9421        6.9421       5.123379       0.00078
  44    0.2165        1.8187        0.0000        6.9421        6.9421       5.123376       0.00076
  43    0.2613        1.8187        0.0000        6.9420        6.9421       5.123372       0.00075
  42    0.3336        1.8187        0.0000        6.9420        6.9420       5.123365       0.00077
  41    0.4307        1.8187        0.0000        6.9420        6.9420       5.123356       0.00077
  40    0.5894        1.8187        0.0000        6.9420        6.9420       5.123341       0.00080
  39     1.339        1.8187        0.0000        6.9419        6.9419       5.123252       0.00101
  38     1.782        1.8187        0.0000        6.9418        6.9419       5.123182       0.00133
  37     2.292        1.8187        0.0000        6.9418        6.9418       5.123088       0.00156
  36     2.964        1.8187        0.0000        6.9416        6.9416       5.122948       0.00176
  35     3.853        1.8187        0.0000        6.9414        6.9414       5.122740       0.00197
  34     5.035        1.8187        0.0000        6.9411        6.9411       5.122433       0.00219
  33     6.613        1.8187        0.0000        6.9406        6.9406       5.121983       0.00241
  32     8.786        1.8187        0.0000        6.9399        6.9400       5.121319       0.00258
  31     11.80        1.8186        0.0000        6.9389        6.9389       5.120277       0.00292
  30     15.07        1.8186        0.0001        6.9376        6.9377       5.119059       0.00315
  29     18.79        1.8186        0.0001        6.9361        6.9362       5.117590       0.00333
  28     23.16        1.8186        0.0001        6.9343        6.9344       5.115773       0.00351
  27     28.12        1.8186        0.0001        6.9321        6.9322       5.113582       0.00372
  26     33.73        1.8186        0.0001        6.9294        6.9295       5.110892       0.00404
  25     40.54        1.8186        0.0002        6.9257        6.9259       5.107264       0.00450
  24     48.69        1.8186        0.0002        6.9209        6.9211       5.102459       0.00497
  23     57.69        1.8186        0.0002        6.9152        6.9154       5.096801       0.00530
  22     68.43        1.8187        0.0003        6.9081        6.9084       5.089763       0.00553
  21     81.20        1.8187        0.0003        6.8995        6.8998       5.081149       0.00569
  20     96.49        1.8188        0.0004        6.8891        6.8895       5.070736       0.00575
  19     114.6        1.8189        0.0004        6.8762        6.8767       5.057816       0.00603
  18     136.5        1.8190        0.0005        6.8608        6.8614       5.042336       0.00595
  17     162.9        1.8193        0.0006        6.8421        6.8428       5.023470       0.00603
  16     196.4        1.8197        0.0008        6.8166        6.8174       4.997624       0.00651
  15     218.7        1.8201        0.0008        6.7976        6.7984       4.978247       0.00736
  14     243.0        1.8208        0.0009        6.7731        6.7741       4.953308       0.00865
  13     269.0        1.8217        0.0010        6.7409        6.7420       4.920306       0.01071
  12     297.5        1.8230        0.0011        6.6982        6.6993       4.876286       0.01306
  11     328.5        1.8249        0.0012        6.6434        6.6447       4.819757       0.01537
  10     361.9        1.8274        0.0014        6.5741        6.5755       4.748070       0.01814
   9     398.1        1.8306        0.0015        6.4889        6.4904       4.659831       0.02056
   8     437.6        1.8347        0.0016        6.3876        6.3893       4.554568       0.02251
   7     480.5        1.8400        0.0018        6.2749        6.2766       4.436574       0.02317
   6     533.0        1.8484        0.0019        6.1332        6.1351       4.286649       0.02412
   5     589.8        1.8609        0.0021        5.9653        5.9674       4.106505       0.02674
   4     651.6        1.8816        0.0022        5.7389        5.7411       3.859547       0.03377
   3     718.7        1.9178        0.0024        5.4502        5.4525       3.534742       0.04082
   2     792.3        0.4917        2.9783        0.0280        3.0063       2.514573       0.11700
   1     891.5        0.1042        2.1935        0.0008        2.1943       2.090087       0.03612
   0    1013.0        0.1106        2.0168        0.0007        2.0175       1.906961       0.01272



 Wavenumbers:  4650. -  5150. cm-1, ATM      1
 LEVEL PRESSURE   UPWARD FLUX   DIFDOWN FLUX  DIRDOWN FLUX  DOWNWARD FLUX   NET FLUX    HEATING RATE
          mb          W/m2          W/m2          W/m2        W/m2          W/m2       degree/day
  51    .06700        1.2315        0.0000        6.5710        6.5710       5.339456       0.00000
  50    .07753        1.2315        0.0000        6.5708        6.5708       5.339221       0.18877
  49    .09103        1.2315        0.0000        6.5705        6.5705       5.338927       0.18352
  48    0.1069        1.2315        0.0000        6.5701        6.5701       5.338593       0.17796
  47    0.1255        1.2315        0.0000        6.5697        6.5697       5.338213       0.17229
  46    0.1487        1.2315        0.0000        6.5693        6.5693       5.337739       0.17259
  45    0.1794        1.2315        0.0000        6.5686        6.5686       5.337103       0.17464
  44    0.2165        1.2315        0.0000        6.5679        6.5679       5.336366       0.16778
  43    0.2613        1.2315        0.0000        6.5670        6.5670       5.335513       0.16069
  42    0.3336        1.2315        0.0000        6.5657        6.5657       5.334151       0.15885
  41    0.4307        1.2315        0.0000        6.5640        6.5640       5.332430       0.14963
  40    0.5894        1.2315        0.0000        6.5613        6.5613       5.329815       0.13905
  39     1.339        1.2315        0.0000        6.5516        6.5516       5.320043       0.11001
  38     1.782        1.2315        0.0000        6.5473        6.5474       5.315830       0.08022
  37     2.292        1.2315        0.0000        6.5435        6.5435       5.311945       0.06434
  36     2.964        1.2315        0.0000        6.5395        6.5395       5.307993       0.04961
  35     3.853        1.2315        0.0000        6.5356        6.5356       5.304053       0.03740
  34     5.035        1.2315        0.0000        6.5315        6.5316       5.300053       0.02857
  33     6.613        1.2315        0.0000        6.5271        6.5272       5.295661       0.02348
  32     8.786        1.2315        0.0001        6.5216        6.5217       5.290168       0.02133
  31     11.80        1.2315        0.0001        6.5135        6.5136       5.282091       0.02261
  30     15.07        1.2315        0.0001        6.5041        6.5042       5.272724       0.02418
  29     18.79        1.2315        0.0001        6.4926        6.4927       5.261209       0.02611
  28     23.16        1.2315        0.0001        6.4780        6.4781       5.246615       0.02822
  27     28.12        1.2315        0.0002        6.4600        6.4601       5.228637       0.03056
  26     33.73        1.2315        0.0002        6.4385        6.4387       5.207199       0.03223
  25     40.54        1.2315        0.0002        6.4114        6.4116       5.180061       0.03367
  24     48.69        1.2316        0.0003        6.3777        6.3780       5.146402       0.03483
  23     57.69        1.2316        0.0003        6.3406        6.3409       5.109276       0.03480
  22     68.43        1.2317        0.0004        6.2974        6.2978       5.066033       0.03400
  21     81.20        1.2319        0.0005        6.2485        6.2490       5.017133       0.03231
  20     96.49        1.2321        0.0005        6.1952        6.1957       4.963633       0.02953
  19     114.6        1.2324        0.0006        6.1386        6.1392       4.906828       0.02652
  18     136.5        1.2328        0.0008        6.0795        6.0803       4.847509       0.02281
  17     162.9        1.2334        0.0009        6.0168        6.0177       4.784322       0.02020
  16     196.4        1.2343        0.0011        5.9412        5.9423       4.707980       0.01922
  15     218.7        1.2351        0.0012        5.8915        5.8926       4.657558       0.01914
  14     243.0        1.2361        0.0013        5.8346        5.8359       4.599860       0.02001
  13     269.0        1.2374        0.0014        5.7676        5.7690       4.531590       0.02215
  12     297.5        1.2394        0.0016        5.6858        5.6873       4.447996       0.02479
  11     328.5        1.2419        0.0017        5.5899        5.5916       4.349764       0.02671
  10     361.9        1.2451        0.0019        5.4787        5.4806       4.235470       0.02892
   9     398.1        1.2494        0.0020        5.3502        5.3523       4.102845       0.03090
   8     437.6        1.2550        0.0022        5.2035        5.2056       3.950616       0.03255
   7     480.5        1.2623        0.0023        5.0390        5.0413       3.778974       0.03371
   6     533.0        1.2736        0.0025        4.8308        4.8333       3.559724       0.03527
   5     589.8        1.2893        0.0027        4.6030        4.6057       3.316368       0.03612
   4     651.6        1.3128        0.0028        4.3500        4.3528       3.040031       0.03779
   3     718.7        1.3488        0.0030        4.0793        4.0822       2.733467       0.03853
   2     792.3        0.3401        2.1470        0.0216        2.1687       1.828618       0.10378
   1     891.5        0.0740        1.5406        0.0006        1.5412       1.467190       0.03076
   0    1013.0        0.0794        1.4019        0.0005        1.4024       1.323035       0.01001



 Wavenumbers:  5150. -  6150. cm-1, ATM      1
 LEVEL PRESSURE   UPWARD FLUX   DIFDOWN FLUX  DIRDOWN FLUX  DOWNWARD FLUX   NET FLUX    HEATING RATE
          mb          W/m2          W/m2          W/m2        W/m2          W/m2       degree/day
  51    .06700        3.4966        0.0000       16.4735       16.4735      12.976938       0.00000
  50    .07753        3.4966        0.0000       16.4735       16.4735      12.976899       0.03158
  49    .09103        3.4966        0.0000       16.4734       16.4734      12.976847       0.03206
  48    0.1069        3.4966        0.0000       16.4734       16.4734      12.976786       0.03256
  47    0.1255        3.4966        0.0000       16.4733       16.4733      12.976713       0.03306
  46    0.1487        3.4966        0.0000       16.4732       16.4732      12.976618       0.03482
  45    0.1794        3.4966        0.0000       16.4730       16.4730      12.976483       0.03706
  44    0.2165        3.4966        0.0000       16.4729       16.4729      12.976317       0.03761
  43    0.2613        3.4966        0.0000       16.4727       16.4727      12.976115       0.03817
  42    0.3336        3.4966        0.0000       16.4723       16.4723      12.975769       0.04031
  41    0.4307        3.4966        0.0000       16.4719       16.4719      12.975300       0.04081
  40    0.5894        3.4966        0.0000       16.4711       16.4711      12.974514       0.04177
  39     1.339        3.4965        0.0000       16.4673       16.4673      12.970749       0.04239
  38     1.782        3.4965        0.0000       16.4651       16.4651      12.968571       0.04147
  37     2.292        3.4965        0.0001       16.4626       16.4626      12.966118       0.04063
  36     2.964        3.4965        0.0001       16.4595       16.4595      12.963020       0.03889
  35     3.853        3.4965        0.0001       16.4555       16.4556      12.959113       0.03708
  34     5.035        3.4965        0.0001       16.4505       16.4506      12.954129       0.03560
  33     6.613        3.4965        0.0002       16.4440       16.4442      12.947747       0.03412
  32     8.786        3.4964        0.0002       16.4358       16.4360      12.939611       0.03160
  31     11.80        3.4964        0.0003       16.4249       16.4252      12.928840       0.03016
  30     15.07        3.4964        0.0004       16.4143       16.4147      12.918303       0.02720
  29     18.79        3.4963        0.0005       16.4034       16.4039      12.907577       0.02432
  28     23.16        3.4963        0.0006       16.3920       16.3926      12.896309       0.02179
  27     28.12        3.4962        0.0008       16.3803       16.3811      12.884811       0.01955
  26     33.73        3.4962        0.0009       16.3687       16.3696      12.873433       0.01711
  25     40.54        3.4962        0.0011       16.3564       16.3575      12.861324       0.01502
  24     48.69        3.4961        0.0013       16.3435       16.3448      12.848662       0.01310
  23     57.69        3.4961        0.0016       16.3309       16.3325      12.836328       0.01156
  22     68.43        3.4961        0.0018       16.3174       16.3193      12.823127       0.01038
  21     81.20        3.4962        0.0022       16.3027       16.3049      12.808720       0.00952
  20     96.49        3.4962        0.0026       16.2861       16.2887      12.792553       0.00892
  19     114.6        3.4962        0.0031       16.2671       16.2702      12.773923       0.00870
  18     136.5        3.4963        0.0037       16.2445       16.2482      12.751886       0.00847
  17     162.9        3.4964        0.0043       16.2108       16.2151      12.718720       0.01060
  16     196.4        3.4966        0.0052       16.1360       16.1412      12.644587       0.01866
  15     218.7        3.4968        0.0058       16.0099       16.0157      12.518898       0.04772
  14     243.0        3.4971        0.0064       15.7396       15.7460      12.248932       0.09363
  13     269.0        3.4975        0.0069       15.3077       15.3146      11.817079       0.14009
  12     297.5        3.4983        0.0074       14.7951       14.8025      11.304248       0.15210
  11     328.5        3.4994        0.0080       14.2426       14.2506      10.751213       0.15037
  10     361.9        3.5010        0.0085       13.6155       13.6240      10.122994       0.15895
   9     398.1        3.5033        0.0090       12.9439       12.9529       9.449550       0.15690
   8     437.6        3.5068        0.0095       12.2429       12.2523       8.745590       0.15051
   7     480.5        3.5117        0.0099       11.5524       11.5623       8.050579       0.13650
   6     533.0        3.5205        0.0104       10.8188       10.8292       7.308715       0.11934
   5     589.8        3.5352        0.0108       10.1668       10.1777       6.642470       0.09889
   4     651.6        3.5629        0.0113        9.5867        9.5980       6.035030       0.08307
   3     718.7        3.6158        0.0119        9.1006        9.1124       5.496645       0.06766
   2     792.3        1.0026        5.5145        0.0516        5.5661       4.563481       0.10702
   1     891.5        0.2320        4.2992        0.0016        4.3007       4.068740       0.04210
   0    1013.0        0.2408        4.0126        0.0014        4.0140       3.773172       0.02052



 Wavenumbers:  6150. -  7700. cm-1, ATM      1
 LEVEL PRESSURE   UPWARD FLUX   DIFDOWN FLUX  DIRDOWN FLUX  DOWNWARD FLUX   NET FLUX    HEATING RATE
          mb          W/m2          W/m2          W/m2        W/m2          W/m2       degree/day
  51    .06700        5.7645        0.0000       30.4684       30.4684      24.703846       0.00000
  50    .07753        5.7645        0.0000       30.4683       30.4683      24.703789       0.04553
  49    .09103        5.7645        0.0000       30.4682       30.4683      24.703716       0.04582
  48    0.1069        5.7645        0.0000       30.4682       30.4682      24.703629       0.04613
  47    0.1255        5.7645        0.0000       30.4681       30.4681      24.703527       0.04643
  46    0.1487        5.7645        0.0000       30.4679       30.4679      24.703394       0.04850
  45    0.1794        5.7645        0.0000       30.4677       30.4677      24.703207       0.05124
  44    0.2165        5.7645        0.0000       30.4675       30.4675      24.702980       0.05163
  43    0.2613        5.7645        0.0000       30.4672       30.4672      24.702704       0.05205
  42    0.3336        5.7645        0.0000       30.4667       30.4667      24.702235       0.05464
  41    0.4307        5.7645        0.0000       30.4661       30.4661      24.701602       0.05511
  40    0.5894        5.7645        0.0001       30.4650       30.4650      24.700545       0.05619
  39     1.339        5.7644        0.0001       30.4598       30.4599      24.695481       0.05701
  38     1.782        5.7644        0.0002       30.4567       30.4569      24.692538       0.05603
  37     2.292        5.7643        0.0003       30.4533       30.4535      24.689203       0.05523
  36     2.964        5.7643        0.0003       30.4489       30.4492      24.684953       0.05335
  35     3.853        5.7642        0.0004       30.4433       30.4437      24.679530       0.05146
  34     5.035        5.7641        0.0006       30.4360       30.4366      24.672538       0.04995
  33     6.613        5.7639        0.0007       30.4266       30.4274      24.663468       0.04849
  32     8.786        5.7637        0.0010       30.4144       30.4154      24.651707       0.04568
  31     11.80        5.7634        0.0013       30.3978       30.3992      24.635767       0.04463
  30     15.07        5.7631        0.0017       30.3811       30.3828      24.619725       0.04142
  29     18.79        5.7627        0.0021       30.3635       30.3656      24.602861       0.03824
  28     23.16        5.7623        0.0026       30.3443       30.3469      24.584605       0.03530
  27     28.12        5.7619        0.0032       30.3239       30.3271      24.565250       0.03290
  26     33.73        5.7613        0.0038       30.3029       30.3068      24.545427       0.02981
  25     40.54        5.7607        0.0046       30.2799       30.2844      24.523741       0.02690
  24     48.69        5.7599        0.0055       30.2548       30.2603      24.500350       0.02421
  23     57.69        5.7591        0.0065       30.2296       30.2361      24.477010       0.02188
  22     68.43        5.7581        0.0077       30.2020       30.2097      24.451634       0.01995
  21     81.20        5.7569        0.0091       30.1714       30.1806      24.423696       0.01846
  20     96.49        5.7554        0.0109       30.1369       30.1477      24.392279       0.01734
  19     114.6        5.7537        0.0129       30.0970       30.1099      24.356169       0.01686
  18     136.5        5.7517        0.0153       30.0504       30.0657      24.313994       0.01622
  17     162.9        5.7493        0.0182       29.9842       30.0023      24.253016       0.01949
  16     196.4        5.7463        0.0219       29.8533       29.8751      24.128847       0.03125
  15     218.7        5.7444        0.0242       29.6742       29.6985      23.954096       0.06635
  14     243.0        5.7425        0.0267       29.3154       29.3421      23.599640       0.12294
  13     269.0        5.7408        0.0292       28.6682       28.6974      22.956579       0.20861
  12     297.5        5.7396        0.0315       27.7720       27.8035      22.063917       0.26475
  11     328.5        5.7392        0.0339       26.8285       26.8623      21.123140       0.25579
  10     361.9        5.7400        0.0362       25.7886       25.8249      20.084904       0.26268
   9     398.1        5.7426        0.0385       24.6047       24.6432      18.900590       0.27592
   8     437.6        5.7483        0.0405       23.3058       23.3463      17.598045       0.27849
   7     480.5        5.7586        0.0423       21.9700       22.0123      16.253750       0.26401
   6     533.0        5.7795        0.0443       20.4313       20.4756      14.696125       0.25057
   5     589.8        5.8178        0.0459       18.8913       18.9372      13.119347       0.23405
   4     651.6        5.8951        0.0470       17.2864       17.3335      11.438330       0.22988
   3     718.7        6.0498        0.0479       15.7330       15.7809       9.731021       0.21456
   2     792.3        1.6740        9.5429        0.0923        9.6352       7.961244       0.20297
   1     891.5        0.3901        7.2894        0.0028        7.2922       6.902167       0.09012
   0    1013.0        0.4159        6.5258        0.0025        6.5283       6.112457       0.05483



 Wavenumbers:  7700. -  8050. cm-1, ATM      1
 LEVEL PRESSURE   UPWARD FLUX   DIFDOWN FLUX  DIRDOWN FLUX  DOWNWARD FLUX   NET FLUX    HEATING RATE
          mb          W/m2          W/m2          W/m2        W/m2          W/m2       degree/day
  51    .06700        2.5700        0.0000        7.2006        7.2006       4.630595       0.00000
  50    .07753        2.5700        0.0000        7.2006        7.2006       4.630576       0.01561
  49    .09103        2.5700        0.0000        7.2005        7.2005       4.630551       0.01530
  48    0.1069        2.5700        0.0000        7.2005        7.2005       4.630523       0.01498
  47    0.1255        2.5700        0.0000        7.2005        7.2005       4.630491       0.01466
  46    0.1487        2.5700        0.0000        7.2004        7.2005       4.630450       0.01487
  45    0.1794        2.5700        0.0000        7.2004        7.2004       4.630394       0.01530
  44    0.2165        2.5700        0.0000        7.2003        7.2003       4.630328       0.01501
  43    0.2613        2.5700        0.0000        7.2003        7.2003       4.630250       0.01473
  42    0.3336        2.5700        0.0000        7.2001        7.2001       4.630121       0.01507
  41    0.4307        2.5700        0.0000        7.2000        7.2000       4.629949       0.01491
  40    0.5894        2.5701        0.0000        7.1997        7.1997       4.629669       0.01489
  39     1.339        2.5701        0.0001        7.1984        7.1985       4.628345       0.01491
  38     1.782        2.5702        0.0001        7.1977        7.1978       4.627568       0.01480
  37     2.292        2.5703        0.0001        7.1968        7.1969       4.626668       0.01490
  36     2.964        2.5704        0.0001        7.1957        7.1958       4.625487       0.01483
  35     3.853        2.5705        0.0002        7.1942        7.1944       4.623927       0.01480
  34     5.035        2.5706        0.0002        7.1922        7.1925       4.621857       0.01479
  33     6.613        2.5708        0.0003        7.1896        7.1899       4.619094       0.01477
  32     8.786        2.5711        0.0004        7.1860        7.1865       4.615376       0.01444
  31     11.80        2.5715        0.0006        7.1810        7.1815       4.610069       0.01486
  30     15.07        2.5719        0.0007        7.1755        7.1763       4.604386       0.01467
  29     18.79        2.5723        0.0009        7.1694        7.1703       4.597985       0.01451
  28     23.16        2.5729        0.0011        7.1623        7.1634       4.590535       0.01440
  27     28.12        2.5735        0.0013        7.1543        7.1556       4.582052       0.01442
  26     33.73        2.5742        0.0016        7.1453        7.1468       4.572605       0.01420
  25     40.54        2.5751        0.0019        7.1344        7.1363       4.561256       0.01408
  24     48.69        2.5761        0.0023        7.1215        7.1238       4.547669       0.01406
  23     57.69        2.5773        0.0027        7.1075        7.1101       4.532864       0.01388
  22     68.43        2.5787        0.0032        7.0909        7.0940       4.515393       0.01373
  21     81.20        2.5803        0.0038        7.0714        7.0751       4.494805       0.01360
  20     96.49        2.5823        0.0045        7.0484        7.0529       4.470586       0.01337
  19     114.6        2.5847        0.0053        7.0217        7.0270       4.442258       0.01323
  18     136.5        2.5876        0.0063        6.9906        6.9969       4.409258       0.01269
  17     162.9        2.5911        0.0074        6.9544        6.9618       4.370730       0.01232
  16     196.4        2.5957        0.0089        6.9088        6.9177       4.321942       0.01228
  15     218.7        2.5988        0.0099        6.8795        6.8894       4.290513       0.01193
  14     243.0        2.6023        0.0110        6.8482        6.8591       4.256844       0.01168
  13     269.0        2.6061        0.0121        6.8148        6.8269       4.220843       0.01168
  12     297.5        2.6103        0.0133        6.7794        6.7927       4.182385       0.01141
  11     328.5        2.6150        0.0147        6.7415        6.7562       4.141207       0.01120
  10     361.9        2.6202        0.0161        6.7014        6.7175       4.097275       0.01112
   9     398.1        2.6261        0.0176        6.6586        6.6762       4.050173       0.01097
   8     437.6        2.6327        0.0193        6.6128        6.6321       3.999446       0.01085
   7     480.5        2.6401        0.0210        6.5638        6.5848       3.944691       0.01075
   6     533.0        2.6499        0.0232        6.5031        6.5262       3.876335       0.01100
   5     589.8        2.6614        0.0255        6.4362        6.4617       3.800310       0.01128
   4     651.6        2.6753        0.0279        6.3609        6.3888       3.713441       0.01188
   3     718.7        2.6926        0.0305        6.2745        6.3050       3.612319       0.01271
   2     792.3        0.8474        4.2034        0.0413        4.2447       3.397342       0.02466
   1     891.5        0.2429        3.5173        0.0014        3.5187       3.275772       0.01035
   0    1013.0        0.2467        3.4350        0.0014        3.4364       3.189689       0.00598



 Wavenumbers:  8050. - 12850. cm-1, ATM      1
 LEVEL PRESSURE   UPWARD FLUX   DIFDOWN FLUX  DIRDOWN FLUX  DOWNWARD FLUX   NET FLUX    HEATING RATE
          mb          W/m2          W/m2          W/m2        W/m2          W/m2       degree/day
  51    .06700       39.9061        0.0000      100.8135      100.8135      60.907442       0.00000
  50    .07753       39.9061        0.0000      100.8135      100.8135      60.907442       0.00000
  49    .09103       39.9060        0.0001      100.8134      100.8135      60.907442      -0.00000
  48    0.1069       39.9060        0.0001      100.8134      100.8135      60.907442       0.00000
  47    0.1255       39.9060        0.0001      100.8133      100.8134      60.907442       0.00000
  46    0.1487       39.9059        0.0002      100.8132      100.8134      60.907442      -0.00000
  45    0.1794       39.9059        0.0003      100.8131      100.8133      60.907442       0.00000
  44    0.2165       39.9058        0.0004      100.8129      100.8133      60.907442      -0.00000
  43    0.2613       39.9058        0.0005      100.8127      100.8132      60.907442       0.00000
  42    0.3336       39.9056        0.0006      100.8125      100.8131      60.907442       0.00000
  41    0.4307       39.9055        0.0009      100.8121      100.8129      60.907442      -0.00000
  40    0.5894       39.9052        0.0012      100.8115      100.8127      60.907442       0.00000
  39     1.339       39.9040        0.0030      100.8085      100.8115      60.907442      -0.00000
  38     1.782       39.9033        0.0040      100.8068      100.8108      60.907442       0.00000
  37     2.292       39.9025        0.0052      100.8047      100.8099      60.907442       0.00000
  36     2.964       39.9014        0.0068      100.8021      100.8089      60.907442      -0.00000
  35     3.853       39.9000        0.0088      100.7986      100.8074      60.907442       0.00000
  34     5.035       39.8981        0.0116      100.7940      100.8055      60.907442       0.00000
  33     6.613       39.8956        0.0152      100.7878      100.8030      60.907442       0.00000
  32     8.786       39.8922        0.0202      100.7794      100.7996      60.907442       0.00000
  31     11.80       39.8873        0.0273      100.7674      100.7947      60.907442      -0.00000
  30     15.07       39.8820        0.0349      100.7546      100.7894      60.907442      -0.00000
  29     18.79       39.8761        0.0435      100.7400      100.7835      60.907442       0.00000
  28     23.16       39.8691        0.0536      100.7230      100.7766      60.907442       0.00000
  27     28.12       39.8612        0.0651      100.7035      100.7686      60.907442      -0.00000
  26     33.73       39.8522        0.0780      100.6817      100.7597      60.907442       0.00000
  25     40.54       39.8415        0.0937      100.6552      100.7489      60.907442      -0.00000
  24     48.69       39.8284        0.1125      100.6234      100.7359      60.907442       0.00000
  23     57.69       39.8141        0.1333      100.5883      100.7216      60.907442       0.00000
  22     68.43       39.7970        0.1580      100.5464      100.7045      60.907442      -0.00000
  21     81.20       39.7766        0.1875      100.4965      100.6841      60.907442      -0.00000
  20     96.49       39.7523        0.2228      100.4370      100.6597      60.907442       0.00000
  19     114.6       39.7234        0.2647      100.3601      100.6248      60.901332       0.00285
  18     136.5       39.6891        0.3144      100.2685      100.5829      60.893765       0.00291
  17     162.9       39.6482        0.3737      100.1557      100.5295      60.881222       0.00401
  16     196.4       39.5951        0.4508       99.9935      100.4443      60.849204       0.00806
  15     218.7       39.5604        0.5015       99.8490      100.3505      60.790150       0.02242
  14     243.0       39.5230        0.5565       99.6218      100.1784      60.655325       0.04676
  13     269.0       39.4837        0.6159       99.2701       99.8860      60.402340       0.08207
  12     297.5       39.4433        0.6797       98.7863       99.4660      60.022657       0.11261
  11     328.5       39.4025        0.7483       98.2127       98.9610      59.558556       0.12619
  10     361.9       39.3626        0.8218       97.5096       98.3314      58.968808       0.14921
   9     398.1       39.3259        0.9000       96.6249       97.5249      58.199082       0.17933
   8     437.6       39.2965        0.9828       95.5141       96.4969      57.200342       0.21354
   7     480.5       39.2797        1.0699       94.1664       95.2363      55.956633       0.24426
   6     533.0       39.2865        1.1743       92.2972       93.4716      54.185109       0.28498
   5     589.8       39.3452        1.2826       90.0044       91.2870      51.941756       0.33299
   4     651.6       39.5192        1.3918       87.0975       88.4894      48.970192       0.40637
   3     718.7       39.9051        1.5007       83.6639       85.1646      45.259458       0.46634
   2     792.3       16.5130       57.7257        0.5686       58.2943      41.781280       0.39891
   1     891.5        9.2223       47.8692        0.0196       47.8887      38.666463       0.26506
   0    1013.0        9.5741       44.8468        0.0179       44.8647      35.290539       0.23441



 Wavenumbers: 12850. - 16000. cm-1, ATM      1
 LEVEL PRESSURE   UPWARD FLUX   DIFDOWN FLUX  DIRDOWN FLUX  DOWNWARD FLUX   NET FLUX    HEATING RATE
          mb          W/m2          W/m2          W/m2        W/m2          W/m2       degree/day
  51    .06700       37.0636        0.0000       63.1686       63.1686      26.104962       0.00000
  50    .07753       37.0636        0.0001       63.1677       63.1678      26.104182       0.62540
  49    .09103       37.0636        0.0001       63.1666       63.1668      26.103209       0.60788
  48    0.1069       37.0635        0.0002       63.1654       63.1656      26.102102       0.58958
  47    0.1255       37.0635        0.0003       63.1640       63.1643      26.100842       0.57121
  46    0.1487       37.0635        0.0004       63.1623       63.1627      26.099270       0.57294
  45    0.1794       37.0634        0.0006       63.1600       63.1606      26.097162       0.57878
  44    0.2165       37.0634        0.0008       63.1573       63.1581      26.094723       0.55479
  43    0.2613       37.0633        0.0010       63.1542       63.1552      26.091909       0.53046
  42    0.3336       37.0633        0.0014       63.1493       63.1507      26.087423       0.52302
  41    0.4307       37.0632        0.0019       63.1431       63.1451      26.081809       0.48810
  40    0.5894       37.0633        0.0027       63.1338       63.1366      26.073298       0.45261
  39     1.339       37.0648        0.0067       63.0956       63.1022      26.037436       0.40374
  38     1.782       37.0667        0.0090       63.0740       63.0830      26.016264       0.40308
  37     2.292       37.0699        0.0116       63.0477       63.0593      25.989377       0.44532
  36     2.964       37.0756        0.0151       63.0095       63.0246      25.949080       0.50585
  35     3.853       37.0851        0.0197       62.9533       62.9730      25.887888       0.58073
  34     5.035       37.0998        0.0258       62.8725       62.8984      25.798554       0.63816
  33     6.613       37.1205        0.0340       62.7621       62.7961      25.675600       0.65731
  32     8.786       37.1473        0.0450       62.6182       62.6632      25.515989       0.61987
  31     11.80       37.1815        0.0607       62.4284       62.4890      25.307489       0.58374
  30     15.07       37.2137        0.0775       62.2426       62.3201      25.106396       0.51918
  29     18.79       37.2458        0.0964       62.0493       62.1457      24.899922       0.46814
  28     23.16       37.2784        0.1184       61.8425       61.9609      24.682499       0.42043
  27     28.12       37.3100        0.1436       61.6278       61.7714      24.461382       0.37588
  26     33.73       37.3373        0.1717       61.4177       61.5894      24.252033       0.31476
  25     40.54       37.3610        0.2056       61.1983       61.4039      24.042944       0.25940
  24     48.69       37.3803        0.2464       60.9680       61.2144      23.834062       0.21616
  23     57.69       37.3928        0.2912       60.7478       61.0390      23.646166       0.17612
  22     68.43       37.3981        0.3444       60.5202       60.8646      23.466476       0.14126
  21     81.20       37.3915        0.4078       60.2938       60.7017      23.310217       0.10325
  20     96.49       37.3715        0.4834       60.0643       60.5477      23.176203       0.07397
  19     114.6       37.3473        0.5736       59.8078       60.3814      23.034042       0.06638
  18     136.5       37.3135        0.6802       59.5158       60.1960      22.882506       0.05827
  17     162.9       37.2686        0.8070       59.1773       59.9843      22.715717       0.05331
  16     196.4       37.2002        0.9708       58.7611       59.7320      22.531839       0.04628
  15     218.7       37.1517        1.0782       58.4958       59.5741      22.422353       0.04157
  14     243.0       37.0976        1.1947       58.2104       59.4051      22.307488       0.03984
  13     269.0       37.0377        1.3206       57.9039       59.2245      22.186802       0.03915
  12     297.5       36.9721        1.4564       57.5736       59.0300      22.057876       0.03824
  11     328.5       36.9015        1.6027       57.2160       58.8187      21.917252       0.03824
  10     361.9       36.8261        1.7597       56.8288       58.5885      21.762363       0.03919
   9     398.1       36.7466        1.9282       56.4074       58.3356      21.589025       0.04038
   8     437.6       36.6640        2.1085       55.9445       58.0530      21.389001       0.04277
   7     480.5       36.5797        2.3008       55.4356       57.7364      21.156699       0.04562
   6     533.0       36.4840        2.5361       54.7850       57.3211      20.837126       0.05141
   5     589.8       36.3956        2.7876       54.0438       56.8314      20.435770       0.05957
   4     651.6       36.3306        3.0544       53.1687       56.2230      19.892416       0.07431
   3     718.7       36.3012        3.3348       52.1625       55.4973      19.196147       0.08750
   2     792.3       23.1352       41.2553        0.3902       41.6455      18.510266       0.07866
   1     891.5       19.1786       36.8887        0.0146       36.9033      17.724649       0.06685
   0    1013.0       19.4092       36.0425        0.0140       36.0565      16.647278       0.07481



 Wavenumbers: 16000. - 22650. cm-1, ATM      1
 LEVEL PRESSURE   UPWARD FLUX   DIFDOWN FLUX  DIRDOWN FLUX  DOWNWARD FLUX   NET FLUX    HEATING RATE
          mb          W/m2          W/m2          W/m2        W/m2          W/m2       degree/day
  51    .06700       77.0270        0.0000      100.7153      100.7153      23.688318       0.00000
  50    .07753       77.0269        0.0003      100.7147      100.7151      23.688200       0.09451
  49    .09103       77.0267        0.0007      100.7140      100.7147      23.688028       0.10719
  48    0.1069       77.0265        0.0012      100.7131      100.7143      23.687799       0.12224
  47    0.1255       77.0264        0.0018      100.7121      100.7139      23.687491       0.13933
  46    0.1487       77.0262        0.0024      100.7108      100.7132      23.687038       0.16511
  45    0.1794       77.0259        0.0034      100.7089      100.7123      23.686330       0.19440
  44    0.2165       77.0257        0.0045      100.7066      100.7110      23.685370       0.21848
  43    0.2613       77.0254        0.0058      100.7037      100.7095      23.684067       0.24562
  42    0.3336       77.0251        0.0080      100.6987      100.7067      23.681589       0.28884
  41    0.4307       77.0248        0.0109      100.6918      100.7026      23.677855       0.32468
  40    0.5894       77.0246        0.0156      100.6797      100.6953      23.670734       0.37871
  39     1.339       77.0292        0.0379      100.6095      100.6474      23.618130       0.59223
  38     1.782       77.0361        0.0510      100.5585      100.6094      23.573331       0.85290
  37     2.292       77.0478        0.0661      100.4903      100.5563      23.508504       1.07370
  36     2.964       77.0692        0.0860      100.3868      100.4727      23.403533       1.31770
  35     3.853       77.1057        0.1122      100.2306      100.3428      23.237089       1.57959
  34     5.035       77.1624        0.1469      100.0045      100.1514      22.989034       1.77200
  33     6.613       77.2423        0.1933       99.6939       99.8872      22.644835       1.84009
  32     8.786       77.3458        0.2556       99.2881       99.5436      22.197864       1.73587
  31     11.80       77.4778        0.3444       98.7496       99.0940      21.616240       1.62836
  30     15.07       77.6009        0.4395       98.2198       98.6593      21.058412       1.44020
  29     18.79       77.7232        0.5465       97.6651       98.2116      20.488413       1.29236
  28     23.16       77.8468        0.6710       97.0671       97.7381      19.891393       1.15445
  27     28.12       77.9655        0.8129       96.4406       97.2534      19.287933       1.02584
  26     33.73       78.0660        0.9711       95.8179       96.7890      18.722998       0.84939
  25     40.54       78.1499        1.1616       95.1548       96.3164      18.166514       0.69038
  24     48.69       78.2148        1.3904       94.4420       95.8323      17.617511       0.56813
  23     57.69       78.2512        1.6407       93.7416       95.3823      17.131090       0.45595
  22     68.43       78.2568        1.9375       92.9954       94.9329      16.676037       0.35773
  21     81.20       78.2121        2.2898       92.2231       94.5130      16.300896       0.24789
  20     96.49       78.1112        2.7077       91.4110       94.1187      16.007495       0.16194
  19     114.6       77.9679        3.2004       90.5070       93.7075      15.739520       0.12513
  18     136.5       77.7830        3.7796       89.4803       93.2599      15.476890       0.10099
  17     162.9       77.5497        4.4624       88.3023       92.7646      15.214925       0.08373
  16     196.4       77.2179        5.3377       86.8607       92.1984      14.980481       0.05901
  15     218.7       76.9901        5.9063       85.9494       91.8556      14.865483       0.04366
  14     243.0       76.7389        6.5187       84.9792       91.4979      14.759035       0.03692
  13     269.0       76.4629        7.1759       83.9498       91.1258      14.662872       0.03119
  12     297.5       76.1617        7.8788       82.8601       90.7389      14.577198       0.02541
  11     328.5       75.8364        8.6296       81.7009       90.3305      14.494100       0.02259
  10     361.9       75.4871        9.4282       80.4725       89.9007      14.413666       0.02035
   9     398.1       75.1126       10.2764       79.1714       89.4478      14.335214       0.01828
   8     437.6       74.7134       11.1746       77.7953       88.9698      14.256420       0.01685
   7     480.5       74.2891       12.1228       76.3434       88.4662      14.177068       0.01558
   6     533.0       73.7730       13.2699       74.5859       87.8558      14.082811       0.01516
   5     589.8       73.2259       14.4821       72.7227       87.2048      13.978893       0.01542
   4     651.6       72.6514       15.7575       70.7478       86.5053      13.853918       0.01709
   3     718.7       72.0529       17.0943       68.6568       85.7511      13.698281       0.01956
   2     792.3       56.2956       69.2971        0.5311       69.8282      13.532642       0.01900
   1     891.5       51.8115       65.0953        0.0203       65.1156      13.304120       0.01945
   0    1013.0       51.6785       64.6274        0.0192       64.6466      12.968102       0.02333



 Wavenumbers: 22650. - 29000. cm-1, ATM      1
 LEVEL PRESSURE   UPWARD FLUX   DIFDOWN FLUX  DIRDOWN FLUX  DOWNWARD FLUX   NET FLUX    HEATING RATE
          mb          W/m2          W/m2          W/m2        W/m2          W/m2       degree/day
  51    .06700       34.6185        0.0000       38.0063       38.0063       3.387797       0.00000
  50    .07753       34.6183        0.0004       38.0057       38.0061       3.387797       0.00000
  49    .09103       34.6181        0.0009       38.0050       38.0059       3.387797      -0.00000
  48    0.1069       34.6179        0.0014       38.0042       38.0057       3.387797       0.00000
  47    0.1255       34.6176        0.0021       38.0033       38.0054       3.387797      -0.00000
  46    0.1487       34.6173        0.0029       38.0022       38.0051       3.387797      -0.00000
  45    0.1794       34.6168        0.0040       38.0006       38.0046       3.387797       0.00000
  44    0.2165       34.6162        0.0053       37.9987       38.0040       3.387797      -0.00000
  43    0.2613       34.6156        0.0068       37.9965       38.0034       3.387797       0.00000
  42    0.3336       34.6145        0.0094       37.9928       38.0023       3.387797      -0.00000
  41    0.4307       34.6130        0.0128       37.9880       38.0008       3.387797       0.00000
  40    0.5894       34.6106        0.0184       37.9800       37.9984       3.387797      -0.00000
  39     1.339       34.5993        0.0447       37.9425       37.9871       3.387797       0.00000
  38     1.782       34.5927        0.0601       37.9204       37.9805       3.387797       0.00000
  37     2.292       34.5851        0.0779       37.8949       37.9729       3.387797       0.00000
  36     2.964       34.5750        0.1014       37.8614       37.9628       3.387797      -0.00000
  35     3.853       34.5617        0.1323       37.8172       37.9495       3.387797       0.00000
  34     5.035       34.5441        0.1733       37.7586       37.9319       3.387797      -0.00000
  33     6.613       34.5206        0.2281       37.6803       37.9084       3.387797       0.00000
  32     8.786       34.4890        0.3017       37.5750       37.8768       3.387797      -0.00000
  31     11.80       34.4439        0.4068       37.4249       37.8317       3.387797      -0.00000
  30     15.07       34.3956        0.5192       37.2642       37.7834       3.387797       0.00000
  29     18.79       34.3412        0.6457       37.0833       37.7290       3.387797       0.00000
  28     23.16       34.2779        0.7927       36.8730       37.6657       3.387797       0.00000
  27     28.12       34.2060        0.9600       36.6338       37.5938       3.387797       0.00000
  26     33.73       34.1259        1.1460       36.3677       37.5136       3.387797       0.00000
  25     40.54       34.0297        1.3690       36.0486       37.4175       3.387797      -0.00000
  24     48.69       33.9148        1.6353       35.6672       37.3026       3.387797       0.00000
  23     57.69       33.7897        1.9248       35.2527       37.1775       3.387797      -0.00000
  22     68.43       33.6424        2.2653       34.7649       37.0302       3.387797       0.00000
  21     81.20       33.4692        2.6648       34.1922       36.8570       3.387797       0.00000
  20     96.49       33.2662        3.1323       33.5217       36.6540       3.387797       0.00000
  19     114.6       33.0298        3.6753       32.7424       36.4176       3.387797      -0.00000
  18     136.5       32.7560        4.3022       31.8416       36.1438       3.387797       0.00000
  17     162.9       32.4389        5.0259       30.8008       35.8267       3.387797      -0.00000
  16     196.4       32.0413        5.9285       29.5007       35.4291       3.387797       0.00000
  15     218.7       31.7886        6.4997       28.6767       35.1764       3.387797      -0.00000
  14     243.0       31.5210        7.1020       27.8068       34.9088       3.387797      -0.00000
  13     269.0       31.2392        7.7336       26.8934       34.6270       3.387797       0.00000
  12     297.5       30.9438        8.3922       25.9394       34.3316       3.387797      -0.00000
  11     328.5       30.6348        9.0772       24.9454       34.0226       3.387797       0.00000
  10     361.9       30.3137        9.7849       23.9166       33.7015       3.387797      -0.00000
   9     398.1       29.9807       10.5134       22.8551       33.3685       3.387797      -0.00000
   8     437.6       29.6373       11.2585       21.7666       33.0251       3.387797       0.00000
   7     480.5       29.2845       12.0172       20.6551       32.6723       3.387797       0.00000
   6     533.0       28.8711       12.8965       19.3625       32.2589       3.387797      -0.00000
   5     589.8       28.4493       13.7814       18.0557       31.8371       3.387797       0.00000
   4     651.6       28.0207       14.6671       16.7414       31.4085       3.387797      -0.00000
   3     718.7       27.5886       15.5434       15.4330       30.9764       3.387797      -0.00000
   2     792.3       23.9077       27.1784        0.1170       27.2955       3.387797      -0.00000
   1     891.5       22.7742       26.1577        0.0043       26.1619       3.387797       0.00000
   0    1013.0       22.5922       25.9764        0.0037       25.9800       3.387797       0.00000



 Wavenumbers: 29000. - 38000. cm-1, ATM      1
 LEVEL PRESSURE   UPWARD FLUX   DIFDOWN FLUX  DIRDOWN FLUX  DOWNWARD FLUX   NET FLUX    HEATING RATE
          mb          W/m2          W/m2          W/m2        W/m2          W/m2       degree/day
  51    .06700        4.9127        0.0000       13.4026       13.4026       8.489935       0.00000
  50    .07753        4.9124        0.0003       13.3983       13.3986       8.486137       3.04441
  49    .09103        4.9122        0.0007       13.3921       13.3928       8.480617       3.44969
  48    0.1069        4.9119        0.0011       13.3840       13.3851       8.473240       3.92679
  47    0.1255        4.9115        0.0016       13.3733       13.3749       8.463396       4.46321
  46    0.1487        4.9111        0.0022       13.3579       13.3600       8.448953       5.26442
  45    0.1794        4.9105        0.0030       13.3340       13.3371       8.426553       6.14931
  44    0.2165        4.9099        0.0040       13.3024       13.3064       8.396534       6.82882
  43    0.2613        4.9091        0.0052       13.2604       13.2656       8.356479       7.55017
  42    0.3336        4.9079        0.0070       13.1833       13.1903       8.282472       8.62849
  41    0.4307        4.9063        0.0095       13.0729       13.0824       8.176099       9.24888
  40    0.5894        4.9039        0.0134       12.8796       12.8930       7.989055       9.94680
  39     1.339        4.8955        0.0297       11.9165       11.9462       7.050704      10.56412
  38     1.782        4.8922        0.0380       11.4399       11.4779       6.585713       8.85268
  37     2.292        4.8897        0.0469       10.9796       11.0265       6.136766       7.43573
  36     2.964        4.8883        0.0578       10.4786       10.5364       5.648110       6.13411
  35     3.853        4.8890        0.0713        9.9429       10.0142       5.125210       4.96242
  34     5.035        4.8924        0.0881        9.4007        9.4888       4.596409       3.77753
  33     6.613        4.8988        0.1095        8.8752        8.9847       4.085919       2.72908
  32     8.786        4.9075        0.1370        8.3786        8.5156       3.608053       1.85586
  31     11.80        4.9182        0.1748        7.8897        8.0645       3.146218       1.29299
  30     15.07        4.9275        0.2138        7.5108        7.7246       2.797123       0.90129
  29     18.79        4.9361        0.2563        7.1776        7.4339       2.497852       0.67854
  28     23.16        4.9439        0.3042        6.8664        7.1706       2.226675       0.52437
  27     28.12        4.9503        0.3571        6.5780        6.9351       1.984825       0.41113
  26     33.73        4.9527        0.4147        6.3195        6.7342       1.781502       0.30570
  25     40.54        4.9500        0.4828        6.0663        6.5490       1.598986       0.22643
  24     48.69        4.9417        0.5624        5.8128        6.3753       1.433585       0.17116
  23     57.69        4.9277        0.6475        5.5777        6.2252       1.297542       0.12752
  22     68.43        4.9056        0.7459        5.3379        6.0838       1.178176       0.09384
  21     81.20        4.8714        0.8601        5.0965        5.9566       1.085235       0.06141
  20     96.49        4.8237        0.9921        4.8476        5.8397       1.016001       0.03821
  19     114.6        4.7657        1.1415        4.5799        5.7214       0.955716       0.02815
  18     136.5        4.6984        1.3085        4.2891        5.5976       0.899189       0.02174
  17     162.9        4.6216        1.4937        3.9732        5.4669       0.845278       0.01723
  16     196.4        4.5243        1.7154        3.6080        5.3234       0.799170       0.01161
  15     218.7        4.4629        1.8504        3.3898        5.2401       0.777210       0.00834
  14     243.0        4.3992        1.9879        3.1686        5.1564       0.757281       0.00691
  13     269.0        4.3333        2.1269        2.9461        5.0730       0.739697       0.00570
  12     297.5        4.2656        2.2661        2.7239        4.9901       0.724478       0.00451
  11     328.5        4.1971        2.4043        2.5029        4.9072       0.710175       0.00389
  10     361.9        4.1280        2.5403        2.2846        4.8248       0.696812       0.00338
   9     398.1        4.0590        2.6726        2.0708        4.7433       0.684382       0.00290
   8     437.6        3.9904        2.7999        1.8631        4.6630       0.672622       0.00251
   7     480.5        3.9225        2.9216        1.6626        4.5842       0.661655       0.00215
   6     533.0        3.8465        3.0519        1.4445        4.4964       0.649926       0.00189
   5     589.8        3.7726        3.1712        1.2402        4.4114       0.638792       0.00165
   4     651.6        3.7014        3.2781        1.0514        4.3295       0.628101       0.00146
   3     718.7        3.6332        3.3717        0.8794        4.2511       0.617818       0.00129
   2     792.3        3.3397        3.9418        0.0062        3.9479       0.608247       0.00110
   1     891.5        3.2126        3.8097        0.0002        3.8099       0.597257       0.00094
   0    1013.0        3.1699        3.7552        0.0001        3.7553       0.585457       0.00082



 Wavenumbers: 38000. - 50000. cm-1, ATM      1
 LEVEL PRESSURE   UPWARD FLUX   DIFDOWN FLUX  DIRDOWN FLUX  DOWNWARD FLUX   NET FLUX    HEATING RATE
          mb          W/m2          W/m2          W/m2        W/m2          W/m2       degree/day
  51    .06700        0.0051        0.0000        0.8267        0.8267       0.821528       0.00000
  50    .07753        0.0051        0.0001        0.8242        0.8243       0.819196       1.86936
  49    .09103        0.0050        0.0002        0.8207        0.8209       0.815872       2.07705
  48    0.1069        0.0049        0.0002        0.8162        0.8164       0.811514       2.31984
  47    0.1255        0.0048        0.0004        0.8103        0.8106       0.805801       2.59006
  46    0.1487        0.0047        0.0005        0.8018        0.8023       0.797567       3.00143
  45    0.1794        0.0045        0.0007        0.7889        0.7896       0.785013       3.44648
  44    0.2165        0.0044        0.0009        0.7720        0.7729       0.768507       3.75474
  43    0.2613        0.0042        0.0011        0.7500        0.7511       0.746955       4.06246
  42    0.3336        0.0039        0.0015        0.7106        0.7121       0.708267       4.51071
  41    0.4307        0.0035        0.0019        0.6566        0.6584       0.654972       4.63387
  40    0.5894        0.0029        0.0024        0.5680        0.5704       0.567464       4.65357
  39     1.339        0.0015        0.0030        0.2422        0.2452       0.243720       3.64476
  38     1.782        0.0010        0.0026        0.1493        0.1519       0.150889       1.76735
  37     2.292        0.0007        0.0022        0.0924        0.0946       0.093932       0.94336
  36     2.964        0.0005        0.0018        0.0539        0.0557       0.055224       0.48589
  35     3.853        0.0003        0.0013        0.0295        0.0308       0.030502       0.23462
  34     5.035        0.0002        0.0010        0.0154        0.0164       0.016181       0.10230
  33     6.613        0.0001        0.0007        0.0073        0.0080       0.007912       0.04420
  32     8.786        0.0000        0.0004        0.0030        0.0034       0.003390       0.01756
  31     11.80        0.0000        0.0003        0.0010        0.0012       0.001199       0.00613
  30     15.07        0.0000        0.0001        0.0003        0.0005       0.000463       0.00190
  29     18.79        0.0000        0.0001        0.0001        0.0002       0.000182       0.00064
  28     23.16        0.0000        0.0000        0.0000        0.0001       0.000071       0.00022
  27     28.12        0.0000        0.0000        0.0000        0.0000       0.000028       0.00007
  26     33.73        0.0000        0.0000        0.0000        0.0000       0.000011       0.00002
  25     40.54        0.0000        0.0000        0.0000        0.0000       0.000005       0.00001
  24     48.69        0.0000        0.0000        0.0000        0.0000       0.000002       0.00000
  23     57.69        0.0000        0.0000        0.0000        0.0000       0.000001       0.00000
  22     68.43        0.0000        0.0000        0.0000        0.0000       0.000000       0.00000
  21     81.20        0.0000        0.0000        0.0000        0.0000       0.000000       0.00000
  20     96.49        0.0000        0.0000        0.0000        0.0000       0.000000       0.00000
  19     114.6        0.0000        0.0000        0.0000        0.0000       0.000000       0.00000
  18     136.5        0.0000        0.0000        0.0000        0.0000       0.000000       0.00000
  17     162.9        0.0000        0.0000        0.0000        0.0000       0.000000       0.00000
  16     196.4        0.0000        0.0000        0.0000        0.0000       0.000000       0.00000
  15     218.7        0.0000        0.0000        0.0000        0.0000       0.000000       0.00000
  14     243.0        0.0000        0.0000        0.0000        0.0000       0.000000       0.00000
  13     269.0        0.0000        0.0000        0.0000        0.0000       0.000000       0.00000
  12     297.5        0.0000        0.0000        0.0000        0.0000       0.000000       0.00000
  11     328.5        0.0000        0.0000        0.0000        0.0000       0.000000       0.00000
  10     361.9        0.0000        0.0000        0.0000        0.0000       0.000000       0.00000
   9     398.1        0.0000        0.0000        0.0000        0.0000       0.000000       0.00000
   8     437.6        0.0000        0.0000        0.0000        0.0000       0.000000       0.00000
   7     480.5        0.0000        0.0000        0.0000        0.0000       0.000000       0.00000
   6     533.0        0.0000        0.0000        0.0000        0.0000       0.000000       0.00000
   5     589.8        0.0000        0.0000        0.0000        0.0000       0.000000       0.00000
   4     651.6        0.0000        0.0000        0.0000        0.0000       0.000000       0.00000
   3     718.7        0.0000        0.0000        0.0000        0.0000       0.000000       0.00000
   2     792.3        0.0000        0.0000        0.0000        0.0000       0.000000       0.00000
   1     891.5        0.0000        0.0000        0.0000        0.0000       0.000000       0.00000
   0    1013.0        0.0000        0.0000        0.0000        0.0000       0.000000       0.00000



 Wavenumbers:   820. -  2600. cm-1, ATM      1
 LEVEL PRESSURE   UPWARD FLUX   DIFDOWN FLUX  DIRDOWN FLUX  DOWNWARD FLUX   NET FLUX    HEATING RATE
          mb          W/m2          W/m2          W/m2        W/m2          W/m2       degree/day
  51    .06700        0.1711        0.0000        3.8670        3.8670       3.695917       0.00000
  50    .07753        0.1711        0.0000        3.8643        3.8643       3.693191       2.18510
  49    .09103        0.1711        0.0000        3.8635        3.8635       3.692369       0.51377
  48    0.1069        0.1711        0.0000        3.8626        3.8626       3.691464       0.48158
  47    0.1255        0.1711        0.0000        3.8616        3.8616       3.690487       0.44311
  46    0.1487        0.1711        0.0000        3.8605        3.8605       3.689356       0.41229
  45    0.1794        0.1711        0.0000        3.8591        3.8591       3.687991       0.37466
  44    0.2165        0.1711        0.0000        3.8577        3.8577       3.686577       0.32152
  43    0.2613        0.1711        0.0000        3.8562        3.8562       3.685073       0.28349
  42    0.3336        0.1711        0.0000        3.8539        3.8539       3.682767       0.26887
  41    0.4307        0.1711        0.0000        3.8509        3.8509       3.679791       0.25879
  40    0.5894        0.1711        0.0000        3.8460        3.8460       3.674908       0.25969
  39     1.339        0.1711        0.0000        3.8240        3.8240       3.652887       0.24791
  38     1.782        0.1711        0.0000        3.8119        3.8119       3.640768       0.23072
  37     2.292        0.1711        0.0000        3.7986        3.7986       3.627451       0.22057
  36     2.964        0.1711        0.0000        3.7823        3.7823       3.611158       0.20452
  35     3.853        0.1711        0.0000        3.7623        3.7623       3.591227       0.18915
  34     5.035        0.1711        0.0000        3.7378        3.7378       3.566711       0.17513
  33     6.613        0.1711        0.0000        3.7076        3.7076       3.536469       0.16167
  32     8.786        0.1711        0.0000        3.6716        3.6716       3.500473       0.13979
  31     11.80        0.1711        0.0000        3.6316        3.6316       3.460459       0.11203
  30     15.07        0.1711        0.0000        3.6017        3.6017       3.430628       0.07702
  29     18.79        0.1711        0.0000        3.5785        3.5785       3.407391       0.05268
  28     23.16        0.1711        0.0000        3.5580        3.5581       3.386927       0.03957
  27     28.12        0.1711        0.0000        3.5377        3.5377       3.366550       0.03464
  26     33.73        0.1711        0.0000        3.5162        3.5162       3.345075       0.03229
  25     40.54        0.1711        0.0000        3.4913        3.4914       3.320207       0.03085
  24     48.69        0.1712        0.0000        3.4628        3.4628       3.291643       0.02956
  23     57.69        0.1712        0.0000        3.4327        3.4327       3.261569       0.02819
  22     68.43        0.1712        0.0000        3.3986        3.3986       3.227455       0.02682
  21     81.20        0.1712        0.0000        3.3606        3.3606       3.189418       0.02513
  20     96.49        0.1712        0.0000        3.3183        3.3183       3.147101       0.02336
  19     114.6        0.1712        0.0000        3.2715        3.2715       3.100243       0.02188
  18     136.5        0.1712        0.0000        3.2206        3.2206       3.049377       0.01956
  17     162.9        0.1713        0.0000        3.1613        3.1613       2.990014       0.01897
  16     196.4        0.1714        0.0000        3.0792        3.0792       2.907822       0.02069
  15     218.7        0.1714        0.0000        3.0115        3.0115       2.840126       0.02570
  14     243.0        0.1715        0.0000        2.9223        2.9223       2.750801       0.03098
  13     269.0        0.1717        0.0000        2.8151        2.8152       2.643482       0.03481
  12     297.5        0.1719        0.0000        2.6710        2.6710       2.499109       0.04282
  11     328.5        0.1723        0.0000        2.4998        2.4998       2.327574       0.04664
  10     361.9        0.1727        0.0000        2.3186        2.3186       2.145881       0.04597
   9     398.1        0.1733        0.0000        2.1555        2.1556       1.982247       0.03812
   8     437.6        0.1741        0.0000        2.0290        2.0290       1.854942       0.02722
   7     480.5        0.1750        0.0000        1.9377        1.9378       1.762768       0.01810
   6     533.0        0.1764        0.0000        1.8432        1.8432       1.666798       0.01544
   5     589.8        0.1786        0.0000        1.7350        1.7350       1.556460       0.01638
   4     651.6        0.1823        0.0000        1.6037        1.6038       1.421443       0.01846
   3     718.7        0.1891        0.0000        1.4647        1.4648       1.275683       0.01832
   2     792.3        0.0201        0.2593        0.0041        0.2635       0.243388       0.11839
   1     891.5        0.0048        0.1022        0.0001        0.1022       0.097399       0.01242
   0    1013.0        0.0058        0.0819        0.0001        0.0820       0.076172       0.00147

  Modules and versions used in this calculation:

       rrtmg_sw.1col.f90:  $Revision$                    rrtmg_sw_init.f90:  $Revision$        
     rrtmgsw_cldprop.f90:  $Revision$                  rrtmgsw_cldprmc.f90:  NOT USED          
     rrtmg_sw_reftra.f90:  $Revision$                  rrtmg_sw_spcvrt.f90:  NOT USED          
     rrtmg_sw_spcvmc.f90:  NOT USED                    rrtmgsw_setcoef.f90:  NOT USED          
     rrtmg_sw_taumol.f90:  $Revision$                  rrtmg_sw_vrtqdr.f90:  NOT USED          
                rrtatm.f:  NOT USED                             util_xxx.f:  NOT USED          
                 extra.f:  NOT USED                       rrtmg_sw_k_g.f90:  $Revision$        

