

 Wavenumbers:   820. - 50000. cm-1, ATM      1
 LEVEL PRESSURE   UPWARD FLUX   DIFDOWN FLUX  DIRDOWN FLUX  DOWNWARD FLUX   NET FLUX    HEATING RATE
          mb          W/m2          W/m2          W/m2        W/m2          W/m2       degree/day
  51    .06700      404.0959        0.0000      617.8126      617.8126     213.716634       0.00000
  50    .07753      404.0956        0.0013      617.7947      617.7961     213.700495      12.93541
  49    .09103      404.0951        0.0030      617.7778      617.7808     213.685687       9.25520
  48    0.1069      404.0946        0.0050      617.7581      617.7630     213.668429       9.18686
  47    0.1255      404.0941        0.0072      617.7340      617.7412     213.647088       9.67492
  46    0.1487      404.0935        0.0100      617.7009      617.7109     213.617408      10.81865
  45    0.1794      404.0927        0.0138      617.6521      617.6659     213.573186      12.13995
  44    0.2165      404.0920        0.0184      617.5895      617.6079     213.515877      13.03677
  43    0.2613      404.0912        0.0237      617.5089      617.5326     213.441382      14.04213
  42    0.3336      404.0903        0.0325      617.3641      617.3966     213.306329      15.74579
  41    0.4307      404.0895        0.0441      617.1591      617.2032     213.113755      16.74387
  40    0.5894      404.0891        0.0628      616.8005      616.8633     212.774159      18.05930
  39     1.339      404.1053        0.1473      614.9443      615.0916     210.986261      20.12848
  38     1.782      404.1272        0.1948      613.9670      614.1619     210.034617      18.11776
  37     2.292      404.1639        0.2489      613.0059      613.2548     209.090900      15.63042
  36     2.964      404.2290        0.3193      611.9577      612.2769     208.047877      13.09309
  35     3.853      404.3387        0.4115      610.8024      611.2139     206.875175      11.12916
  34     5.035      404.5076        0.5331      609.5327      610.0658     205.558242       9.40762
  33     6.613      404.7456        0.6946      608.1464      608.8410     204.095423       7.82024
  32     8.786      405.0556        0.9113      606.6250      607.5363     202.480660       6.27116
  31     11.80      405.4567        1.2197      604.8486      606.0683     200.611584       5.23282
  30     15.07      405.8381        1.5488      603.2440      604.7928     198.954643       4.27790
  29     18.79      406.2249        1.9191      601.6511      603.5702     197.345383       3.64869
  28     23.16      406.6258        2.3494      599.9927      602.3421     195.716245       3.15023
  27     28.12      407.0249        2.8391      598.2881      601.1272     194.102236       2.74371
  26     33.73      407.3846        3.3850      596.5951      599.9801     192.595566       2.26532
  25     40.54      407.7177        4.0423      594.7727      598.8150     191.097267       1.85881
  24     48.69      408.0213        4.8310      592.7865      597.6175     189.596203       1.55337
  23     57.69      408.2594        5.6930      590.7959      596.4889     188.229503       1.28108
  22     68.43      408.4398        6.7143      588.6191      595.3334     186.893611       1.05019
  21     81.20      408.5110        7.9250      586.2690      594.1940     185.682973       0.79997
  20     96.49      408.4628        9.3585      583.6961      593.0546     184.591774       0.60226
  19     114.6      408.3522       11.0448      580.7708      591.8156     183.463405       0.52687
  18     136.5      408.1774       13.0192      577.4359      590.4551     182.277701       0.45593
  17     162.9      407.9320       15.3360      573.5624      588.8985     180.966513       0.41911
  16     196.4      407.5278       18.2904      568.5907      586.8811     179.353222       0.40608
  15     218.7      407.2342       20.2003      565.0572      585.2575     178.023242       0.50494
  14     243.0      406.9065       22.2486      560.7495      582.9982     176.091632       0.66995
  13     269.0      406.5451       24.4368      555.3947      579.8315     173.286408       0.91000
  12     297.5      406.1537       26.7654      548.9964      575.7618     169.608049       1.09096
  11     328.5      405.7413       29.2407      542.0895      571.3303     165.588966       1.09278
  10     361.9      405.3139       31.8591      534.6242      566.4833     161.169416       1.11819
   9     398.1      404.8793       34.6248      526.4204      561.0452     156.165978       1.16569
   8     437.6      404.4543       37.5366      517.3907      554.9272     150.472941       1.21721
   7     480.5      404.0566       40.5924      507.7216      548.3139     144.257337       1.22072
   6     533.0      403.6752       44.2655      495.9006      540.1661     136.490884       1.24938
   5     589.8      403.4619       48.1191      483.0788      531.1979     127.736048       1.29950
   4     651.6      403.6444       52.1403      468.6907      520.8309     117.186534       1.44267
   3     718.7      404.5640       56.3209      453.2257      509.5466     104.982567       1.53370
   2     792.3      353.5907      419.1713       18.4765      437.6477      84.057005       2.39993
   1     891.5      337.0644      401.6483        2.1385      403.7868      66.722330       1.47510
   0    1013.0      342.6088      389.4611        2.0112      391.4724      48.863541       1.24003



 Wavenumbers:  2600. -  3250. cm-1, ATM      1
 LEVEL PRESSURE   UPWARD FLUX   DIFDOWN FLUX  DIRDOWN FLUX  DOWNWARD FLUX   NET FLUX    HEATING RATE
          mb          W/m2          W/m2          W/m2        W/m2          W/m2       degree/day
  51    .06700        0.2619        0.0000        5.4450        5.4450       5.183103       0.00000
  50    .07753        0.2619        0.0000        5.4450        5.4450       5.183095       0.00640
  49    .09103        0.2619        0.0000        5.4450        5.4450       5.183084       0.00627
  48    0.1069        0.2619        0.0000        5.4450        5.4450       5.183073       0.00613
  47    0.1255        0.2619        0.0000        5.4450        5.4450       5.183060       0.00599
  46    0.1487        0.2619        0.0000        5.4450        5.4450       5.183043       0.00608
  45    0.1794        0.2619        0.0000        5.4450        5.4450       5.183020       0.00625
  44    0.2165        0.2619        0.0000        5.4449        5.4449       5.182993       0.00612
  43    0.2613        0.2619        0.0000        5.4449        5.4449       5.182962       0.00600
  42    0.3336        0.2619        0.0000        5.4448        5.4448       5.182909       0.00617
  41    0.4307        0.2619        0.0000        5.4448        5.4448       5.182837       0.00620
  40    0.5894        0.2619        0.0000        5.4446        5.4446       5.182718       0.00637
  39     1.339        0.2619        0.0000        5.4439        5.4439       5.182010       0.00797
  38     1.782        0.2619        0.0000        5.4434        5.4434       5.181467       0.01034
  37     2.292        0.2619        0.0000        5.4427        5.4427       5.180751       0.01186
  36     2.964        0.2619        0.0000        5.4416        5.4416       5.179713       0.01304
  35     3.853        0.2619        0.0000        5.4402        5.4402       5.178235       0.01402
  34     5.035        0.2619        0.0000        5.4381        5.4381       5.176180       0.01468
  33     6.613        0.2619        0.0000        5.4353        5.4353       5.173399       0.01487
  32     8.786        0.2619        0.0000        5.4317        5.4317       5.169767       0.01411
  31     11.80        0.2619        0.0000        5.4269        5.4269       5.164986       0.01338
  30     15.07        0.2619        0.0000        5.4224        5.4224       5.160460       0.01169
  29     18.79        0.2619        0.0000        5.4180        5.4180       5.156047       0.01000
  28     23.16        0.2619        0.0000        5.4135        5.4135       5.151561       0.00867
  27     28.12        0.2619        0.0000        5.4088        5.4088       5.146913       0.00790
  26     33.73        0.2619        0.0000        5.4036        5.4036       5.141672       0.00788
  25     40.54        0.2619        0.0000        5.3966        5.3967       5.134729       0.00861
  24     48.69        0.2619        0.0000        5.3872        5.3872       5.125250       0.00981
  23     57.69        0.2619        0.0000        5.3754        5.3754       5.113464       0.01105
  22     68.43        0.2619        0.0000        5.3599        5.3599       5.097972       0.01218
  21     81.20        0.2620        0.0000        5.3401        5.3401       5.078133       0.01311
  20     96.49        0.2620        0.0000        5.3155        5.3155       5.053559       0.01356
  19     114.6        0.2620        0.0000        5.2853        5.2853       5.023351       0.01410
  18     136.5        0.2620        0.0001        5.2504        5.2505       4.988428       0.01343
  17     162.9        0.2621        0.0001        5.2111        5.2111       4.949063       0.01258
  16     196.4        0.2622        0.0001        5.1640        5.1641       4.901934       0.01186
  15     218.7        0.2623        0.0001        5.1331        5.1332       4.870924       0.01177
  14     243.0        0.2624        0.0001        5.0962        5.0963       4.833889       0.01284
  13     269.0        0.2627        0.0001        5.0511        5.0512       4.788536       0.01471
  12     297.5        0.2630        0.0001        4.9956        4.9957       4.732692       0.01656
  11     328.5        0.2635        0.0001        4.9304        4.9305       4.666950       0.01787
  10     361.9        0.2643        0.0001        4.8511        4.8512       4.586966       0.02024
   9     398.1        0.2653        0.0001        4.7507        4.7508       4.485550       0.02363
   8     437.6        0.2667        0.0001        4.6220        4.6222       4.355486       0.02781
   7     480.5        0.2687        0.0002        4.4625        4.4626       4.193926       0.03173
   6     533.0        0.2720        0.0002        4.2460        4.2462       3.974160       0.03535
   5     589.8        0.2773        0.0002        3.9954        3.9956       3.718322       0.03797
   4     651.6        0.2861        0.0002        3.7089        3.7090       3.422886       0.04040
   3     718.7        0.3017        0.0002        3.4018        3.4020       3.100338       0.04054
   2     792.3        0.1326        0.8050        0.0977        0.9026       0.770021       0.26726
   1     891.5        0.1841        0.3498        0.0083        0.3581       0.174008       0.05072
   0    1013.0        0.2130        0.2851        0.0067        0.2918       0.078795       0.00661



 Wavenumbers:  3250. -  4000. cm-1, ATM      1
 LEVEL PRESSURE   UPWARD FLUX   DIFDOWN FLUX  DIRDOWN FLUX  DOWNWARD FLUX   NET FLUX    HEATING RATE
          mb          W/m2          W/m2          W/m2        W/m2          W/m2       degree/day
  51    .06700        0.0126        0.0000        9.1795        9.1795       9.166887       0.00000
  50    .07753        0.0126        0.0000        9.1747        9.1747       9.162044       3.88148
  49    .09103        0.0126        0.0000        9.1713        9.1713       9.158656       2.11747
  48    0.1069        0.0126        0.0000        9.1688        9.1688       9.156132       1.34402
  47    0.1255        0.0126        0.0000        9.1665        9.1665       9.153872       1.02422
  46    0.1487        0.0126        0.0000        9.1641        9.1641       9.151431       0.88991
  45    0.1794        0.0126        0.0000        9.1612        9.1612       9.148553       0.79008
  44    0.2165        0.0126        0.0000        9.1583        9.1583       9.145633       0.66430
  43    0.2613        0.0126        0.0000        9.1553        9.1553       9.142660       0.56041
  42    0.3336        0.0126        0.0000        9.1511        9.1511       9.138481       0.48723
  41    0.4307        0.0126        0.0000        9.1464        9.1464       9.133712       0.41459
  40    0.5894        0.0126        0.0000        9.1393        9.1394       9.126707       0.37255
  39     1.339        0.0126        0.0000        9.1127        9.1127       9.100093       0.29962
  38     1.782        0.0126        0.0000        9.1011        9.1011       9.088505       0.22062
  37     2.292        0.0126        0.0000        9.0901        9.0901       9.077438       0.18329
  36     2.964        0.0126        0.0000        9.0776        9.0776       9.065009       0.15603
  35     3.853        0.0126        0.0000        9.0629        9.0629       9.050218       0.14036
  34     5.035        0.0126        0.0000        9.0441        9.0441       9.031480       0.13386
  33     6.613        0.0126        0.0000        9.0191        9.0191       9.006478       0.13366
  32     8.786        0.0126        0.0000        8.9843        8.9843       8.971694       0.13509
  31     11.80        0.0126        0.0000        8.9327        8.9327       8.920078       0.14451
  30     15.07        0.0126        0.0000        8.8758        8.8759       8.863233       0.14676
  29     18.79        0.0126        0.0000        8.8110        8.8110       8.798406       0.14698
  28     23.16        0.0126        0.0000        8.7365        8.7366       8.723961       0.14395
  27     28.12        0.0126        0.0000        8.6554        8.6555       8.642848       0.13789
  26     33.73        0.0126        0.0000        8.5719        8.5719       8.559348       0.12554
  25     40.54        0.0126        0.0001        8.4812        8.4812       8.468625       0.11255
  24     48.69        0.0126        0.0001        8.3838        8.3839       8.371323       0.10069
  23     57.69        0.0126        0.0001        8.2861        8.2862       8.273588       0.09161
  22     68.43        0.0126        0.0001        8.1751        8.1751       8.162591       0.08726
  21     81.20        0.0125        0.0001        8.0457        8.0458       8.033233       0.08548
  20     96.49        0.0125        0.0001        7.8949        7.8950       7.882530       0.08318
  19     114.6        0.0125        0.0001        7.7162        7.7163       7.703820       0.08344
  18     136.5        0.0125        0.0002        7.5193        7.5194       7.506976       0.07569
  17     162.9        0.0124        0.0002        7.2913        7.2915       7.279085       0.07284
  16     196.4        0.0124        0.0002        6.9660        6.9662       6.953811       0.08188
  15     218.7        0.0124        0.0002        6.6648        6.6650       6.652620       0.11435
  14     243.0        0.0124        0.0002        6.2619        6.2622       6.249821       0.13970
  13     269.0        0.0124        0.0003        5.7576        5.7579       5.745509       0.16360
  12     297.5        0.0124        0.0003        5.1719        5.1722       5.159791       0.17372
  11     328.5        0.0124        0.0002        4.5757        4.5760       4.563584       0.16211
  10     361.9        0.0125        0.0002        3.9995        3.9998       3.987330       0.14580
   9     398.1        0.0126        0.0002        3.4655        3.4657       3.453146       0.12445
   8     437.6        0.0128        0.0002        2.9740        2.9742       2.961484       0.10512
   7     480.5        0.0131        0.0002        2.5307        2.5309       2.517764       0.08714
   6     533.0        0.0138        0.0002        2.0614        2.0616       2.047795       0.07560
   5     589.8        0.0150        0.0002        1.6150        1.6151       1.600126       0.06645
   4     651.6        0.0176        0.0001        1.1565        1.1566       1.138935       0.06307
   3     718.7        0.0239        0.0001        0.7390        0.7391       0.715189       0.05325
   2     792.3        0.0020        0.0979        0.0140        0.1119       0.109931       0.06942
   1     891.5        0.0001        0.0140        0.0004        0.0145       0.014358       0.00813
   0    1013.0        0.0010        0.0013        0.0000        0.0013       0.000354       0.00097



 Wavenumbers:  4000. -  4650. cm-1, ATM      1
 LEVEL PRESSURE   UPWARD FLUX   DIFDOWN FLUX  DIRDOWN FLUX  DOWNWARD FLUX   NET FLUX    HEATING RATE
          mb          W/m2          W/m2          W/m2        W/m2          W/m2       degree/day
  51    .06700        4.0145        0.0000       10.7795       10.7795       6.765044       0.00000
  50    .07753        4.0145        0.0000       10.7795       10.7795       6.765043       0.00080
  49    .09103        4.0145        0.0000       10.7795       10.7795       6.765042       0.00078
  48    0.1069        4.0145        0.0000       10.7795       10.7795       6.765041       0.00077
  47    0.1255        4.0145        0.0000       10.7795       10.7795       6.765039       0.00075
  46    0.1487        4.0145        0.0000       10.7795       10.7795       6.765037       0.00076
  45    0.1794        4.0145        0.0000       10.7795       10.7795       6.765034       0.00078
  44    0.2165        4.0145        0.0000       10.7795       10.7795       6.765031       0.00076
  43    0.2613        4.0145        0.0000       10.7795       10.7795       6.765027       0.00075
  42    0.3336        4.0145        0.0000       10.7795       10.7795       6.765020       0.00077
  41    0.4307        4.0145        0.0000       10.7795       10.7795       6.765011       0.00077
  40    0.5894        4.0145        0.0000       10.7795       10.7795       6.764996       0.00080
  39     1.339        4.0145        0.0000       10.7794       10.7794       6.764907       0.00101
  38     1.782        4.0145        0.0000       10.7793       10.7793       6.764837       0.00133
  37     2.292        4.0145        0.0000       10.7792       10.7792       6.764743       0.00156
  36     2.964        4.0145        0.0000       10.7791       10.7791       6.764602       0.00176
  35     3.853        4.0145        0.0000       10.7789       10.7789       6.764394       0.00198
  34     5.035        4.0145        0.0000       10.7786       10.7786       6.764086       0.00220
  33     6.613        4.0145        0.0000       10.7781       10.7781       6.763634       0.00242
  32     8.786        4.0145        0.0000       10.7774       10.7774       6.762966       0.00259
  31     11.80        4.0145        0.0001       10.7763       10.7764       6.761916       0.00294
  30     15.07        4.0145        0.0001       10.7751       10.7752       6.760685       0.00318
  29     18.79        4.0145        0.0001       10.7736       10.7737       6.759195       0.00338
  28     23.16        4.0145        0.0001       10.7717       10.7718       6.757345       0.00358
  27     28.12        4.0145        0.0001       10.7695       10.7696       6.755105       0.00381
  26     33.73        4.0145        0.0001       10.7667       10.7668       6.752342       0.00415
  25     40.54        4.0145        0.0002       10.7629       10.7631       6.748593       0.00465
  24     48.69        4.0145        0.0002       10.7579       10.7581       6.743596       0.00517
  23     57.69        4.0146        0.0003       10.7520       10.7523       6.737670       0.00555
  22     68.43        4.0147        0.0003       10.7446       10.7449       6.730239       0.00584
  21     81.20        4.0148        0.0004       10.7355       10.7359       6.721086       0.00605
  20     96.49        4.0150        0.0004       10.7245       10.7249       6.709942       0.00615
  19     114.6        4.0152        0.0005       10.7107       10.7112       6.696000       0.00651
  18     136.5        4.0156        0.0006       10.6942       10.6948       6.679193       0.00646
  17     162.9        4.0162        0.0007       10.6740       10.6747       6.658574       0.00659
  16     196.4        4.0171        0.0009       10.6464       10.6472       6.630113       0.00716
  15     218.7        4.0180        0.0010       10.6255       10.6264       6.608452       0.00822
  14     243.0        4.0192        0.0011       10.5980       10.5991       6.579898       0.00990
  13     269.0        4.0211        0.0012       10.5611       10.5623       6.541187       0.01256
  12     297.5        4.0238        0.0013       10.5119       10.5132       6.489426       0.01535
  11     328.5        4.0276        0.0014       10.4499       10.4513       6.423726       0.01786
  10     361.9        4.0325        0.0015       10.3702       10.3717       6.339219       0.02138
   9     398.1        4.0388        0.0017       10.2678       10.2695       6.230715       0.02528
   8     437.6        4.0468        0.0018       10.1390       10.1408       6.094046       0.02922
   7     480.5        4.0571        0.0020        9.9877        9.9897       5.932547       0.03172
   6     533.0        4.0733        0.0022        9.7937        9.7959       5.722592       0.03377
   5     589.8        4.0969        0.0024        9.5752        9.5775       5.480597       0.03592
   4     651.6        4.1359        0.0026        9.2958        9.2984       5.162428       0.04351
   3     718.7        4.2036        0.0027        8.9267        8.9295       4.725830       0.05487
   2     792.3        3.2261        5.9054        0.2954        6.2008       2.974645       0.20084
   1     891.5        3.0819        4.8713        0.0291        4.9004       1.818487       0.09838
   0    1013.0        3.2791        4.4655        0.0264        4.4919       1.212815       0.04205



 Wavenumbers:  4650. -  5150. cm-1, ATM      1
 LEVEL PRESSURE   UPWARD FLUX   DIFDOWN FLUX  DIRDOWN FLUX  DOWNWARD FLUX   NET FLUX    HEATING RATE
          mb          W/m2          W/m2          W/m2        W/m2          W/m2       degree/day
  51    .06700        2.6954        0.0000       10.2033       10.2033       7.507976       0.00000
  50    .07753        2.6954        0.0000       10.2031       10.2031       7.507740       0.18901
  49    .09103        2.6954        0.0000       10.2028       10.2028       7.507445       0.18428
  48    0.1069        2.6954        0.0000       10.2025       10.2025       7.507108       0.17931
  47    0.1255        2.6954        0.0000       10.2021       10.2021       7.506724       0.17426
  46    0.1487        2.6954        0.0000       10.2016       10.2016       7.506243       0.17536
  45    0.1794        2.6954        0.0000       10.2010       10.2010       7.505593       0.17850
  44    0.2165        2.6954        0.0000       10.2002       10.2002       7.504833       0.17277
  43    0.2613        2.6954        0.0000       10.1993       10.1993       7.503948       0.16690
  42    0.3336        2.6954        0.0000       10.1979       10.1979       7.502515       0.16702
  41    0.4307        2.6954        0.0000       10.1960       10.1960       7.500675       0.16002
  40    0.5894        2.6954        0.0000       10.1932       10.1932       7.497801       0.15283
  39     1.339        2.6954        0.0000       10.1816       10.1816       7.486209       0.13050
  38     1.782        2.6954        0.0000       10.1760       10.1760       7.480680       0.10526
  37     2.292        2.6954        0.0000       10.1706       10.1706       7.475224       0.09038
  36     2.964        2.6954        0.0000       10.1646       10.1647       7.469300       0.07436
  35     3.853        2.6954        0.0000       10.1584       10.1584       7.463085       0.05898
  34     5.035        2.6954        0.0000       10.1521       10.1521       7.456749       0.04527
  33     6.613        2.6954        0.0000       10.1456       10.1456       7.450290       0.03453
  32     8.786        2.6954        0.0001       10.1386       10.1386       7.443276       0.02724
  31     11.80        2.6954        0.0001       10.1295       10.1296       7.434229       0.02533
  30     15.07        2.6954        0.0001       10.1196       10.1197       7.424342       0.02553
  29     18.79        2.6954        0.0001       10.1076       10.1077       7.412323       0.02725
  28     23.16        2.6954        0.0001       10.0923       10.0924       7.397000       0.02963
  27     28.12        2.6954        0.0002       10.0731       10.0733       7.377881       0.03250
  26     33.73        2.6955        0.0002       10.0500       10.0503       7.354754       0.03477
  25     40.54        2.6956        0.0003       10.0201       10.0204       7.324802       0.03716
  24     48.69        2.6957        0.0003        9.9820        9.9823       7.286561       0.03957
  23     57.69        2.6959        0.0004        9.9384        9.9388       7.242932       0.04090
  22     68.43        2.6961        0.0004        9.8858        9.8862       7.190073       0.04155
  21     81.20        2.6965        0.0005        9.8234        9.8240       7.127505       0.04134
  20     96.49        2.6969        0.0006        9.7518        9.7524       7.055440       0.03977
  19     114.6        2.6976        0.0007        9.6719        9.6726       6.975046       0.03754
  18     136.5        2.6985        0.0008        9.5858        9.5866       6.888129       0.03342
  17     162.9        2.6998        0.0010        9.4940        9.4950       6.795231       0.02969
  16     196.4        2.7018        0.0012        9.3883        9.3895       6.687653       0.02708
  15     218.7        2.7034        0.0013        9.3229        9.3242       6.620831       0.02537
  14     243.0        2.7055        0.0014        9.2520        9.2534       6.547957       0.02528
  13     269.0        2.7083        0.0016        9.1717        9.1733       6.464997       0.02691
  12     297.5        2.7122        0.0017        9.0763        9.0780       6.365857       0.02940
  11     328.5        2.7173        0.0019        8.9650        8.9669       6.249596       0.03161
  10     361.9        2.7239        0.0021        8.8349        8.8370       6.113098       0.03454
   9     398.1        2.7325        0.0023        8.6820        8.6843       5.951756       0.03759
   8     437.6        2.7438        0.0024        8.5028        8.5052       5.761476       0.04068
   7     480.5        2.7585        0.0026        8.2948        8.2974       5.538986       0.04370
   6     533.0        2.7810        0.0028        8.0209        8.0237       5.242737       0.04766
   5     589.8        2.8126        0.0030        7.7063        7.7094       4.896783       0.05135
   4     651.6        2.8600        0.0032        7.3412        7.3445       4.484445       0.05639
   3     718.7        2.9336        0.0034        6.9387        6.9421       4.008461       0.05982
   2     792.3        2.2290        4.4038        0.2337        4.6375       2.408511       0.18350
   1     891.5        2.1665        3.5335        0.0232        3.5567       1.390162       0.08666
   0    1013.0        2.3443        3.1907        0.0207        3.2114       0.867084       0.03632



 Wavenumbers:  5150. -  6150. cm-1, ATM      1
 LEVEL PRESSURE   UPWARD FLUX   DIFDOWN FLUX  DIRDOWN FLUX  DOWNWARD FLUX   NET FLUX    HEATING RATE
          mb          W/m2          W/m2          W/m2        W/m2          W/m2       degree/day
  51    .06700        8.3138        0.0000       25.5798       25.5798      17.266067       0.00000
  50    .07753        8.3138        0.0000       25.5798       25.5798      17.266027       0.03160
  49    .09103        8.3138        0.0000       25.5797       25.5797      17.265976       0.03209
  48    0.1069        8.3138        0.0000       25.5797       25.5797      17.265915       0.03259
  47    0.1255        8.3138        0.0000       25.5796       25.5796      17.265842       0.03310
  46    0.1487        8.3138        0.0000       25.5795       25.5795      17.265746       0.03487
  45    0.1794        8.3138        0.0000       25.5794       25.5794      17.265611       0.03711
  44    0.2165        8.3138        0.0000       25.5792       25.5792      17.265445       0.03767
  43    0.2613        8.3138        0.0000       25.5790       25.5790      17.265242       0.03825
  42    0.3336        8.3138        0.0000       25.5786       25.5786      17.264896       0.04041
  41    0.4307        8.3137        0.0000       25.5782       25.5782      17.264425       0.04096
  40    0.5894        8.3137        0.0000       25.5774       25.5774      17.263635       0.04197
  39     1.339        8.3137        0.0000       25.5735       25.5736      17.259833       0.04280
  38     1.782        8.3137        0.0001       25.5713       25.5714      17.257620       0.04214
  37     2.292        8.3137        0.0001       25.5688       25.5688      17.255114       0.04150
  36     2.964        8.3137        0.0001       25.5656       25.5657      17.251931       0.03996
  35     3.853        8.3137        0.0001       25.5615       25.5616      17.247885       0.03840
  34     5.035        8.3137        0.0002       25.5562       25.5564      17.242674       0.03723
  33     6.613        8.3137        0.0002       25.5494       25.5496      17.235913       0.03614
  32     8.786        8.3137        0.0003       25.5406       25.5409      17.227151       0.03403
  31     11.80        8.3137        0.0004       25.5287       25.5290      17.215299       0.03318
  30     15.07        8.3137        0.0005       25.5167       25.5171      17.203411       0.03069
  29     18.79        8.3138        0.0006       25.5042       25.5047      17.190980       0.02818
  28     23.16        8.3138        0.0007       25.4907       25.4914      17.177586       0.02590
  27     28.12        8.3138        0.0008       25.4764       25.4773      17.163459       0.02402
  26     33.73        8.3139        0.0010       25.4620       25.4630      17.149134       0.02154
  25     40.54        8.3140        0.0012       25.4463       25.4475      17.133458       0.01945
  24     48.69        8.3142        0.0015       25.4294       25.4308      17.116655       0.01739
  23     57.69        8.3144        0.0017       25.4126       25.4144      17.099955       0.01565
  22     68.43        8.3147        0.0021       25.3944       25.3965      17.081803       0.01427
  21     81.20        8.3151        0.0024       25.3744       25.3769      17.061810       0.01321
  20     96.49        8.3155        0.0029       25.3519       25.3548      17.039323       0.01241
  19     114.6        8.3161        0.0034       25.3262       25.3296      17.013517       0.01205
  18     136.5        8.3168        0.0041       25.2962       25.3003      16.983463       0.01156
  17     162.9        8.3177        0.0049       25.2521       25.2570      16.939228       0.01414
  16     196.4        8.3190        0.0059       25.1593       25.1651      16.846148       0.02343
  15     218.7        8.3199        0.0065       25.0159       25.0224      16.702492       0.05454
  14     243.0        8.3211        0.0071       24.7089       24.7161      16.394973       0.10666
  13     269.0        8.3226        0.0078       24.1619       24.1696      15.847044       0.17775
  12     297.5        8.3247        0.0084       23.4544       23.4628      15.138124       0.21026
  11     328.5        8.3274        0.0091       22.7355       22.7445      14.417109       0.19604
  10     361.9        8.3311        0.0097       21.9224       21.9321      13.601067       0.20647
   9     398.1        8.3360        0.0103       20.9939       21.0042      12.668256       0.21732
   8     437.6        8.3428        0.0109       19.9833       19.9943      11.651411       0.21741
   7     480.5        8.3523        0.0115       18.9483       18.9598      10.607442       0.20503
   6     533.0        8.3685        0.0121       17.7796       17.7917       9.423215       0.19050
   5     589.8        8.3949        0.0128       16.6726       16.6854       8.290498       0.16813
   4     651.6        8.4439        0.0135       15.6343       15.6478       7.203891       0.14860
   3     718.7        8.5389        0.0142       14.7738       14.7880       6.249101       0.11999
   2     792.3        6.6586       10.6912        0.5194       11.2106       4.551982       0.19464
   1     891.5        6.1473        9.3852        0.0538        9.4390       3.291748       0.10724
   0    1013.0        6.4104        8.7319        0.0495        8.7814       2.370981       0.06393



 Wavenumbers:  6150. -  7700. cm-1, ATM      1
 LEVEL PRESSURE   UPWARD FLUX   DIFDOWN FLUX  DIRDOWN FLUX  DOWNWARD FLUX   NET FLUX    HEATING RATE
          mb          W/m2          W/m2          W/m2        W/m2          W/m2       degree/day
  51    .06700       13.4860        0.0000       47.3109       47.3109      33.824909       0.00000
  50    .07753       13.4859        0.0000       47.3108       47.3108      33.824852       0.04553
  49    .09103       13.4859        0.0000       47.3107       47.3107      33.824779       0.04583
  48    0.1069       13.4859        0.0000       47.3106       47.3106      33.824692       0.04614
  47    0.1255       13.4859        0.0000       47.3105       47.3105      33.824590       0.04645
  46    0.1487       13.4859        0.0000       47.3104       47.3104      33.824457       0.04852
  45    0.1794       13.4859        0.0000       47.3102       47.3102      33.824270       0.05127
  44    0.2165       13.4859        0.0000       47.3100       47.3100      33.824043       0.05167
  43    0.2613       13.4859        0.0000       47.3097       47.3097      33.823766       0.05210
  42    0.3336       13.4859        0.0000       47.3092       47.3092      33.823297       0.05471
  41    0.4307       13.4859        0.0000       47.3085       47.3086      33.822662       0.05521
  40    0.5894       13.4859        0.0001       47.3074       47.3075      33.821603       0.05633
  39     1.339       13.4858        0.0002       47.3022       47.3024      33.816511       0.05733
  38     1.782       13.4858        0.0002       47.2991       47.2993      33.813540       0.05655
  37     2.292       13.4858        0.0003       47.2956       47.2959      33.810165       0.05591
  36     2.964       13.4857        0.0004       47.2912       47.2916      33.805846       0.05421
  35     3.853       13.4856        0.0005       47.2855       47.2859      33.800312       0.05252
  34     5.035       13.4855        0.0006       47.2780       47.2787      33.793131       0.05129
  33     6.613       13.4854        0.0008       47.2683       47.2691      33.783743       0.05019
  32     8.786       13.4852        0.0011       47.2556       47.2567      33.771444       0.04777
  31     11.80       13.4850        0.0015       47.2380       47.2395      33.754540       0.04733
  30     15.07       13.4847        0.0019       47.2201       47.2219      33.737253       0.04463
  29     18.79       13.4844        0.0023       47.2008       47.2032      33.718773       0.04190
  28     23.16       13.4840        0.0029       47.1795       47.1824      33.698382       0.03943
  27     28.12       13.4836        0.0035       47.1565       47.1600      33.676388       0.03739
  26     33.73       13.4831        0.0042       47.1324       47.1366      33.653466       0.03446
  25     40.54       13.4826        0.0050       47.1054       47.1104      33.627829       0.03181
  24     48.69       13.4819        0.0061       47.0754       47.0815      33.599575       0.02924
  23     57.69       13.4812        0.0072       47.0449       47.0521      33.570952       0.02683
  22     68.43       13.4803        0.0085       47.0110       47.0195      33.539214       0.02495
  21     81.20       13.4792        0.0101       46.9729       46.9830      33.503718       0.02345
  20     96.49       13.4780        0.0120       46.9294       46.9414      33.463375       0.02227
  19     114.6       13.4765        0.0142       46.8790       46.8933      33.416739       0.02178
  18     136.5       13.4748        0.0169       46.8200       46.8369      33.362112       0.02101
  17     162.9       13.4727        0.0201       46.7361       46.7562      33.283483       0.02513
  16     196.4       13.4702        0.0242       46.5703       46.5944      33.124269       0.04008
  15     218.7       13.4686        0.0268       46.3473       46.3741      32.905485       0.08306
  14     243.0       13.4672        0.0296       45.9299       45.9594      32.492200       0.14334
  13     269.0       13.4664        0.0324       45.1708       45.2031      31.736783       0.24505
  12     297.5       13.4665        0.0351       44.0115       44.0465      30.580018       0.34308
  11     328.5       13.4681        0.0378       42.7242       42.7620      29.293938       0.34968
  10     361.9       13.4719        0.0406       41.3539       41.3945      27.922681       0.34694
   9     398.1       13.4790        0.0433       39.7953       39.8386      26.359554       0.36417
   8     437.6       13.4918        0.0459       37.9948       38.0406      24.548853       0.38714
   7     480.5       13.5128        0.0483       36.0647       36.1130      22.600240       0.38270
   6     533.0       13.5531        0.0509       33.7773       33.8282      20.275062       0.37405
   5     589.8       13.6250        0.0532       31.4082       31.4614      17.836419       0.36197
   4     651.6       13.7676        0.0551       28.8834       28.9385      15.170846       0.36452
   3     718.7       14.0555        0.0567       26.4104       26.4671      12.411535       0.34677
   2     792.3       10.5683       18.6786        0.9355       19.6141       9.045830       0.38601
   1     891.5        9.6156       15.7981        0.0951       15.8933       6.277702       0.23555
   0    1013.0       10.3286       14.0654        0.0834       14.1488       3.820165       0.17064



 Wavenumbers:  7700. -  8050. cm-1, ATM      1
 LEVEL PRESSURE   UPWARD FLUX   DIFDOWN FLUX  DIRDOWN FLUX  DOWNWARD FLUX   NET FLUX    HEATING RATE
          mb          W/m2          W/m2          W/m2        W/m2          W/m2       degree/day
  51    .06700        6.7459        0.0000       11.1810       11.1810       4.435107       0.00000
  50    .07753        6.7459        0.0000       11.1809       11.1809       4.435085       0.01793
  49    .09103        6.7459        0.0000       11.1809       11.1809       4.435056       0.01757
  48    0.1069        6.7459        0.0000       11.1809       11.1809       4.435024       0.01720
  47    0.1255        6.7459        0.0000       11.1809       11.1809       4.434987       0.01684
  46    0.1487        6.7459        0.0000       11.1808       11.1808       4.434940       0.01708
  45    0.1794        6.7459        0.0000       11.1808       11.1808       4.434876       0.01758
  44    0.2165        6.7459        0.0000       11.1807       11.1807       4.434800       0.01724
  43    0.2613        6.7459        0.0000       11.1806       11.1806       4.434711       0.01692
  42    0.3336        6.7460        0.0000       11.1805       11.1805       4.434562       0.01731
  41    0.4307        6.7460        0.0000       11.1803       11.1804       4.434365       0.01712
  40    0.5894        6.7461        0.0000       11.1801       11.1801       4.434043       0.01711
  39     1.339        6.7464        0.0001       11.1788       11.1789       4.432521       0.01713
  38     1.782        6.7465        0.0001       11.1781       11.1782       4.431627       0.01702
  37     2.292        6.7467        0.0001       11.1772       11.1773       4.430593       0.01714
  36     2.964        6.7470        0.0002       11.1761       11.1762       4.429234       0.01706
  35     3.853        6.7474        0.0002       11.1746       11.1748       4.427439       0.01703
  34     5.035        6.7478        0.0003       11.1726       11.1729       4.425055       0.01703
  33     6.613        6.7485        0.0004       11.1700       11.1703       4.421870       0.01703
  32     8.786        6.7493        0.0005       11.1664       11.1669       4.417579       0.01666
  31     11.80        6.7505        0.0007       11.1613       11.1620       4.411445       0.01717
  30     15.07        6.7518        0.0009       11.1558       11.1567       4.404863       0.01699
  29     18.79        6.7533        0.0011       11.1497       11.1508       4.397435       0.01684
  28     23.16        6.7551        0.0013       11.1425       11.1438       4.388769       0.01676
  27     28.12        6.7571        0.0016       11.1343       11.1359       4.378873       0.01682
  26     33.73        6.7593        0.0019       11.1252       11.1271       4.367818       0.01662
  25     40.54        6.7620        0.0023       11.1142       11.1165       4.354490       0.01654
  24     48.69        6.7653        0.0028       11.1010       11.1038       4.338465       0.01658
  23     57.69        6.7690        0.0033       11.0866       11.0899       4.320917       0.01645
  22     68.43        6.7733        0.0039       11.0695       11.0734       4.300095       0.01637
  21     81.20        6.7786        0.0046       11.0494       11.0540       4.275398       0.01632
  20     96.49        6.7849        0.0055       11.0255       11.0310       4.246126       0.01616
  19     114.6        6.7924        0.0065       10.9975       11.0040       4.211587       0.01613
  18     136.5        6.8015        0.0077       10.9648       10.9725       4.170944       0.01563
  17     162.9        6.8125        0.0091       10.9263       10.9354       4.122942       0.01534
  16     196.4        6.8270        0.0110       10.8773       10.8883       4.061291       0.01552
  15     218.7        6.8366        0.0122       10.8455       10.8577       4.021116       0.01525
  14     243.0        6.8473        0.0135       10.8114       10.8250       3.977661       0.01507
  13     269.0        6.8591        0.0150       10.7749       10.7898       3.930736       0.01522
  12     297.5        6.8721        0.0165       10.7357       10.7522       3.880081       0.01502
  11     328.5        6.8866        0.0182       10.6937       10.7119       3.825344       0.01488
  10     361.9        6.9026        0.0200       10.6489       10.6688       3.766255       0.01495
   9     398.1        6.9204        0.0219       10.6008       10.6227       3.702255       0.01491
   8     437.6        6.9404        0.0240       10.5491       10.5731       3.632649       0.01488
   7     480.5        6.9629        0.0262       10.4934       10.5196       3.556781       0.01490
   6     533.0        6.9922        0.0289       10.4243       10.4532       3.461073       0.01540
   5     589.8        7.0263        0.0319       10.3479       10.3798       3.353455       0.01597
   4     651.6        7.0673        0.0350       10.2613       10.2964       3.229030       0.01702
   3     718.7        7.1176        0.0384       10.1618       10.2001       3.082488       0.01842
   2     792.3        5.8413        8.1288        0.3994        8.5282       2.686851       0.04538
   1     891.5        5.4123        7.7064        0.0457        7.7522       2.339900       0.02952
   0    1013.0        5.5293        7.5298        0.0446        7.5744       2.045083       0.02047



 Wavenumbers:  8050. - 12850. cm-1, ATM      1
 LEVEL PRESSURE   UPWARD FLUX   DIFDOWN FLUX  DIRDOWN FLUX  DOWNWARD FLUX   NET FLUX    HEATING RATE
          mb          W/m2          W/m2          W/m2        W/m2          W/m2       degree/day
  51    .06700       88.2783        0.0000      156.5418      156.5418      68.263442       0.00000
  50    .07753       88.2783        0.0000      156.5417      156.5417      68.263442      -0.00000
  49    .09103       88.2783        0.0001      156.5417      156.5417      68.263442       0.00000
  48    0.1069       88.2783        0.0001      156.5416      156.5417      68.263442       0.00000
  47    0.1255       88.2782        0.0002      156.5415      156.5417      68.263442      -0.00000
  46    0.1487       88.2782        0.0002      156.5414      156.5417      68.263442       0.00000
  45    0.1794       88.2782        0.0003      156.5413      156.5416      68.263442      -0.00000
  44    0.2165       88.2781        0.0004      156.5412      156.5416      68.263442       0.00000
  43    0.2613       88.2781        0.0005      156.5410      156.5415      68.263442      -0.00000
  42    0.3336       88.2780        0.0007      156.5407      156.5414      68.263442       0.00000
  41    0.4307       88.2779        0.0010      156.5403      156.5413      68.263442      -0.00000
  40    0.5894       88.2777        0.0015      156.5397      156.5411      68.263442       0.00000
  39     1.339       88.2768        0.0035      156.5367      156.5403      68.263442      -0.00000
  38     1.782       88.2763        0.0048      156.5350      156.5398      68.263442       0.00000
  37     2.292       88.2757        0.0062      156.5330      156.5392      68.263442      -0.00000
  36     2.964       88.2749        0.0080      156.5303      156.5384      68.263442       0.00000
  35     3.853       88.2739        0.0105      156.5268      156.5374      68.263442       0.00000
  34     5.035       88.2725        0.0138      156.5222      156.5360      68.263442       0.00000
  33     6.613       88.2707        0.0181      156.5160      156.5342      68.263442       0.00000
  32     8.786       88.2682        0.0240      156.5076      156.5317      68.263442      -0.00000
  31     11.80       88.2647        0.0325      156.4957      156.5281      68.263442       0.00000
  30     15.07       88.2609        0.0416      156.4828      156.5243      68.263442      -0.00000
  29     18.79       88.2566        0.0518      156.4682      156.5200      68.263442       0.00000
  28     23.16       88.2516        0.0638      156.4512      156.5150      68.263442      -0.00000
  27     28.12       88.2458        0.0776      156.4317      156.5093      68.263442       0.00000
  26     33.73       88.2394        0.0930      156.4099      156.5028      68.263442       0.00000
  25     40.54       88.2316        0.1116      156.3834      156.4950      68.263442       0.00000
  24     48.69       88.2221        0.1341      156.3515      156.4856      68.263442      -0.00000
  23     57.69       88.2118        0.1588      156.3164      156.4752      68.263442       0.00000
  22     68.43       88.1994        0.1883      156.2746      156.4629      68.263442      -0.00000
  21     81.20       88.1846        0.2235      156.2246      156.4481      68.263442      -0.00000
  20     96.49       88.1670        0.2655      156.1649      156.4305      68.263442       0.00000
  19     114.6       88.1462        0.3155      156.0879      156.4035      68.257222       0.00290
  18     136.5       88.1216        0.3749      155.9962      156.3711      68.249506       0.00297
  17     162.9       88.0921        0.4458      155.8831      156.3288      68.236698       0.00409
  16     196.4       88.0540        0.5379      155.7199      156.2578      68.203862       0.00827
  15     218.7       88.0292        0.5985      155.5733      156.1718      68.142591       0.02326
  14     243.0       88.0031        0.6643      155.3367      156.0010      67.997940       0.05017
  13     269.0       87.9767        0.7355      154.9514      155.6870      67.710259       0.09332
  12     297.5       87.9520        0.8122      154.3896      155.2018      67.249800       0.13657
  11     328.5       87.9302        0.8948      153.7151      154.6099      66.679752       0.15499
  10     361.9       87.9138        0.9835      152.9087      153.8922      65.978432       0.17744
   9     398.1       87.9072        1.0783      151.8986      152.9769      65.069689       0.21172
   8     437.6       87.9179        1.1791      150.6031      151.7822      63.864315       0.25772
   7     480.5       87.9551        1.2856      149.0014      150.2870      62.331937       0.30095
   6     533.0       88.0496        1.4144      146.7375      148.1519      60.102306       0.35868
   5     589.8       88.2428        1.5491      143.8730      145.4221      57.179230       0.43388
   4     651.6       88.6486        1.6870      140.0955      141.7825      53.133965       0.55320
   3     718.7       89.4438        1.8267      135.5278      137.3545      47.910695       0.65642
   2     792.3       71.2674      107.7577        5.3949      113.1526      41.885209       0.69106
   1     891.5       65.0711       99.0125        0.6071       99.6196      34.548529       0.62432
   0    1013.0       68.0492       92.6566        0.5615       93.2181      25.168890       0.65128



 Wavenumbers: 12850. - 16000. cm-1, ATM      1
 LEVEL PRESSURE   UPWARD FLUX   DIFDOWN FLUX  DIRDOWN FLUX  DOWNWARD FLUX   NET FLUX    HEATING RATE
          mb          W/m2          W/m2          W/m2        W/m2          W/m2       degree/day
  51    .06700       73.8427        0.0000       98.0872       98.0872      24.244553       0.00000
  50    .07753       73.8427        0.0001       98.0864       98.0864      24.243763       0.63378
  49    .09103       73.8427        0.0002       98.0853       98.0854      24.242770       0.62061
  48    0.1069       73.8427        0.0003       98.0841       98.0843      24.241629       0.60717
  47    0.1255       73.8427        0.0004       98.0826       98.0830      24.240319       0.59401
  46    0.1487       73.8427        0.0005       98.0809       98.0814      24.238666       0.60260
  45    0.1794       73.8427        0.0007       98.0784       98.0792      24.236417       0.61722
  44    0.2165       73.8428        0.0009       98.0756       98.0766      24.233774       0.60144
  43    0.2613       73.8429        0.0012       98.0723       98.0736      24.230665       0.58586
  42    0.3336       73.8431        0.0017       98.0670       98.0687      24.225595       0.59117
  41    0.4307       73.8434        0.0023       98.0602       98.0625      24.219041       0.56981
  40    0.5894       73.8441        0.0033       98.0496       98.0529      24.208723       0.54872
  39     1.339       73.8502        0.0080       98.0043       98.0123      24.162110       0.52478
  38     1.782       73.8558        0.0107       97.9793       97.9900      24.134219       0.53100
  37     2.292       73.8642        0.0139       97.9498       97.9637      24.099545       0.57429
  36     2.964       73.8780        0.0181       97.9088       97.9269      24.048901       0.63574
  35     3.853       73.9004        0.0236       97.8503       97.8740      23.973555       0.71504
  34     5.035       73.9342        0.0310       97.7680       97.7990      23.864783       0.77702
  33     6.613       73.9813        0.0408       97.6562       97.6970      23.715634       0.79735
  32     8.786       74.0427        0.0540       97.5107       97.5647      23.521935       0.75225
  31     11.80       74.1226        0.0729       97.3179       97.3907      23.268116       0.71061
  30     15.07       74.1991        0.0931       97.1283       97.2214      23.022325       0.63458
  29     18.79       74.2772        0.1159       96.9300       97.0459      22.768772       0.57488
  28     23.16       74.3588        0.1426       96.7166       96.8591      22.500374       0.51899
  27     28.12       74.4409        0.1730       96.4935       96.6665      22.225659       0.46700
  26     33.73       74.5167        0.2071       96.2731       96.4802      21.963527       0.39412
  25     40.54       74.5897        0.2483       96.0408       96.2891      21.699371       0.32772
  24     48.69       74.6597        0.2979       95.7946       96.0925      21.432831       0.27583
  23     57.69       74.7191        0.3525       95.5573       95.9098      21.190679       0.22698
  22     68.43       74.7709        0.4175       95.3106       95.7281      20.957185       0.18356
  21     81.20       74.8067        0.4950       95.0643       95.5593      20.752633       0.13517
  20     96.49       74.8254        0.5875       94.8153       95.4027      20.577340       0.09675
  19     114.6       74.8476        0.6983       94.5411       95.2394      20.391808       0.08663
  18     136.5       74.8633        0.8297       94.2320       95.0618      20.198499       0.07433
  17     162.9       74.8723        0.9862       93.8753       94.8615      19.989225       0.06689
  16     196.4       74.8634        1.1891       93.4347       94.6238      19.760364       0.05761
  15     218.7       74.8502        1.3223       93.1513       94.4736      19.623377       0.05201
  14     243.0       74.8329        1.4671       92.8439       94.3111      19.478172       0.05036
  13     269.0       74.8114        1.6240       92.5111       94.1352      19.323776       0.05009
  12     297.5       74.7863        1.7936       92.1495       93.9431      19.156803       0.04952
  11     328.5       74.7594        1.9767       91.7554       93.7321      18.972718       0.05005
  10     361.9       74.7318        2.1739       91.3262       93.5001      18.768304       0.05172
   9     398.1       74.7049        2.3860       90.8575       93.2436      18.538672       0.05350
   8     437.6       74.6816        2.6137       90.3418       92.9555      18.273859       0.05662
   7     480.5       74.6649        2.8575       89.7728       92.6303      17.965358       0.06059
   6     533.0       74.6604        3.1572       89.0428       92.2000      17.539631       0.06849
   5     589.8       74.6852        3.4792       88.2038       91.6830      16.997759       0.08043
   4     651.6       74.7726        3.8231       87.1979       91.0210      16.248375       0.10248
   3     718.7       74.9473        4.1873       86.0161       90.2035      15.256132       0.12470
   2     792.3       65.4837       75.8608        3.6676       79.5284      14.044705       0.13894
   1     891.5       62.2601       74.0517        0.4410       74.4927      12.232624       0.15420
   0    1013.0       63.3129       72.4061        0.4259       72.8320       9.519144       0.18841



 Wavenumbers: 16000. - 22650. cm-1, ATM      1
 LEVEL PRESSURE   UPWARD FLUX   DIFDOWN FLUX  DIRDOWN FLUX  DOWNWARD FLUX   NET FLUX    HEATING RATE
          mb          W/m2          W/m2          W/m2        W/m2          W/m2       degree/day
  51    .06700      139.5013        0.0000      156.3892      156.3892      16.887976       0.00000
  50    .07753      139.5012        0.0004      156.3887      156.3891      16.887829       0.11771
  49    .09103      139.5012        0.0009      156.3879      156.3888      16.887615       0.13351
  48    0.1069      139.5012        0.0015      156.3871      156.3885      16.887329       0.15224
  47    0.1255      139.5012        0.0021      156.3861      156.3882      16.886946       0.17354
  46    0.1487      139.5013        0.0029      156.3847      156.3877      16.886382       0.20564
  45    0.1794      139.5014        0.0041      156.3828      156.3869      16.885500       0.24213
  44    0.2165      139.5016        0.0054      156.3805      156.3859      16.884304       0.27212
  43    0.2613      139.5019        0.0070      156.3776      156.3846      16.882681       0.30593
  42    0.3336      139.5027        0.0096      156.3726      156.3823      16.879595       0.35977
  41    0.4307      139.5039        0.0131      156.3657      156.3788      16.874944       0.40442
  40    0.5894      139.5064        0.0188      156.3537      156.3725      16.866073       0.47174
  39     1.339      139.5285        0.0457      156.2834      156.3291      16.800535       0.73784
  38     1.782      139.5491        0.0614      156.2324      156.2938      16.744704       1.06293
  37     2.292      139.5799        0.0797      156.1641      156.2438      16.663889       1.33851
  36     2.964      139.6312        0.1037      156.0605      156.1642      16.532968       1.64345
  35     3.853      139.7142        0.1353      155.9041      156.0394      16.325230       1.97148
  34     5.035      139.8394        0.1773      155.6774      155.8547      16.015303       2.21399
  33     6.613      140.0144        0.2334      155.3656      155.5990      15.584602       2.30253
  32     8.786      140.2423        0.3088      154.9577      155.2665      15.024172       2.17651
  31     11.80      140.5389        0.4166      154.4153      154.8318      14.292973       2.04713
  30     15.07      140.8229        0.5321      153.8804      154.4125      13.589603       1.81596
  29     18.79      141.1128        0.6624      153.3191      153.9815      12.868735       1.63443
  28     23.16      141.4156        0.8144      152.7126      153.5269      12.111310       1.46461
  27     28.12      141.7202        0.9879      152.0755      153.0634      11.343178       1.30577
  26     33.73      142.0011        1.1819      151.4409      152.6228      10.621695       1.08477
  25     40.54      142.2711        1.4160      150.7637      152.1797       9.908633       0.88463
  24     48.69      142.5291        1.6980      150.0338      151.7318       9.202713       0.73052
  23     57.69      142.7474        2.0074      149.3151      151.3225       8.575100       0.58829
  22     68.43      142.9371        2.3754      148.5476      150.9230       7.985956       0.46315
  21     81.20      143.0667        2.8137      147.7517      150.5653       7.498612       0.32203
  20     96.49      143.1318        3.3353      146.9127      150.2479       7.116182       0.21107
  19     114.6      143.1631        3.9528      145.9763      149.9291       6.766050       0.16349
  18     136.5      143.1692        4.6820      144.9088      149.5908       6.421622       0.13244
  17     162.9      143.1482        5.5462      143.6785      149.2248       6.076618       0.11028
  16     196.4      143.0600        6.6613      142.1651      148.8263       5.766334       0.07810
  15     218.7      142.9798        7.3899      141.2033      148.5933       5.613479       0.05803
  14     243.0      142.8824        8.1785      140.1753      148.3539       5.471510       0.04924
  13     269.0      142.7661        9.0293      139.0797      148.1089       5.342832       0.04174
  12     297.5      142.6304        9.9441      137.9141      147.8582       5.227815       0.03411
  11     328.5      142.4792       10.9275      136.6676      147.5951       5.115878       0.03044
  10     361.9      142.3122       11.9801      135.3392      147.3193       5.007154       0.02751
   9     398.1      142.1289       13.1062      133.9235      147.0296       4.900751       0.02479
   8     437.6      141.9302       14.3075      132.4163      146.7238       4.793533       0.02292
   7     480.5      141.7158       15.5863      130.8147      146.4010       4.685198       0.02128
   6     533.0      141.4521       17.1481      128.8599      146.0081       4.556019       0.02078
   5     589.8      141.1718       18.8168      126.7679      145.5847       4.412924       0.02124
   4     651.6      140.8814       20.5937      124.5274      145.1212       4.239799       0.02368
   3     718.7      140.5871       22.4808      122.1285      144.6093       4.022149       0.02735
   2     792.3      129.3373      127.7504        5.3331      133.0835       3.746164       0.03165
   1     891.5      125.5023      128.1301        0.6512      128.7813       3.279013       0.03975
   0    1013.0      125.6512      127.5749        0.6275      128.2024       2.551229       0.05053



 Wavenumbers: 22650. - 29000. cm-1, ATM      1
 LEVEL PRESSURE   UPWARD FLUX   DIFDOWN FLUX  DIRDOWN FLUX  DOWNWARD FLUX   NET FLUX    HEATING RATE
          mb          W/m2          W/m2          W/m2        W/m2          W/m2       degree/day
  51    .06700       58.0161        0.0000       59.0156       59.0156       0.999459       0.00000
  50    .07753       58.0161        0.0005       59.0151       59.0155       0.999459      -0.00000
  49    .09103       58.0159        0.0010       59.0144       59.0154       0.999459       0.00000
  48    0.1069       58.0158        0.0017       59.0136       59.0153       0.999459       0.00000
  47    0.1255       58.0157        0.0025       59.0127       59.0151       0.999459      -0.00000
  46    0.1487       58.0155        0.0034       59.0115       59.0149       0.999459       0.00000
  45    0.1794       58.0152        0.0048       59.0099       59.0147       0.999459       0.00000
  44    0.2165       58.0149        0.0063       59.0080       59.0144       0.999459       0.00000
  43    0.2613       58.0145        0.0082       59.0058       59.0140       0.999459      -0.00000
  42    0.3336       58.0139        0.0112       59.0022       59.0134       0.999459       0.00000
  41    0.4307       58.0131        0.0153       58.9973       59.0126       0.999459      -0.00000
  40    0.5894       58.0118        0.0219       58.9894       59.0113       0.999459       0.00000
  39     1.339       58.0056        0.0533       58.9518       59.0051       0.999459      -0.00000
  38     1.782       58.0020        0.0717       58.9297       59.0014       0.999459       0.00000
  37     2.292       57.9977        0.0930       58.9042       58.9972       0.999459      -0.00000
  36     2.964       57.9922        0.1210       58.8706       58.9917       0.999459       0.00000
  35     3.853       57.9849        0.1580       58.8264       58.9843       0.999459      -0.00000
  34     5.035       57.9752        0.2070       58.7676       58.9746       0.999459       0.00000
  33     6.613       57.9622        0.2726       58.6891       58.9616       0.999459       0.00000
  32     8.786       57.9447        0.3608       58.5834       58.9442       0.999459       0.00000
  31     11.80       57.9198        0.4868       58.4324       58.9192       0.999459      -0.00000
  30     15.07       57.8930        0.6218       58.2706       58.8925       0.999459       0.00000
  29     18.79       57.8628        0.7741       58.0882       58.8623       0.999459       0.00000
  28     23.16       57.8277        0.9515       57.8757       58.8272       0.999459      -0.00000
  27     28.12       57.7876        1.1537       57.6333       58.7871       0.999459       0.00000
  26     33.73       57.7429        1.3793       57.3631       58.7424       0.999459       0.00000
  25     40.54       57.6891        1.6507       57.0379       58.6886       0.999459      -0.00000
  24     48.69       57.6245        1.9761       56.6479       58.6240       0.999459       0.00000
  23     57.69       57.5541        2.3314       56.2221       58.5535       0.999459      -0.00000
  22     68.43       57.4707        2.7516       55.7186       58.4701       0.999459       0.00000
  21     81.20       57.3722        3.2477       55.1239       58.3716       0.999459      -0.00000
  20     96.49       57.2559        3.8326       54.4228       58.2554       0.999459       0.00000
  19     114.6       57.1197        4.5181       53.6010       58.1191       0.999459       0.00000
  18     136.5       56.9605        5.3182       52.6418       57.9599       0.999459       0.00000
  17     162.9       56.7742        6.2533       51.5203       57.7737       0.999459      -0.00000
  16     196.4       56.5379        7.4379       50.0994       57.5374       0.999459       0.00000
  15     218.7       56.3859        8.1991       49.1863       57.3854       0.999459       0.00000
  14     243.0       56.2235        9.0117       48.2113       57.2229       0.999459      -0.00000
  13     269.0       56.0507        9.8752       47.1749       57.0501       0.999459       0.00000
  12     297.5       55.8676       10.7888       46.0783       56.8670       0.999459      -0.00000
  11     328.5       55.6739       11.7538       44.9195       56.6734       0.999459       0.00000
  10     361.9       55.4701       12.7677       43.7018       56.4696       0.999459       0.00000
   9     398.1       55.2561       13.8305       42.4250       56.2556       0.999459       0.00000
   8     437.6       55.0322       14.9401       41.0916       56.0317       0.999459       0.00000
   7     480.5       54.7989       16.0939       39.7045       55.7984       0.999459      -0.00000
   6     533.0       54.5207       17.4659       38.0543       55.5202       0.999459       0.00000
   5     589.8       54.2315       18.8879       36.3431       55.2310       0.999459       0.00000
   4     651.6       53.9326       20.3525       34.5795       54.9320       0.999459      -0.00000
   3     718.7       53.6248       21.8541       32.7702       54.6243       0.999459       0.00000
   2     792.3       50.5172       50.1061        1.4106       51.5167       0.999459       0.00000
   1     891.5       49.3746       50.2077        0.1664       50.3741       0.999459      -0.00000
   0    1013.0       49.2246       50.0729        0.1512       50.2241       0.999459       0.00000



 Wavenumbers: 29000. - 38000. cm-1, ATM      1
 LEVEL PRESSURE   UPWARD FLUX   DIFDOWN FLUX  DIRDOWN FLUX  DOWNWARD FLUX   NET FLUX    HEATING RATE
          mb          W/m2          W/m2          W/m2        W/m2          W/m2       degree/day
  51    .06700        8.6878        0.0000       20.8114       20.8114      12.123552       0.00000
  50    .07753        8.6876        0.0003       20.8070       20.8074      12.119745       3.05147
  49    .09103        8.6874        0.0007       20.8009       20.8016      12.114208       3.46076
  48    0.1069        8.6871        0.0012       20.7928       20.7939      12.106798       3.94418
  47    0.1255        8.6869        0.0017       20.7820       20.7837      12.096894       4.49022
  46    0.1487        8.6865        0.0024       20.7665       20.7688      12.082331       5.30829
  45    0.1794        8.6860        0.0033       20.7424       20.7457      12.059667       6.22186
  44    0.2165        8.6855        0.0043       20.7103       20.7147      12.029145       6.94320
  43    0.2613        8.6849        0.0056       20.6675       20.6731      11.988151       7.72709
  42    0.3336        8.6840        0.0077       20.5880       20.5956      11.911593       8.92597
  41    0.4307        8.6830        0.0104       20.4722       20.4826      11.799644       9.73370
  40    0.5894        8.6814        0.0147       20.2637       20.2784      11.596967      10.77808
  39     1.339        8.6779        0.0331       19.0984       19.1314      10.453545      12.87286
  38     1.782        8.6783        0.0426       18.4394       18.4820       9.803666      12.37264
  37     2.292        8.6809        0.0529       17.7714       17.8243       9.143387      10.93595
  36     2.964        8.6873        0.0656       17.0421       17.1077       8.420367       9.07609
  35     3.853        8.6999        0.0814       16.2678       16.3493       7.649350       7.31709
  34     5.035        8.7208        0.1016       15.4803       15.5819       6.861095       5.63096
  33     6.613        8.7511        0.1273       14.7157       14.8430       6.091844       4.11242
  32     8.786        8.7912        0.1610       13.9936       14.1545       5.363326       2.82930
  31     11.80        8.8435        0.2079       13.2835       13.4914       4.647930       2.00288
  30     15.07        8.8939        0.2566       12.7394       12.9959       4.102008       1.40946
  29     18.79        8.9460        0.3105       12.2666       12.5771       3.631135       1.06761
  28     23.16        9.0012        0.3718       11.8300       12.2018       3.200610       0.83250
  27     28.12        9.0578        0.4405       11.4279       11.8684       2.810555       0.66307
  26     33.73        9.1100        0.5162       11.0695       11.5857       2.475663       0.50352
  25     40.54        9.1594        0.6066       10.7209       11.3275       2.168118       0.38154
  24     48.69        9.2059        0.7139       10.3742       11.0881       1.882196       0.29588
  23     57.69        9.2439        0.8300       10.0549       10.8849       1.641017       0.22607
  22     68.43        9.2744        0.9662        9.7327       10.6990       1.424540       0.17018
  21     81.20        9.2885        1.1270        9.4134       10.5404       1.251951       0.11404
  20     96.49        9.2842        1.3160        9.0887       10.4048       1.120593       0.07250
  19     114.6        9.2695        1.5344        8.7388       10.2732       1.003688       0.05459
  18     136.5        9.2474        1.7840        8.3549       10.1389       0.891535       0.04313
  17     162.9        9.2179        2.0685        7.9311        9.9996       0.781748       0.03509
  16     196.4        9.1689        2.4207        7.4333        9.8541       0.685138       0.02432
  15     218.7        9.1338        2.6423        7.1295        9.7718       0.638029       0.01789
  14     243.0        9.0954        2.8738        6.8161        9.6899       0.594537       0.01508
  13     269.0        9.0534        3.1145        6.4943        9.6089       0.555492       0.01267
  12     297.5        9.0079        3.3633        6.1657        9.5290       0.521080       0.01021
  11     328.5        8.9604        3.6191        5.8295        9.4485       0.488140       0.00896
  10     361.9        8.9113        3.8795        5.4886        9.3681       0.456820       0.00792
   9     398.1        8.8607        4.1439        5.1440        9.2878       0.427147       0.00691
   8     437.6        8.8092        4.4108        4.7969        9.2077       0.398549       0.00611
   7     480.5        8.7570        4.6780        4.4504        9.1284       0.371411       0.00533
   6     533.0        8.6969        4.9825        4.0563        9.0388       0.341838       0.00476
   5     589.8        8.6375        5.2825        3.6682        8.9507       0.313215       0.00425
   4     651.6        8.5795        5.5743        3.2905        8.8648       0.285224       0.00383
   3     718.7        8.5236        5.8562        2.9252        8.7814       0.257821       0.00344
   2     792.3        8.2148        8.3265        0.1195        8.4460       0.231192       0.00305
   1     891.5        8.1028        8.2890        0.0130        8.3020       0.199229       0.00272
   0    1013.0        8.0886        8.2423        0.0105        8.2528       0.164231       0.00243



 Wavenumbers: 38000. - 50000. cm-1, ATM      1
 LEVEL PRESSURE   UPWARD FLUX   DIFDOWN FLUX  DIRDOWN FLUX  DOWNWARD FLUX   NET FLUX    HEATING RATE
          mb          W/m2          W/m2          W/m2        W/m2          W/m2       degree/day
  51    .06700        0.0061        0.0000        1.2836        1.2836       1.277518       0.00000
  50    .07753        0.0061        0.0001        1.2812        1.2812       1.275183       1.87150
  49    .09103        0.0060        0.0002        1.2777        1.2778       1.271851       2.08247
  48    0.1069        0.0059        0.0002        1.2731        1.2734       1.267473       2.33059
  47    0.1255        0.0058        0.0004        1.2672        1.2675       1.261717       2.60908
  46    0.1487        0.0057        0.0005        1.2586        1.2591       1.253391       3.03499
  45    0.1794        0.0055        0.0007        1.2455        1.2462       1.240623       3.50520
  44    0.2165        0.0054        0.0009        1.2282        1.2291       1.223697       3.85037
  43    0.2613        0.0052        0.0011        1.2054        1.2065       1.201348       4.21261
  42    0.3336        0.0049        0.0015        1.1639        1.1654       1.160524       4.75970
  41    0.4307        0.0045        0.0020        1.1051        1.1070       1.102565       5.03943
  40    0.5894        0.0039        0.0026        1.0039        1.0064       1.002524       5.32007
  39     1.339        0.0022        0.0035        0.5438        0.5473       0.545104       5.14971
  38     1.782        0.0016        0.0032        0.3635        0.3666       0.365006       3.42879
  37     2.292        0.0012        0.0027        0.2356        0.2383       0.237058       2.11916
  36     2.964        0.0009        0.0022        0.1455        0.1477       0.146786       1.13318
  35     3.853        0.0006        0.0017        0.0858        0.0875       0.086906       0.56828
  34     5.035        0.0004        0.0013        0.0488        0.0501       0.049701       0.26578
  33     6.613        0.0003        0.0010        0.0273        0.0282       0.027974       0.11615
  32     8.786        0.0002        0.0007        0.0144        0.0151       0.014928       0.05067
  31     11.80        0.0001        0.0004        0.0065        0.0070       0.006903       0.02247
  30     15.07        0.0000        0.0003        0.0031        0.0034       0.003329       0.00923
  29     18.79        0.0000        0.0002        0.0014        0.0016       0.001583       0.00396
  28     23.16        0.0000        0.0001        0.0006        0.0007       0.000720       0.00167
  27     28.12        0.0000        0.0001        0.0003        0.0003       0.000317       0.00069
  26     33.73        0.0000        0.0000        0.0001        0.0001       0.000140       0.00027
  25     40.54        0.0000        0.0000        0.0000        0.0001       0.000057       0.00010
  24     48.69        0.0000        0.0000        0.0000        0.0000       0.000021       0.00004
  23     57.69        0.0000        0.0000        0.0000        0.0000       0.000008       0.00001
  22     68.43        0.0000        0.0000        0.0000        0.0000       0.000003       0.00000
  21     81.20        0.0000        0.0000        0.0000        0.0000       0.000001       0.00000
  20     96.49        0.0000        0.0000        0.0000        0.0000       0.000000       0.00000
  19     114.6        0.0000        0.0000        0.0000        0.0000       0.000000       0.00000
  18     136.5        0.0000        0.0000        0.0000        0.0000       0.000000       0.00000
  17     162.9        0.0000        0.0000        0.0000        0.0000       0.000000       0.00000
  16     196.4        0.0000        0.0000        0.0000        0.0000       0.000000       0.00000
  15     218.7        0.0000        0.0000        0.0000        0.0000       0.000000       0.00000
  14     243.0        0.0000        0.0000        0.0000        0.0000       0.000000       0.00000
  13     269.0        0.0000        0.0000        0.0000        0.0000       0.000000       0.00000
  12     297.5        0.0000        0.0000        0.0000        0.0000       0.000000       0.00000
  11     328.5        0.0000        0.0000        0.0000        0.0000       0.000000       0.00000
  10     361.9        0.0000        0.0000        0.0000        0.0000       0.000000       0.00000
   9     398.1        0.0000        0.0000        0.0000        0.0000       0.000000       0.00000
   8     437.6        0.0000        0.0000        0.0000        0.0000       0.000000       0.00000
   7     480.5        0.0000        0.0000        0.0000        0.0000       0.000000       0.00000
   6     533.0        0.0000        0.0000        0.0000        0.0000       0.000000       0.00000
   5     589.8        0.0000        0.0000        0.0000        0.0000       0.000000       0.00000
   4     651.6        0.0000        0.0000        0.0000        0.0000       0.000000       0.00000
   3     718.7        0.0000        0.0000        0.0000        0.0000       0.000000       0.00000
   2     792.3        0.0000        0.0000        0.0000        0.0000       0.000000       0.00000
   1     891.5        0.0000        0.0000        0.0000        0.0000       0.000000       0.00000
   0    1013.0        0.0000        0.0000        0.0000        0.0000       0.000000       0.00000



 Wavenumbers:   820. -  2600. cm-1, ATM      1
 LEVEL PRESSURE   UPWARD FLUX   DIFDOWN FLUX  DIRDOWN FLUX  DOWNWARD FLUX   NET FLUX    HEATING RATE
          mb          W/m2          W/m2          W/m2        W/m2          W/m2       degree/day
  51    .06700        0.2336        0.0000        6.0047        6.0047       5.771041       0.00000
  50    .07753        0.2336        0.0000        6.0008        6.0008       5.767188       3.08820
  49    .09103        0.2336        0.0000        5.9999        5.9999       5.766303       0.55357
  48    0.1069        0.2336        0.0000        5.9989        5.9989       5.765314       0.52651
  47    0.1255        0.2336        0.0000        5.9978        5.9978       5.764196       0.50648
  46    0.1487        0.2336        0.0000        5.9964        5.9964       5.762840       0.49456
  45    0.1794        0.2336        0.0000        5.9947        5.9947       5.761120       0.47198
  44    0.2165        0.2336        0.0000        5.9929        5.9929       5.759278       0.41909
  43    0.2613        0.2336        0.0000        5.9909        5.9909       5.757319       0.36931
  42    0.3336        0.2336        0.0000        5.9880        5.9880       5.754441       0.33555
  41    0.4307        0.2336        0.0000        5.9846        5.9846       5.750972       0.30163
  40    0.5894        0.2336        0.0000        5.9791        5.9791       5.745467       0.29275
  39     1.339        0.2336        0.0000        5.9536        5.9536       5.719981       0.28693
  38     1.782        0.2336        0.0000        5.9395        5.9395       5.705843       0.26916
  37     2.292        0.2336        0.0000        5.9237        5.9237       5.690093       0.26087
  36     2.964        0.2336        0.0000        5.9039        5.9039       5.670320       0.24821
  35     3.853        0.2336        0.0000        5.8793        5.8793       5.645665       0.23398
  34     5.035        0.2336        0.0000        5.8487        5.8487       5.615104       0.21832
  33     6.613        0.2336        0.0000        5.8108        5.8108       5.577141       0.20295
  32     8.786        0.2336        0.0000        5.7631        5.7631       5.529520       0.18494
  31     11.80        0.2336        0.0000        5.7039        5.7039       5.470267       0.16589
  30     15.07        0.2336        0.0000        5.6539        5.6539       5.420231       0.12918
  29     18.79        0.2336        0.0000        5.6127        5.6127       5.379098       0.09326
  28     23.16        0.2336        0.0000        5.5794        5.5794       5.345724       0.06453
  27     28.12        0.2337        0.0000        5.5518        5.5518       5.318158       0.04686
  26     33.73        0.2337        0.0000        5.5268        5.5268       5.293105       0.03767
  25     40.54        0.2337        0.0000        5.4993        5.4993       5.265660       0.03405
  24     48.69        0.2337        0.0000        5.4678        5.4678       5.234114       0.03264
  23     57.69        0.2337        0.0000        5.4340        5.4340       5.200320       0.03168
  22     68.43        0.2337        0.0000        5.3947        5.3948       5.161037       0.03088
  21     81.20        0.2337        0.0000        5.3497        5.3497       5.115991       0.02977
  20     96.49        0.2338        0.0000        5.2982        5.2982       5.064462       0.02844
  19     114.6        0.2338        0.0000        5.2389        5.2389       5.005118       0.02771
  18     136.5        0.2338        0.0000        5.1716        5.1717       4.937833       0.02587
  17     162.9        0.2339        0.0000        5.0890        5.0890       4.855159       0.02643
  16     196.4        0.2340        0.0000        4.9668        4.9668       4.732846       0.03079
  15     218.7        0.2341        0.0000        4.8585        4.8585       4.624387       0.04118
  14     243.0        0.2342        0.0000        4.7078        4.7079       4.473613       0.05229
  13     269.0        0.2345        0.0000        4.5343        4.5343       4.299797       0.05639
  12     297.5        0.2349        0.0000        4.3419        4.3420       4.107102       0.05715
  11     328.5        0.2354        0.0000        4.1281        4.1281       3.892772       0.05828
  10     361.9        0.2360        0.0000        3.8786        3.8787       3.642631       0.06329
   9     398.1        0.2369        0.0000        3.6159        3.6159       3.379028       0.06141
   8     437.6        0.2381        0.0000        3.3759        3.3759       3.137821       0.05157
   7     480.5        0.2395        0.0000        3.1957        3.1958       2.956288       0.03565
   6     533.0        0.2417        0.0000        3.0467        3.0467       2.804997       0.02434
   5     589.8        0.2451        0.0000        2.9023        2.9023       2.657258       0.02193
   4     651.6        0.2511        0.0000        2.7183        2.7184       2.467252       0.02598
   3     718.7        0.2625        0.0000        2.5058        2.5059       2.243368       0.02814
   2     792.3        0.1124        0.6593        0.0556        0.7149       0.602504       0.18819
   1     891.5        0.1458        0.2989        0.0040        0.3029       0.157110       0.03790
   0    1013.0        0.1766        0.2387        0.0032        0.2419       0.065311       0.00637

  Modules and versions used in this calculation:

       rrtmg_sw.1col.f90:  $Revision$                    rrtmg_sw_init.f90:  $Revision$        
     rrtmgsw_cldprop.f90:  $Revision$                  rrtmgsw_cldprmc.f90:  NOT USED          
     rrtmg_sw_reftra.f90:  $Revision$                  rrtmg_sw_spcvrt.f90:  NOT USED          
     rrtmg_sw_spcvmc.f90:  NOT USED                    rrtmgsw_setcoef.f90:  NOT USED          
     rrtmg_sw_taumol.f90:  $Revision$                  rrtmg_sw_vrtqdr.f90:  NOT USED          
                rrtatm.f:  NOT USED                             util_xxx.f:  NOT USED          
                 extra.f:  NOT USED                       rrtmg_sw_k_g.f90:  $Revision$        

