

 Wavenumbers:   820. - 50000. cm-1, ATM      1
 LEVEL PRESSURE   UPWARD FLUX   DIFDOWN FLUX  DIRDOWN FLUX  DOWNWARD FLUX   NET FLUX    HEATING RATE
          mb          W/m2          W/m2          W/m2        W/m2          W/m2       degree/day
  51    .06700      316.2750        0.0000      617.8126      617.8126     301.537589       0.00000
  50    .07753      316.2745        0.0013      617.7947      617.7960     301.521466      12.92216
  49    .09103      316.2740        0.0029      617.7778      617.7807     301.506683       9.24036
  48    0.1069      316.2734        0.0047      617.7581      617.7628     301.489455       9.17014
  47    0.1255      316.2727        0.0069      617.7340      617.7408     301.468156       9.65604
  46    0.1487      316.2719        0.0095      617.7009      617.7104     301.438537      10.79646
  45    0.1794      316.2709        0.0132      617.6521      617.6653     301.394410      12.11397
  44    0.2165      316.2698        0.0175      617.5895      617.6070     301.337229      13.00771
  43    0.2613      316.2686        0.0226      617.5089      617.5315     301.262906      14.00959
  42    0.3336      316.2669        0.0310      617.3641      617.3951     301.128180      15.70763
  41    0.4307      316.2650        0.0420      617.1591      617.2011     300.936099      16.70105
  40    0.5894      316.2628        0.0598      616.8005      616.8603     300.597440      18.00943
  39     1.339      316.2678        0.1400      614.9443      615.0842     298.816431      20.05093
  38     1.782      316.2814        0.1850      613.9670      614.1520     297.870621      18.00668
  37     2.292      316.3067        0.2362      613.0059      613.2421     296.935315      15.49111
  36     2.964      316.3544        0.3027      611.9577      612.2603     295.905875      12.92259
  35     3.853      316.4375        0.3898      610.8024      611.1922     294.754684      10.92501
  34     5.035      316.5676        0.5047      609.5327      610.0374     293.469833       9.17844
  33     6.613      316.7519        0.6571      608.1464      608.8036     292.051656       7.58158
  32     8.786      316.9915        0.8616      606.6250      607.4867     290.495164       6.04485
  31     11.80      317.2987        1.1526      604.8486      606.0013     288.702508       5.01887
  30     15.07      317.5874        1.4630      603.2440      604.7069     287.119573       4.08683
  29     18.79      317.8765        1.8120      601.6511      603.4632     285.586699       3.47550
  28     23.16      318.1717        2.2174      599.9927      602.2101     284.038472       2.99377
  27     28.12      318.4594        2.6787      598.2881      600.9667     282.507273       2.60294
  26     33.73      318.7085        3.1926      596.5951      599.7877     281.079198       2.14715
  25     40.54      318.9243        3.8111      594.7727      598.5838     279.659478       1.76132
  24     48.69      319.1021        4.5528      592.7865      597.3393     278.237199       1.47184
  23     57.69      319.2175        5.3632      590.7959      596.1591     276.941527       1.21450
  22     68.43      319.2683        6.3226      588.6191      594.9417     275.673355       0.99695
  21     81.20      319.2082        7.4593      586.2690      593.7282     274.520005       0.76212
  20     96.49      319.0250        8.8041      583.6961      592.5002     273.475207       0.57665
  19     114.6      318.7613       10.3845      580.7708      591.1553     272.393984       0.50486
  18     136.5      318.4128       12.2329      577.4359      589.6688     271.255939       0.43761
  17     162.9      317.9675       14.3991      573.5624      587.9615     269.994003       0.40337
  16     196.4      317.3195       17.1569      568.5907      585.7476     268.428103       0.39416
  15     218.7      316.8711       18.9372      565.0572      583.9944     267.123318       0.49538
  14     243.0      316.3769       20.8441      560.7495      581.5937     265.216709       0.66128
  13     269.0      315.8364       22.8784      555.3947      578.2731     262.436638       0.90184
  12     297.5      315.2517       25.0399      548.9964      574.0363     258.784608       1.08315
  11     328.5      314.6282       27.3339      542.0895      569.4235     254.795271       1.08469
  10     361.9      313.9699       29.7560      534.6242      564.3802     250.410369       1.10942
   9     398.1      313.2807       32.3094      526.4204      558.7298     245.449069       1.15587
   8     437.6      312.5720       34.9917      517.3907      552.3824     239.810364       1.20559
   7     480.5      311.8549       37.7999      507.7216      545.5215     233.666638       1.20660
   6     533.0      311.0505       41.1660      495.9006      537.0666     226.016082       1.23073
   5     589.8      310.3242       44.6855      483.0788      527.7643     217.440128       1.27295
   4     651.6      309.8288       48.3439      468.6907      517.0345     207.205749       1.39958
   3     718.7      309.7684       52.1312      453.2257      505.3569     195.588540       1.45996
   2     792.3      310.6753       56.0243      436.4928      492.5172     181.841895       1.57659
   1     891.5      202.0752      230.4944      137.5940      368.0884     166.013180       1.34695
   0    1013.0      203.2147      226.0680      129.1102      355.1782     151.963463       0.97554



 Wavenumbers:  2600. -  3250. cm-1, ATM      1
 LEVEL PRESSURE   UPWARD FLUX   DIFDOWN FLUX  DIRDOWN FLUX  DOWNWARD FLUX   NET FLUX    HEATING RATE
          mb          W/m2          W/m2          W/m2        W/m2          W/m2       degree/day
  51    .06700        0.9866        0.0000        5.4450        5.4450       4.458412       0.00000
  50    .07753        0.9866        0.0000        5.4450        5.4450       4.458404       0.00640
  49    .09103        0.9866        0.0000        5.4450        5.4450       4.458394       0.00627
  48    0.1069        0.9866        0.0000        5.4450        5.4450       4.458383       0.00613
  47    0.1255        0.9866        0.0000        5.4450        5.4450       4.458370       0.00599
  46    0.1487        0.9866        0.0000        5.4450        5.4450       4.458353       0.00608
  45    0.1794        0.9866        0.0000        5.4450        5.4450       4.458330       0.00625
  44    0.2165        0.9866        0.0000        5.4449        5.4449       4.458303       0.00612
  43    0.2613        0.9866        0.0000        5.4449        5.4449       4.458271       0.00600
  42    0.3336        0.9866        0.0000        5.4448        5.4448       4.458219       0.00617
  41    0.4307        0.9866        0.0000        5.4448        5.4448       4.458147       0.00620
  40    0.5894        0.9866        0.0000        5.4446        5.4446       4.458028       0.00637
  39     1.339        0.9866        0.0000        5.4439        5.4439       4.457320       0.00797
  38     1.782        0.9866        0.0000        5.4434        5.4434       4.456777       0.01034
  37     2.292        0.9866        0.0000        5.4427        5.4427       4.456061       0.01186
  36     2.964        0.9866        0.0000        5.4416        5.4416       4.455022       0.01304
  35     3.853        0.9866        0.0000        5.4402        5.4402       4.453545       0.01402
  34     5.035        0.9866        0.0000        5.4381        5.4381       4.451489       0.01468
  33     6.613        0.9866        0.0000        5.4353        5.4353       4.448708       0.01487
  32     8.786        0.9866        0.0000        5.4317        5.4317       4.445076       0.01411
  31     11.80        0.9866        0.0000        5.4269        5.4269       4.440295       0.01339
  30     15.07        0.9866        0.0000        5.4224        5.4224       4.435767       0.01169
  29     18.79        0.9866        0.0000        5.4180        5.4180       4.431354       0.01001
  28     23.16        0.9866        0.0000        5.4135        5.4135       4.426866       0.00868
  27     28.12        0.9866        0.0000        5.4088        5.4088       4.422215       0.00791
  26     33.73        0.9866        0.0000        5.4036        5.4036       4.416970       0.00789
  25     40.54        0.9866        0.0000        5.3966        5.3967       4.410021       0.00862
  24     48.69        0.9866        0.0000        5.3872        5.3872       4.400534       0.00982
  23     57.69        0.9867        0.0000        5.3754        5.3754       4.388734       0.01106
  22     68.43        0.9867        0.0000        5.3599        5.3599       4.373225       0.01219
  21     81.20        0.9867        0.0000        5.3401        5.3401       4.353360       0.01313
  20     96.49        0.9868        0.0000        5.3155        5.3155       4.328749       0.01358
  19     114.6        0.9869        0.0000        5.2853        5.2854       4.298490       0.01413
  18     136.5        0.9870        0.0001        5.2504        5.2505       4.263495       0.01346
  17     162.9        0.9871        0.0001        5.2111        5.2112       4.224024       0.01262
  16     196.4        0.9874        0.0001        5.1640        5.1641       4.176718       0.01191
  15     218.7        0.9877        0.0001        5.1331        5.1332       4.145529       0.01184
  14     243.0        0.9881        0.0001        5.0962        5.0963       4.108192       0.01295
  13     269.0        0.9888        0.0001        5.0511        5.0512       4.062375       0.01486
  12     297.5        0.9899        0.0001        4.9956        4.9957       4.005832       0.01677
  11     328.5        0.9914        0.0001        4.9304        4.9305       3.939120       0.01814
  10     361.9        0.9934        0.0001        4.8511        4.8512       3.857811       0.02057
   9     398.1        0.9962        0.0001        4.7507        4.7508       3.754583       0.02405
   8     437.6        1.0002        0.0002        4.6220        4.6222       3.622030       0.02834
   7     480.5        1.0056        0.0002        4.4625        4.4626       3.457063       0.03240
   6     533.0        1.0144        0.0002        4.2460        4.2462       3.231816       0.03624
   5     589.8        1.0278        0.0002        3.9954        3.9956       2.967752       0.03920
   4     651.6        1.0500        0.0002        3.7089        3.7090       2.659081       0.04221
   3     718.7        1.0864        0.0002        3.4018        3.4020       2.315602       0.04317
   2     792.3        1.1522        0.0002        3.0564        3.0566       1.904399       0.04716
   1     891.5        0.3146        0.8980        0.8586        1.7566       1.442048       0.03934
   0    1013.0        0.3631        0.7430        0.6930        1.4360       1.072964       0.02563



 Wavenumbers:  3250. -  4000. cm-1, ATM      1
 LEVEL PRESSURE   UPWARD FLUX   DIFDOWN FLUX  DIRDOWN FLUX  DOWNWARD FLUX   NET FLUX    HEATING RATE
          mb          W/m2          W/m2          W/m2        W/m2          W/m2       degree/day
  51    .06700        0.0206        0.0000        9.1795        9.1795       9.158919       0.00000
  50    .07753        0.0206        0.0000        9.1747        9.1747       9.154077       3.88148
  49    .09103        0.0206        0.0000        9.1713        9.1713       9.150689       2.11747
  48    0.1069        0.0206        0.0000        9.1688        9.1688       9.148164       1.34402
  47    0.1255        0.0206        0.0000        9.1665        9.1665       9.145905       1.02422
  46    0.1487        0.0206        0.0000        9.1641        9.1641       9.143463       0.88991
  45    0.1794        0.0206        0.0000        9.1612        9.1612       9.140585       0.79008
  44    0.2165        0.0206        0.0000        9.1583        9.1583       9.137665       0.66430
  43    0.2613        0.0206        0.0000        9.1553        9.1553       9.134692       0.56041
  42    0.3336        0.0206        0.0000        9.1511        9.1511       9.130513       0.48723
  41    0.4307        0.0206        0.0000        9.1464        9.1464       9.125745       0.41459
  40    0.5894        0.0206        0.0000        9.1393        9.1394       9.118739       0.37255
  39     1.339        0.0206        0.0000        9.1127        9.1127       9.092125       0.29962
  38     1.782        0.0206        0.0000        9.1011        9.1011       9.080537       0.22062
  37     2.292        0.0206        0.0000        9.0901        9.0901       9.069471       0.18329
  36     2.964        0.0206        0.0000        9.0776        9.0776       9.057041       0.15603
  35     3.853        0.0206        0.0000        9.0629        9.0629       9.042251       0.14036
  34     5.035        0.0206        0.0000        9.0441        9.0441       9.023512       0.13386
  33     6.613        0.0206        0.0000        9.0191        9.0191       8.998510       0.13366
  32     8.786        0.0206        0.0000        8.9843        8.9843       8.963727       0.13509
  31     11.80        0.0206        0.0000        8.9327        8.9327       8.912110       0.14451
  30     15.07        0.0206        0.0000        8.8758        8.8759       8.855265       0.14676
  29     18.79        0.0206        0.0000        8.8110        8.8110       8.790438       0.14698
  28     23.16        0.0206        0.0000        8.7365        8.7366       8.715993       0.14395
  27     28.12        0.0206        0.0000        8.6554        8.6555       8.634880       0.13789
  26     33.73        0.0206        0.0000        8.5719        8.5719       8.551381       0.12554
  25     40.54        0.0206        0.0001        8.4812        8.4812       8.460657       0.11255
  24     48.69        0.0205        0.0001        8.3838        8.3839       8.363355       0.10069
  23     57.69        0.0205        0.0001        8.2861        8.2862       8.265620       0.09161
  22     68.43        0.0205        0.0001        8.1751        8.1751       8.154624       0.08726
  21     81.20        0.0205        0.0001        8.0457        8.0458       8.025265       0.08548
  20     96.49        0.0205        0.0001        7.8949        7.8950       7.874562       0.08318
  19     114.6        0.0205        0.0001        7.7162        7.7163       7.695852       0.08344
  18     136.5        0.0204        0.0002        7.5193        7.5195       7.499008       0.07569
  17     162.9        0.0204        0.0002        7.2913        7.2915       7.271117       0.07284
  16     196.4        0.0204        0.0002        6.9660        6.9662       6.945842       0.08188
  15     218.7        0.0204        0.0002        6.6648        6.6650       6.644650       0.11435
  14     243.0        0.0203        0.0002        6.2619        6.2622       6.241847       0.13971
  13     269.0        0.0203        0.0003        5.7576        5.7579       5.737528       0.16360
  12     297.5        0.0204        0.0003        5.1719        5.1722       5.151793       0.17372
  11     328.5        0.0204        0.0002        4.5757        4.5760       4.555556       0.16211
  10     361.9        0.0205        0.0002        3.9995        3.9998       3.979254       0.14581
   9     398.1        0.0207        0.0002        3.4655        3.4657       3.444989       0.12447
   8     437.6        0.0211        0.0002        2.9740        2.9743       2.953195       0.10515
   7     480.5        0.0216        0.0002        2.5307        2.5309       2.509262       0.08719
   6     533.0        0.0227        0.0002        2.0614        2.0616       2.038884       0.07567
   5     589.8        0.0246        0.0002        1.6150        1.6151       1.590478       0.06656
   4     651.6        0.0288        0.0001        1.1565        1.1566       1.127802       0.06327
   3     718.7        0.0379        0.0001        0.7390        0.7391       0.701204       0.05361
   2     792.3        0.0621        0.0001        0.3985        0.3985       0.336374       0.04184
   1     891.5        0.0004        0.0361        0.0379        0.0740       0.073552       0.02236
   0    1013.0        0.0039        0.0037        0.0031        0.0069       0.002963       0.00490



 Wavenumbers:  4000. -  4650. cm-1, ATM      1
 LEVEL PRESSURE   UPWARD FLUX   DIFDOWN FLUX  DIRDOWN FLUX  DOWNWARD FLUX   NET FLUX    HEATING RATE
          mb          W/m2          W/m2          W/m2        W/m2          W/m2       degree/day
  51    .06700        3.2223        0.0000       10.7795       10.7795       7.557291       0.00000
  50    .07753        3.2223        0.0000       10.7795       10.7795       7.557290       0.00080
  49    .09103        3.2223        0.0000       10.7795       10.7795       7.557289       0.00078
  48    0.1069        3.2223        0.0000       10.7795       10.7795       7.557288       0.00076
  47    0.1255        3.2223        0.0000       10.7795       10.7795       7.557286       0.00075
  46    0.1487        3.2223        0.0000       10.7795       10.7795       7.557284       0.00076
  45    0.1794        3.2223        0.0000       10.7795       10.7795       7.557281       0.00078
  44    0.2165        3.2223        0.0000       10.7795       10.7795       7.557278       0.00076
  43    0.2613        3.2223        0.0000       10.7795       10.7795       7.557274       0.00075
  42    0.3336        3.2223        0.0000       10.7795       10.7795       7.557267       0.00077
  41    0.4307        3.2223        0.0000       10.7795       10.7795       7.557258       0.00077
  40    0.5894        3.2222        0.0000       10.7795       10.7795       7.557243       0.00080
  39     1.339        3.2222        0.0000       10.7794       10.7794       7.557154       0.00101
  38     1.782        3.2222        0.0000       10.7793       10.7793       7.557084       0.00133
  37     2.292        3.2222        0.0000       10.7792       10.7792       7.556990       0.00156
  36     2.964        3.2222        0.0000       10.7791       10.7791       7.556850       0.00176
  35     3.853        3.2222        0.0000       10.7789       10.7789       7.556641       0.00198
  34     5.035        3.2222        0.0000       10.7786       10.7786       7.556334       0.00219
  33     6.613        3.2222        0.0000       10.7781       10.7781       7.555882       0.00242
  32     8.786        3.2222        0.0000       10.7774       10.7774       7.555215       0.00259
  31     11.80        3.2222        0.0001       10.7763       10.7764       7.554167       0.00293
  30     15.07        3.2222        0.0001       10.7751       10.7752       7.552938       0.00317
  29     18.79        3.2222        0.0001       10.7736       10.7737       7.551451       0.00337
  28     23.16        3.2222        0.0001       10.7717       10.7718       7.549605       0.00357
  27     28.12        3.2222        0.0001       10.7695       10.7696       7.547370       0.00380
  26     33.73        3.2222        0.0001       10.7667       10.7668       7.544614       0.00414
  25     40.54        3.2222        0.0002       10.7629       10.7631       7.540876       0.00464
  24     48.69        3.2222        0.0002       10.7579       10.7581       7.535895       0.00515
  23     57.69        3.2223        0.0002       10.7520       10.7522       7.529991       0.00553
  22     68.43        3.2223        0.0003       10.7446       10.7449       7.522592       0.00582
  21     81.20        3.2224        0.0003       10.7355       10.7359       7.513481       0.00602
  20     96.49        3.2225        0.0004       10.7245       10.7249       7.502397       0.00612
  19     114.6        3.2227        0.0005       10.7107       10.7112       7.488538       0.00647
  18     136.5        3.2229        0.0006       10.6942       10.6948       7.471845       0.00642
  17     162.9        3.2233        0.0007       10.6740       10.6747       7.451385       0.00654
  16     196.4        3.2240        0.0008       10.6464       10.6472       7.423178       0.00710
  15     218.7        3.2246        0.0009       10.6255       10.6264       7.401733       0.00814
  14     243.0        3.2256        0.0010       10.5980       10.5991       7.373484       0.00980
  13     269.0        3.2270        0.0011       10.5611       10.5622       7.335212       0.01242
  12     297.5        3.2291        0.0012       10.5119       10.5132       7.284082       0.01516
  11     328.5        3.2320        0.0014       10.4499       10.4512       7.219240       0.01763
  10     361.9        3.2358        0.0015       10.3702       10.3717       7.135860       0.02110
   9     398.1        3.2406        0.0016       10.2678       10.2694       7.028802       0.02494
   8     437.6        3.2467        0.0018       10.1390       10.1408       6.894036       0.02881
   7     480.5        3.2545        0.0019        9.9877        9.9896       6.735064       0.03122
   6     533.0        3.2666        0.0021        9.7937        9.7958       6.529193       0.03312
   5     589.8        3.2839        0.0023        9.5752        9.5774       6.293496       0.03499
   4     651.6        3.3118        0.0024        9.2958        9.2982       5.986454       0.04199
   3     718.7        3.3583        0.0026        8.9267        8.9293       5.571039       0.05221
   2     792.3        3.4446        0.0028        8.4542        8.4570       5.012365       0.06407
   1     891.5        0.9448        2.7251        2.5907        5.3158       4.371050       0.05457
   0    1013.0        1.0063        2.5026        2.3520        4.8546       3.848285       0.03630



 Wavenumbers:  4650. -  5150. cm-1, ATM      1
 LEVEL PRESSURE   UPWARD FLUX   DIFDOWN FLUX  DIRDOWN FLUX  DOWNWARD FLUX   NET FLUX    HEATING RATE
          mb          W/m2          W/m2          W/m2        W/m2          W/m2       degree/day
  51    .06700        2.3222        0.0000       10.2033       10.2033       7.881184       0.00000
  50    .07753        2.3222        0.0000       10.2031       10.2031       7.880948       0.18901
  49    .09103        2.3222        0.0000       10.2028       10.2028       7.880653       0.18428
  48    0.1069        2.3222        0.0000       10.2025       10.2025       7.880316       0.17931
  47    0.1255        2.3222        0.0000       10.2021       10.2021       7.879932       0.17426
  46    0.1487        2.3222        0.0000       10.2016       10.2016       7.879451       0.17536
  45    0.1794        2.3222        0.0000       10.2010       10.2010       7.878801       0.17850
  44    0.2165        2.3222        0.0000       10.2002       10.2002       7.878041       0.17277
  43    0.2613        2.3222        0.0000       10.1993       10.1993       7.877156       0.16690
  42    0.3336        2.3222        0.0000       10.1979       10.1979       7.875723       0.16702
  41    0.4307        2.3222        0.0000       10.1960       10.1960       7.873883       0.16002
  40    0.5894        2.3222        0.0000       10.1932       10.1932       7.871009       0.15283
  39     1.339        2.3222        0.0000       10.1816       10.1816       7.859417       0.13050
  38     1.782        2.3222        0.0000       10.1760       10.1760       7.853888       0.10526
  37     2.292        2.3222        0.0000       10.1706       10.1706       7.848432       0.09037
  36     2.964        2.3221        0.0000       10.1646       10.1647       7.842509       0.07435
  35     3.853        2.3221        0.0000       10.1584       10.1584       7.836294       0.05898
  34     5.035        2.3221        0.0000       10.1521       10.1521       7.829958       0.04526
  33     6.613        2.3221        0.0000       10.1456       10.1456       7.823500       0.03452
  32     8.786        2.3221        0.0001       10.1386       10.1386       7.816488       0.02723
  31     11.80        2.3221        0.0001       10.1295       10.1296       7.807444       0.02532
  30     15.07        2.3221        0.0001       10.1196       10.1197       7.797561       0.02552
  29     18.79        2.3222        0.0001       10.1076       10.1077       7.785546       0.02724
  28     23.16        2.3222        0.0001       10.0923       10.0924       7.770231       0.02961
  27     28.12        2.3222        0.0002       10.0731       10.0733       7.751122       0.03248
  26     33.73        2.3222        0.0002       10.0500       10.0502       7.728007       0.03475
  25     40.54        2.3223        0.0003       10.0201       10.0204       7.698074       0.03714
  24     48.69        2.3224        0.0003        9.9820        9.9823       7.659858       0.03955
  23     57.69        2.3225        0.0004        9.9384        9.9388       7.616261       0.04087
  22     68.43        2.3227        0.0004        9.8858        9.8862       7.563447       0.04152
  21     81.20        2.3230        0.0005        9.8234        9.8239       7.500941       0.04130
  20     96.49        2.3234        0.0006        9.7518        9.7524       7.428962       0.03973
  19     114.6        2.3239        0.0007        9.6719        9.6726       7.348683       0.03748
  18     136.5        2.3247        0.0008        9.5858        9.5866       7.261927       0.03336
  17     162.9        2.3258        0.0010        9.4940        9.4950       7.169250       0.02962
  16     196.4        2.3274        0.0012        9.3883        9.3894       7.062011       0.02699
  15     218.7        2.3287        0.0013        9.3229        9.3242       6.995453       0.02527
  14     243.0        2.3305        0.0014        9.2520        9.2534       6.922918       0.02516
  13     269.0        2.3328        0.0016        9.1717        9.1732       6.840407       0.02677
  12     297.5        2.3361        0.0017        9.0763        9.0780       6.741886       0.02922
  11     328.5        2.3404        0.0019        8.9650        8.9668       6.626430       0.03139
  10     361.9        2.3460        0.0020        8.8349        8.8369       6.490973       0.03427
   9     398.1        2.3532        0.0022        8.6820        8.6842       6.330990       0.03727
   8     437.6        2.3627        0.0024        8.5028        8.5052       6.142496       0.04030
   7     480.5        2.3750        0.0026        8.2948        8.2974       5.922369       0.04323
   6     533.0        2.3938        0.0028        8.0209        8.0237       5.629825       0.04706
   5     589.8        2.4200        0.0030        7.7063        7.7093       5.289261       0.05055
   4     651.6        2.4588        0.0031        7.3412        7.3444       4.885531       0.05521
   3     718.7        2.5175        0.0033        6.9387        6.9420       4.424449       0.05795
   2     792.3        2.6109        0.0035        6.5066        6.5100       3.899131       0.06025
   1     891.5        0.7048        2.0683        1.9732        4.0416       3.336762       0.04785
   0    1013.0        0.7633        1.8726        1.7626        3.6353       2.871971       0.03227



 Wavenumbers:  5150. -  6150. cm-1, ATM      1
 LEVEL PRESSURE   UPWARD FLUX   DIFDOWN FLUX  DIRDOWN FLUX  DOWNWARD FLUX   NET FLUX    HEATING RATE
          mb          W/m2          W/m2          W/m2        W/m2          W/m2       degree/day
  51    .06700        5.6076        0.0000       25.5798       25.5798      19.972212       0.00000
  50    .07753        5.6076        0.0000       25.5798       25.5798      19.972173       0.03159
  49    .09103        5.6076        0.0000       25.5797       25.5797      19.972121       0.03207
  48    0.1069        5.6076        0.0000       25.5797       25.5797      19.972060       0.03258
  47    0.1255        5.6076        0.0000       25.5796       25.5796      19.971987       0.03308
  46    0.1487        5.6076        0.0000       25.5795       25.5795      19.971892       0.03485
  45    0.1794        5.6076        0.0000       25.5794       25.5794      19.971757       0.03710
  44    0.2165        5.6076        0.0000       25.5792       25.5792      19.971591       0.03766
  43    0.2613        5.6076        0.0000       25.5790       25.5790      19.971388       0.03824
  42    0.3336        5.6076        0.0000       25.5786       25.5786      19.971042       0.04040
  41    0.4307        5.6076        0.0000       25.5782       25.5782      19.970571       0.04094
  40    0.5894        5.6076        0.0000       25.5774       25.5774      19.969782       0.04195
  39     1.339        5.6076        0.0000       25.5735       25.5736      19.965982       0.04278
  38     1.782        5.6076        0.0000       25.5713       25.5714      19.963769       0.04212
  37     2.292        5.6076        0.0001       25.5688       25.5688      19.961266       0.04147
  36     2.964        5.6076        0.0001       25.5656       25.5657      19.958085       0.03993
  35     3.853        5.6076        0.0001       25.5615       25.5616      19.954043       0.03836
  34     5.035        5.6075        0.0001       25.5562       25.5564      19.948838       0.03718
  33     6.613        5.6075        0.0002       25.5494       25.5496      19.942086       0.03610
  32     8.786        5.6075        0.0002       25.5406       25.5409      19.933336       0.03398
  31     11.80        5.6075        0.0003       25.5287       25.5290      19.921504       0.03313
  30     15.07        5.6075        0.0004       25.5167       25.5171      19.909640       0.03063
  29     18.79        5.6075        0.0005       25.5042       25.5047      19.897238       0.02812
  28     23.16        5.6075        0.0007       25.4907       25.4913      19.883880       0.02583
  27     28.12        5.6074        0.0008       25.4764       25.4772      19.869797       0.02394
  26     33.73        5.6075        0.0010       25.4620       25.4630      19.855526       0.02146
  25     40.54        5.6075        0.0011       25.4463       25.4474      19.839925       0.01936
  24     48.69        5.6075        0.0014       25.4294       25.4307      19.823222       0.01729
  23     57.69        5.6076        0.0016       25.4126       25.4142      19.806642       0.01554
  22     68.43        5.6077        0.0019       25.3944       25.3964      19.788644       0.01415
  21     81.20        5.6079        0.0023       25.3744       25.3767      19.768841       0.01309
  20     96.49        5.6081        0.0027       25.3519       25.3547      19.746589       0.01228
  19     114.6        5.6083        0.0032       25.3262       25.3294      19.721072       0.01191
  18     136.5        5.6087        0.0038       25.2962       25.3000      19.691372       0.01142
  17     162.9        5.6091        0.0046       25.2521       25.2567      19.647571       0.01400
  16     196.4        5.6097        0.0055       25.1593       25.1648      19.555081       0.02328
  15     218.7        5.6102        0.0061       25.0159       25.0220      19.411840       0.05438
  14     243.0        5.6108        0.0067       24.7089       24.7156      19.104817       0.10649
  13     269.0        5.6116        0.0073       24.1619       24.1691      18.557501       0.17755
  12     297.5        5.6129        0.0079       23.4544       23.4623      17.849379       0.21002
  11     328.5        5.6146        0.0085       22.7355       22.7439      17.129378       0.19577
  10     361.9        5.6168        0.0091       21.9224       21.9315      16.314644       0.20614
   9     398.1        5.6200        0.0096       20.9939       21.0035      15.383551       0.21692
   8     437.6        5.6244        0.0101       19.9833       19.9935      14.369051       0.21691
   7     480.5        5.6306        0.0106       18.9483       18.9589      13.328298       0.20440
   6     533.0        5.6413        0.0112       17.7796       17.7908      12.149504       0.18963
   5     589.8        5.6587        0.0118       16.6726       16.6843      11.025676       0.16681
   4     651.6        5.6905        0.0123       15.6343       15.6466       9.956082       0.14627
   3     718.7        5.7490        0.0129       14.7738       14.7867       9.037771       0.11541
   2     792.3        5.8649        0.0137       14.0291       14.0428       8.177873       0.09862
   1     891.5        1.6952        4.6153        4.3487        8.9640       7.268770       0.07736
   0    1013.0        1.7694        4.2965        4.0017        8.2981       6.528713       0.05139



 Wavenumbers:  6150. -  7700. cm-1, ATM      1
 LEVEL PRESSURE   UPWARD FLUX   DIFDOWN FLUX  DIRDOWN FLUX  DOWNWARD FLUX   NET FLUX    HEATING RATE
          mb          W/m2          W/m2          W/m2        W/m2          W/m2       degree/day
  51    .06700        8.8452        0.0000       47.3109       47.3109      38.465667       0.00000
  50    .07753        8.8452        0.0000       47.3108       47.3108      38.465610       0.04553
  49    .09103        8.8452        0.0000       47.3107       47.3107      38.465537       0.04583
  48    0.1069        8.8452        0.0000       47.3106       47.3106      38.465450       0.04614
  47    0.1255        8.8452        0.0000       47.3105       47.3105      38.465348       0.04645
  46    0.1487        8.8452        0.0000       47.3104       47.3104      38.465214       0.04852
  45    0.1794        8.8452        0.0000       47.3102       47.3102      38.465028       0.05127
  44    0.2165        8.8452        0.0000       47.3100       47.3100      38.464801       0.05167
  43    0.2613        8.8452        0.0000       47.3097       47.3097      38.464524       0.05210
  42    0.3336        8.8452        0.0000       47.3092       47.3092      38.464055       0.05471
  41    0.4307        8.8452        0.0000       47.3085       47.3086      38.463420       0.05521
  40    0.5894        8.8451        0.0001       47.3074       47.3075      38.462361       0.05633
  39     1.339        8.8451        0.0002       47.3022       47.3023      38.457268       0.05733
  38     1.782        8.8450        0.0002       47.2991       47.2993      38.454298       0.05655
  37     2.292        8.8450        0.0003       47.2956       47.2959      38.450922       0.05591
  36     2.964        8.8449        0.0003       47.2912       47.2915      38.446604       0.05421
  35     3.853        8.8448        0.0004       47.2855       47.2859      38.441070       0.05252
  34     5.035        8.8447        0.0006       47.2780       47.2786      38.433889       0.05129
  33     6.613        8.8446        0.0008       47.2683       47.2691      38.424502       0.05019
  32     8.786        8.8444        0.0010       47.2556       47.2566      38.412202       0.04777
  31     11.80        8.8441        0.0014       47.2380       47.2394      38.395299       0.04732
  30     15.07        8.8438        0.0018       47.2201       47.2218      38.378012       0.04463
  29     18.79        8.8435        0.0022       47.2008       47.2030      38.359532       0.04190
  28     23.16        8.8431        0.0027       47.1795       47.1822      38.339143       0.03943
  27     28.12        8.8427        0.0033       47.1565       47.1598      38.317149       0.03739
  26     33.73        8.8422        0.0040       47.1324       47.1364      38.294229       0.03446
  25     40.54        8.8415        0.0048       47.1054       47.1101      38.268594       0.03180
  24     48.69        8.8408        0.0057       47.0754       47.0812      38.240342       0.02924
  23     57.69        8.8400        0.0068       47.0449       47.0517      38.211722       0.02683
  22     68.43        8.8390        0.0080       47.0110       47.0190      38.179988       0.02495
  21     81.20        8.8379        0.0095       46.9729       46.9824      38.144497       0.02345
  20     96.49        8.8365        0.0113       46.9294       46.9407      38.104162       0.02226
  19     114.6        8.8349        0.0134       46.8790       46.8925      38.057537       0.02177
  18     136.5        8.8330        0.0160       46.8200       46.8359      38.002927       0.02100
  17     162.9        8.8307        0.0190       46.7361       46.7551      37.924329       0.02512
  16     196.4        8.8279        0.0228       46.5703       46.5931      37.765191       0.04006
  15     218.7        8.8261        0.0253       46.3473       46.3726      37.546505       0.08303
  14     243.0        8.8243        0.0279       45.9299       45.9578      37.133422       0.14327
  13     269.0        8.8228        0.0305       45.1708       45.2013      36.378434       0.24491
  12     297.5        8.8219        0.0330       44.0115       44.0445      35.222533       0.34283
  11     328.5        8.8218        0.0355       42.7242       42.7597      33.937901       0.34929
  10     361.9        8.8231        0.0381       41.3539       41.3920      32.568968       0.34635
   9     398.1        8.8263        0.0406       39.7953       39.8358      31.009534       0.36331
   8     437.6        8.8328        0.0428       37.9948       38.0376      29.204754       0.38587
   7     480.5        8.8443        0.0450       36.0647       36.1097      27.265382       0.38089
   6     533.0        8.8670        0.0472       33.7773       33.8245      24.957466       0.37127
   5     589.8        8.9080        0.0491       31.4082       31.4573      22.549348       0.35744
   4     651.6        8.9885        0.0506       28.8834       28.9340      19.945498       0.35608
   3     718.7        9.1426        0.0518       26.4104       26.4622      17.319604       0.33000
   2     792.3        9.4642        0.0527       24.0056       24.0583      14.594066       0.31259
   1     891.5        2.5620        7.4469        7.0581       14.5051      11.943026       0.22559
   0    1013.0        2.7554        6.6423        6.1873       12.8296      10.074177       0.12976



 Wavenumbers:  7700. -  8050. cm-1, ATM      1
 LEVEL PRESSURE   UPWARD FLUX   DIFDOWN FLUX  DIRDOWN FLUX  DOWNWARD FLUX   NET FLUX    HEATING RATE
          mb          W/m2          W/m2          W/m2        W/m2          W/m2       degree/day
  51    .06700        4.2369        0.0000       11.1810       11.1810       6.944053       0.00000
  50    .07753        4.2369        0.0000       11.1809       11.1809       6.944033       0.01658
  49    .09103        4.2369        0.0000       11.1809       11.1809       6.944007       0.01625
  48    0.1069        4.2369        0.0000       11.1809       11.1809       6.943977       0.01591
  47    0.1255        4.2369        0.0000       11.1809       11.1809       6.943942       0.01557
  46    0.1487        4.2369        0.0000       11.1808       11.1808       6.943899       0.01580
  45    0.1794        4.2369        0.0000       11.1808       11.1808       6.943840       0.01625
  44    0.2165        4.2369        0.0000       11.1807       11.1807       6.943770       0.01594
  43    0.2613        4.2370        0.0000       11.1806       11.1806       6.943687       0.01564
  42    0.3336        4.2370        0.0000       11.1805       11.1805       6.943549       0.01601
  41    0.4307        4.2370        0.0000       11.1803       11.1804       6.943367       0.01583
  40    0.5894        4.2370        0.0000       11.1801       11.1801       6.943070       0.01582
  39     1.339        4.2372        0.0001       11.1788       11.1789       6.941663       0.01584
  38     1.782        4.2373        0.0001       11.1781       11.1782       6.940836       0.01573
  37     2.292        4.2374        0.0001       11.1772       11.1773       6.939880       0.01584
  36     2.964        4.2376        0.0001       11.1761       11.1762       6.938624       0.01577
  35     3.853        4.2378        0.0002       11.1746       11.1748       6.936965       0.01574
  34     5.035        4.2381        0.0003       11.1726       11.1729       6.934761       0.01574
  33     6.613        4.2385        0.0003       11.1700       11.1703       6.931818       0.01573
  32     8.786        4.2390        0.0004       11.1664       11.1668       6.927854       0.01540
  31     11.80        4.2397        0.0006       11.1613       11.1619       6.922187       0.01587
  30     15.07        4.2405        0.0008       11.1558       11.1566       6.916109       0.01569
  29     18.79        4.2414        0.0010       11.1497       11.1506       6.909251       0.01555
  28     23.16        4.2424        0.0012       11.1425       11.1437       6.901253       0.01547
  27     28.12        4.2436        0.0014       11.1343       11.1358       6.892124       0.01552
  26     33.73        4.2450        0.0017       11.1252       11.1269       6.881930       0.01533
  25     40.54        4.2466        0.0021       11.1142       11.1163       6.869646       0.01524
  24     48.69        4.2486        0.0025       11.1010       11.1035       6.854887       0.01527
  23     57.69        4.2508        0.0029       11.0866       11.0895       6.838738       0.01514
  22     68.43        4.2534        0.0035       11.0695       11.0730       6.819591       0.01505
  21     81.20        4.2566        0.0041       11.0494       11.0535       6.796904       0.01499
  20     96.49        4.2604        0.0049       11.0255       11.0304       6.770047       0.01482
  19     114.6        4.2649        0.0058       10.9975       11.0033       6.738404       0.01478
  18     136.5        4.2704        0.0068       10.9648       10.9716       6.701233       0.01429
  17     162.9        4.2770        0.0081       10.9263       10.9344       6.657421       0.01400
  16     196.4        4.2857        0.0098       10.8773       10.8870       6.601294       0.01413
  15     218.7        4.2916        0.0109       10.8455       10.8564       6.564806       0.01385
  14     243.0        4.2981        0.0120       10.8114       10.8235       6.525418       0.01366
  13     269.0        4.3052        0.0133       10.7749       10.7882       6.482977       0.01377
  12     297.5        4.3131        0.0147       10.7357       10.7504       6.437271       0.01356
  11     328.5        4.3219        0.0162       10.6937       10.7099       6.388011       0.01339
  10     361.9        4.3316        0.0177       10.6489       10.6666       6.334984       0.01342
   9     398.1        4.3425        0.0195       10.6008       10.6202       6.277727       0.01334
   8     437.6        4.3547        0.0213       10.5491       10.5704       6.215664       0.01327
   7     480.5        4.3684        0.0233       10.4934       10.5167       6.148254       0.01324
   6     533.0        4.3864        0.0257       10.4243       10.4499       6.063548       0.01363
   5     589.8        4.4074        0.0282       10.3479       10.3761       5.968723       0.01408
   4     651.6        4.4328        0.0310       10.2613       10.2924       5.859593       0.01492
   3     718.7        4.4640        0.0340       10.1618       10.1957       5.731711       0.01607
   2     792.3        4.5039        0.0371       10.0439       10.0809       5.577010       0.01774
   1     891.5        1.4286        3.5427        3.2779        6.8206       5.391964       0.01575
   0    1013.0        1.4579        3.4645        3.1940        6.6586       5.200704       0.01328



 Wavenumbers:  8050. - 12850. cm-1, ATM      1
 LEVEL PRESSURE   UPWARD FLUX   DIFDOWN FLUX  DIRDOWN FLUX  DOWNWARD FLUX   NET FLUX    HEATING RATE
          mb          W/m2          W/m2          W/m2        W/m2          W/m2       degree/day
  51    .06700       57.6556        0.0000      156.5418      156.5418      98.886109       0.00000
  50    .07753       57.6556        0.0000      156.5417      156.5417      98.886109       0.00000
  49    .09103       57.6556        0.0001      156.5417      156.5417      98.886109      -0.00000
  48    0.1069       57.6556        0.0001      156.5416      156.5417      98.886109       0.00000
  47    0.1255       57.6556        0.0001      156.5415      156.5417      98.886109      -0.00000
  46    0.1487       57.6555        0.0002      156.5414      156.5416      98.886109       0.00000
  45    0.1794       57.6555        0.0003      156.5413      156.5416      98.886109       0.00000
  44    0.2165       57.6554        0.0004      156.5412      156.5415      98.886109      -0.00000
  43    0.2613       57.6554        0.0005      156.5410      156.5415      98.886109       0.00000
  42    0.3336       57.6553        0.0007      156.5407      156.5414      98.886109       0.00000
  41    0.4307       57.6551        0.0009      156.5403      156.5412      98.886109       0.00000
  40    0.5894       57.6549        0.0013      156.5397      156.5410      98.886109       0.00000
  39     1.339       57.6538        0.0032      156.5367      156.5399      98.886109       0.00000
  38     1.782       57.6532        0.0043      156.5350      156.5393      98.886109      -0.00000
  37     2.292       57.6524        0.0056      156.5330      156.5385      98.886109       0.00000
  36     2.964       57.6515        0.0072      156.5303      156.5376      98.886109      -0.00000
  35     3.853       57.6502        0.0094      156.5268      156.5363      98.886109       0.00000
  34     5.035       57.6485        0.0124      156.5222      156.5346      98.886109       0.00000
  33     6.613       57.6462        0.0163      156.5160      156.5323      98.886109      -0.00000
  32     8.786       57.6431        0.0216      156.5076      156.5292      98.886109       0.00000
  31     11.80       57.6387        0.0292      156.4957      156.5249      98.886109       0.00000
  30     15.07       57.6340        0.0373      156.4828      156.5201      98.886109      -0.00000
  29     18.79       57.6287        0.0466      156.4682      156.5148      98.886109       0.00000
  28     23.16       57.6224        0.0573      156.4512      156.5085      98.886109      -0.00000
  27     28.12       57.6153        0.0697      156.4317      156.5014      98.886109       0.00000
  26     33.73       57.6073        0.0835      156.4099      156.4934      98.886109       0.00000
  25     40.54       57.5976        0.1003      156.3834      156.4837      98.886109       0.00000
  24     48.69       57.5859        0.1205      156.3515      156.4720      98.886109      -0.00000
  23     57.69       57.5730        0.1427      156.3164      156.4591      98.886109       0.00000
  22     68.43       57.5576        0.1692      156.2746      156.4437      98.886109      -0.00000
  21     81.20       57.5393        0.2008      156.2246      156.4254      98.886109       0.00000
  20     96.49       57.5174        0.2386      156.1649      156.4035      98.886109       0.00000
  19     114.6       57.4915        0.2835      156.0879      156.3714      98.879950       0.00288
  18     136.5       57.4607        0.3368      155.9962      156.3330      98.872305       0.00294
  17     162.9       57.4239        0.4004      155.8831      156.2835      98.859595       0.00406
  16     196.4       57.3762        0.4832      155.7199      156.2031      98.826936       0.00822
  15     218.7       57.3450        0.5376      155.5733      156.1109      98.765893       0.02318
  14     243.0       57.3116        0.5967      155.3367      155.9334      98.621768       0.04999
  13     269.0       57.2767        0.6605      154.9514      155.6120      98.335283       0.09293
  12     297.5       57.2415        0.7292      154.3896      155.1189      97.877357       0.13582
  11     328.5       57.2067        0.8032      153.7151      154.5183      97.311629       0.15382
  10     361.9       57.1740        0.8826      152.9087      153.7913      96.617311       0.17567
   9     398.1       57.1462        0.9673      151.8986      152.8659      95.719747       0.20911
   8     437.6       57.1281        1.0572      150.6031      151.6604      94.532279       0.25389
   7     480.5       57.1258        1.1520      149.0014      150.1534      93.027670       0.29550
   6     533.0       57.1551        1.2663      146.7375      148.0039      90.848717       0.35052
   5     589.8       57.2467        1.3854      143.8730      145.2584      88.011698       0.42111
   4     651.6       57.4732        1.5066      140.0955      141.6021      84.128909       0.53098
   3     718.7       57.9400        1.6284      135.5278      137.1562      79.216106       0.61740
   2     792.3       58.9079        1.7475      130.0690      131.8165      72.908610       0.72340
   1     891.5       20.9964       45.7021       40.5947       86.2968      65.300357       0.64743
   0    1013.0       21.9106       42.9043       37.5445       80.4488      58.538195       0.46953



 Wavenumbers: 12850. - 16000. cm-1, ATM      1
 LEVEL PRESSURE   UPWARD FLUX   DIFDOWN FLUX  DIRDOWN FLUX  DOWNWARD FLUX   NET FLUX    HEATING RATE
          mb          W/m2          W/m2          W/m2        W/m2          W/m2       degree/day
  51    .06700       56.0006        0.0000       98.0872       98.0872      42.086668       0.00000
  50    .07753       56.0006        0.0001       98.0864       98.0864      42.085881       0.63058
  49    .09103       56.0005        0.0001       98.0853       98.0854      42.084894       0.61697
  48    0.1069       56.0005        0.0002       98.0841       98.0843      42.083761       0.60302
  47    0.1255       56.0005        0.0003       98.0826       98.0830      42.082461       0.58929
  46    0.1487       56.0005        0.0005       98.0809       98.0813      42.080824       0.59701
  45    0.1794       56.0005        0.0007       98.0784       98.0791      42.078599       0.61063
  44    0.2165       56.0005        0.0009       98.0756       98.0765      42.075988       0.59404
  43    0.2613       56.0005        0.0011       98.0723       98.0735      42.072924       0.57754
  42    0.3336       56.0006        0.0015       98.0670       98.0686      42.067937       0.58138
  41    0.4307       56.0008        0.0021       98.0602       98.0623      42.061511       0.55880
  40    0.5894       56.0012        0.0030       98.0496       98.0526      42.051434       0.53587
  39     1.339       56.0051        0.0073       98.0043       98.0117      42.006607       0.50467
  38     1.782       56.0089        0.0099       97.9793       97.9892      41.980239       0.50202
  37     2.292       56.0148        0.0128       97.9498       97.9626      41.947768       0.53779
  36     2.964       56.0248        0.0167       97.9088       97.9255      41.900696       0.59090
  35     3.853       56.0411        0.0218       97.8503       97.8721      41.831022       0.66122
  34     5.035       56.0658        0.0285       97.7680       97.7965      41.730722       0.71650
  33     6.613       56.1004        0.0375       97.6562       97.6937      41.593369       0.73429
  32     8.786       56.1453        0.0497       97.5107       97.5604      41.415063       0.69248
  31     11.80       56.2035        0.0670       97.3179       97.3849      41.181403       0.65417
  30     15.07       56.2589        0.0856       97.1283       97.2140      40.955089       0.58430
  29     18.79       56.3151        0.1066       96.9300       97.0366      40.721588       0.52942
  28     23.16       56.3733        0.1311       96.7166       96.8477      40.474361       0.47806
  27     28.12       56.4314        0.1591       96.4935       96.6526      40.221226       0.43031
  26     33.73       56.4840        0.1904       96.2731       96.4635      39.979480       0.36347
  25     40.54       56.5334        0.2282       96.0408       96.2690      39.735594       0.30257
  24     48.69       56.5791        0.2738       95.7946       96.0684      39.489249       0.25493
  23     57.69       56.6159        0.3238       95.5573       95.8811      39.265171       0.21004
  22     68.43       56.6453        0.3835       95.3106       95.6941      39.048747       0.17014
  21     81.20       56.6605        0.4546       95.0643       95.5189      38.858426       0.12576
  20     96.49       56.6602        0.5394       94.8153       95.3547      38.694440       0.09051
  19     114.6       56.6593        0.6409       94.5411       95.1819      38.522624       0.08023
  18     136.5       56.6502        0.7612       94.2320       94.9932      38.342969       0.06908
  17     162.9       56.6320        0.9043       93.8753       94.7796      38.147568       0.06246
  16     196.4       56.5929        1.0898       93.4347       94.5245      37.931618       0.05436
  15     218.7       56.5616        1.2116       93.1513       94.3629      37.801293       0.04948
  14     243.0       56.5253        1.3439       92.8439       94.1878      37.662567       0.04811
  13     269.0       56.4838        1.4872       92.5111       93.9983      37.514487       0.04804
  12     297.5       56.4376        1.6419       92.1495       93.7914      37.353831       0.04765
  11     328.5       56.3878        1.8090       91.7554       93.5644      37.176607       0.04819
  10     361.9       56.3352        1.9888       91.3262       93.3150      36.979840       0.04978
   9     398.1       56.2806        2.1821       90.8575       93.0396      36.759049       0.05144
   8     437.6       56.2262        2.3894       90.3418       92.7312      36.505005       0.05432
   7     480.5       56.1740        2.6111       89.7728       92.3839      36.209938       0.05795
   6     533.0       56.1218        2.8835       89.0428       91.9263      35.804464       0.06523
   5     589.8       56.0880        3.1756       88.2038       91.3794      35.291403       0.07616
   4     651.6       56.0976        3.4870       87.1979       90.6849      34.587310       0.09629
   3     718.7       56.1692        3.8161       86.0161       89.8323      33.663089       0.11615
   2     792.3       56.3598        4.1595       84.5970       88.7565      32.396689       0.14524
   1     891.5       36.0125       39.2442       27.4002       66.6444      30.631883       0.15018
   0    1013.0       36.5176       38.5832       26.4631       65.0463      28.528710       0.14603



 Wavenumbers: 16000. - 22650. cm-1, ATM      1
 LEVEL PRESSURE   UPWARD FLUX   DIFDOWN FLUX  DIRDOWN FLUX  DOWNWARD FLUX   NET FLUX    HEATING RATE
          mb          W/m2          W/m2          W/m2        W/m2          W/m2       degree/day
  51    .06700      118.8757        0.0000      156.3892      156.3892      37.513504       0.00000
  50    .07753      118.8757        0.0004      156.3887      156.3891      37.513367       0.11017
  49    .09103      118.8756        0.0008      156.3879      156.3888      37.513167       0.12496
  48    0.1069      118.8756        0.0014      156.3871      156.3885      37.512899       0.14249
  47    0.1255      118.8755        0.0020      156.3861      156.3881      37.512541       0.16242
  46    0.1487      118.8755        0.0028      156.3847      156.3875      37.512013       0.19247
  45    0.1794      118.8755        0.0038      156.3828      156.3867      37.511187       0.22662
  44    0.2165      118.8755        0.0051      156.3805      156.3856      37.510068       0.25469
  43    0.2613      118.8757        0.0066      156.3776      156.3842      37.508549       0.28633
  42    0.3336      118.8761        0.0091      156.3726      156.3817      37.505661       0.33672
  41    0.4307      118.8768        0.0124      156.3657      156.3781      37.501307       0.37851
  40    0.5894      118.8784        0.0177      156.3537      156.3714      37.493005       0.44151
  39     1.339      118.8948        0.0431      156.2834      156.3265      37.431667       0.69056
  38     1.782      118.9109        0.0580      156.2324      156.2903      37.379416       0.99477
  37     2.292      118.9355        0.0752      156.1641      156.2393      37.303785       1.25264
  36     2.964      118.9770        0.0978      156.0605      156.1583      37.181269       1.53794
  35     3.853      119.0449        0.1277      155.9041      156.0317      36.986883       1.84476
  34     5.035      119.1477        0.1673      155.6774      155.8446      36.696911       2.07144
  33     6.613      119.2917        0.2201      155.3656      155.5858      36.294008       2.15392
  32     8.786      119.4791        0.2913      154.9577      155.2489      35.769867       2.03557
  31     11.80      119.7219        0.3929      154.4153      154.8081      35.086218       1.91400
  30     15.07      119.9533        0.5017      153.8804      154.3821      34.428809       1.69730
  29     18.79      120.1883        0.6245      153.3191      153.9436      33.755271       1.52712
  28     23.16      120.4324        0.7677      152.7126      153.4803      33.047830       1.36796
  27     28.12      120.6760        0.9311      152.0755      153.0066      32.330659       1.21914
  26     33.73      120.8974        1.1138      151.4409      152.5547      31.657298       1.01242
  25     40.54      121.1059        1.3342      150.7637      152.0979      30.992049       0.82532
  24     48.69      121.2998        1.5996      150.0338      151.6335      30.333726       0.68126
  23     57.69      121.4572        1.8907      149.3151      151.2059      29.748662       0.54841
  22     68.43      121.5848        2.2369      148.5476      150.7845      29.199675       0.43158
  21     81.20      121.6549        2.6489      147.7517      150.4006      28.745728       0.29996
  20     96.49      121.6622        3.1392      146.9127      150.0519      28.389642       0.19653
  19     114.6      121.6318        3.7194      145.9763      149.6957      28.063872       0.15211
  18     136.5      121.5693        4.4041      144.9088      149.3129      27.743547       0.12317
  17     162.9      121.4709        5.2152      143.6785      148.8938      27.422842       0.10251
  16     196.4      121.2914        6.2610      142.1651      148.4260      27.134576       0.07256
  15     218.7      121.1546        6.9439      141.2033      148.1472      26.992637       0.05389
  14     243.0      120.9971        7.6826      140.1753      147.8579      26.860854       0.04571
  13     269.0      120.8173        8.4791      139.0797      147.5587      26.741440       0.03874
  12     297.5      120.6144        9.3351      137.9141      147.2491      26.634722       0.03165
  11     328.5      120.3912       10.2545      136.6676      146.9221      26.530876       0.02824
  10     361.9      120.1471       11.2380      135.3392      146.5772      26.430016       0.02552
   9     398.1      119.8813       12.2892      133.9235      146.2126      26.331300       0.02300
   8     437.6      119.5941       13.4097      132.4163      145.8259      26.231798       0.02127
   7     480.5      119.2848       14.6013      130.8147      145.4160      26.131211       0.01975
   6     533.0      118.9037       16.0550      128.8599      144.9149      26.011189       0.01931
   5     589.8      118.4958       17.6060      126.7679      144.3739      25.878115       0.01975
   4     651.6      118.0658       19.2553      124.5274      143.7827      25.716918       0.02204
   3     718.7      117.6181       21.0038      122.1285      143.1322      25.514154       0.02548
   2     792.3      117.1664       22.8488      119.5548      142.4036      25.237191       0.03176
   1     891.5       94.8447       81.0547       38.5818      119.6365      24.791767       0.03790
   0    1013.0       94.6187       81.6083       37.1802      118.7885      24.169745       0.04319



 Wavenumbers: 22650. - 29000. cm-1, ATM      1
 LEVEL PRESSURE   UPWARD FLUX   DIFDOWN FLUX  DIRDOWN FLUX  DOWNWARD FLUX   NET FLUX    HEATING RATE
          mb          W/m2          W/m2          W/m2        W/m2          W/m2       degree/day
  51    .06700       50.1731        0.0000       59.0156       59.0156       8.842550       0.00000
  50    .07753       50.1729        0.0004       59.0151       59.0155       8.842550       0.00000
  49    .09103       50.1728        0.0010       59.0144       59.0153       8.842550       0.00000
  48    0.1069       50.1726        0.0016       59.0136       59.0152       8.842550      -0.00000
  47    0.1255       50.1724        0.0023       59.0127       59.0150       8.842550       0.00000
  46    0.1487       50.1722        0.0032       59.0115       59.0147       8.842550       0.00000
  45    0.1794       50.1719        0.0045       59.0099       59.0144       8.842550      -0.00000
  44    0.2165       50.1715        0.0060       59.0080       59.0140       8.842550       0.00000
  43    0.2613       50.1710        0.0077       59.0058       59.0136       8.842550      -0.00000
  42    0.3336       50.1702        0.0106       59.0022       59.0128       8.842550       0.00000
  41    0.4307       50.1692        0.0145       58.9973       59.0118       8.842550      -0.00000
  40    0.5894       50.1675        0.0207       58.9894       59.0101       8.842550       0.00000
  39     1.339       50.1596        0.0504       58.9518       59.0022       8.842550      -0.00000
  38     1.782       50.1550        0.0678       58.9297       58.9975       8.842550       0.00000
  37     2.292       50.1496        0.0880       58.9042       58.9921       8.842550       0.00000
  36     2.964       50.1425        0.1144       58.8706       58.9851       8.842550      -0.00000
  35     3.853       50.1332        0.1494       58.8264       58.9758       8.842550       0.00000
  34     5.035       50.1208        0.1958       58.7676       58.9634       8.842550       0.00000
  33     6.613       50.1043        0.2577       58.6891       58.9468       8.842550       0.00000
  32     8.786       50.0820        0.3411       58.5834       58.9246       8.842550      -0.00000
  31     11.80       50.0502        0.4603       58.4324       58.8927       8.842550       0.00000
  30     15.07       50.0160        0.5879       58.2706       58.8585       8.842550       0.00000
  29     18.79       49.9775        0.7318       58.0882       58.8200       8.842550      -0.00000
  28     23.16       49.9325        0.8994       57.8757       58.7751       8.842550      -0.00000
  27     28.12       49.8812        1.0904       57.6333       58.7238       8.842550       0.00000
  26     33.73       49.8239        1.3034       57.3631       58.6665       8.842550      -0.00000
  25     40.54       49.7549        1.5596       57.0379       58.5975       8.842550       0.00000
  24     48.69       49.6720        1.8667       56.6479       58.5145       8.842550      -0.00000
  23     57.69       49.5813        2.2018       56.2221       58.4238       8.842550       0.00000
  22     68.43       49.4738        2.5978       55.7186       58.3163       8.842550       0.00000
  21     81.20       49.3465        3.0651       55.1239       58.1890       8.842550       0.00000
  20     96.49       49.1959        3.6157       54.4228       58.0384       8.842550       0.00000
  19     114.6       49.0187        4.2602       53.6010       57.8612       8.842550      -0.00000
  18     136.5       48.8109        5.0116       52.6418       57.6534       8.842550       0.00000
  17     162.9       48.5665        5.8887       51.5203       57.4090       8.842550      -0.00000
  16     196.4       48.2546        6.9977       50.0994       57.0972       8.842550      -0.00000
  15     218.7       48.0528        7.7090       49.1863       56.8953       8.842550      -0.00000
  14     243.0       47.8360        8.4673       48.2113       56.6785       8.842550       0.00000
  13     269.0       47.6041        9.2717       47.1749       56.4466       8.842550       0.00000
  12     297.5       47.3569       10.1212       46.0783       56.1995       8.842550       0.00000
  11     328.5       47.0937       11.0168       44.9195       55.9363       8.842550      -0.00000
  10     361.9       46.8147       11.9554       43.7018       55.6573       8.842550       0.00000
   9     398.1       46.5194       12.9369       42.4250       55.3619       8.842550      -0.00000
   8     437.6       46.2077       13.9586       41.0916       55.0502       8.842550       0.00000
   7     480.5       45.8796       15.0177       39.7045       54.7222       8.842550      -0.00000
   6     533.0       45.4840       16.2723       38.0543       54.3266       8.842550       0.00000
   5     589.8       45.0671       17.5666       36.3431       53.9096       8.842550       0.00000
   4     651.6       44.6294       18.8924       34.5795       53.4719       8.842550       0.00000
   3     718.7       44.1711       20.2434       32.7702       53.0136       8.842550      -0.00000
   2     792.3       43.6930       21.6100       30.9256       52.5356       8.842550      -0.00000
   1     891.5       36.7078       36.0505        9.4998       45.5502       8.842459       0.00001
   0    1013.0       36.2612       36.4719        8.6317       45.1036       8.842459       0.00000



 Wavenumbers: 29000. - 38000. cm-1, ATM      1
 LEVEL PRESSURE   UPWARD FLUX   DIFDOWN FLUX  DIRDOWN FLUX  DOWNWARD FLUX   NET FLUX    HEATING RATE
          mb          W/m2          W/m2          W/m2        W/m2          W/m2       degree/day
  51    .06700        7.5875        0.0000       20.8114       20.8114      13.223874       0.00000
  50    .07753        7.5873        0.0003       20.8070       20.8074      13.220068       3.05032
  49    .09103        7.5871        0.0007       20.8009       20.8016      13.214533       3.45943
  48    0.1069        7.5868        0.0012       20.7928       20.7939      13.207126       3.94265
  47    0.1255        7.5865        0.0017       20.7820       20.7837      13.197226       4.48844
  46    0.1487        7.5861        0.0023       20.7665       20.7688      13.182669       5.30615
  45    0.1794        7.5856        0.0032       20.7424       20.7456      13.160014       6.21931
  44    0.2165        7.5851        0.0043       20.7103       20.7146      13.129505       6.94027
  43    0.2613        7.5844        0.0055       20.6675       20.6730      13.088529       7.72374
  42    0.3336        7.5835        0.0075       20.5880       20.5955      13.012005       8.92195
  41    0.4307        7.5823        0.0101       20.4722       20.4824      12.900109       9.72909
  40    0.5894        7.5805        0.0143       20.2637       20.2780      12.697536      10.77258
  39     1.339        7.5757        0.0323       19.0984       19.1306      11.554900      12.86401
  38     1.782        7.5752        0.0415       18.4394       18.4809      10.905686      12.35999
  37     2.292        7.5765        0.0515       17.7714       17.8229      10.246350      10.92033
  36     2.964        7.5810        0.0637       17.0421       17.1058       9.524831       9.05724
  35     3.853        7.5907        0.0790       16.2678       16.3469       8.756165       7.29479
  34     5.035        7.6073        0.0984       15.4803       15.5787       7.971381       5.60617
  33     6.613        7.6318        0.1231       14.7157       14.8388       7.206928       4.08677
  32     8.786        7.6643        0.1554       13.9936       14.1490       6.484664       2.80501
  31     11.80        7.7064        0.2004       13.2835       13.4839       5.777494       1.97985
  30     15.07        7.7467        0.2469       12.7394       12.9863       5.239615       1.38870
  29     18.79        7.7879        0.2984       12.2666       12.5650       4.777147       1.04856
  28     23.16        7.8313        0.3570       11.8300       12.1870       4.355675       0.81499
  27     28.12        7.8752        0.4224       11.4279       11.8502       3.975077       0.64699
  26     33.73        7.9145        0.4944       11.0695       11.5638       3.649353       0.48973
  25     40.54        7.9500        0.5803       10.7209       11.3012       3.351175       0.36992
  24     48.69        7.9814        0.6821       10.3742       11.0563       3.074864       0.28594
  23     57.69        8.0045        0.7921       10.0549       10.8470       2.842546       0.21776
  22     68.43        8.0190        0.9210        9.7327       10.6537       2.634697       0.16340
  21     81.20        8.0168        1.0729        9.4134       10.4863       2.469513       0.10915
  20     96.49        7.9957        1.2512        9.0887       10.3399       2.344176       0.06918
  19     114.6        7.9625        1.4566        8.7388       10.1954       2.232978       0.05192
  18     136.5        7.9191        1.6909        8.3549       10.0458       2.126671       0.04088
  17     162.9        7.8650        1.9569        7.9311        9.8880       2.023015       0.03313
  16     196.4        7.7860        2.2849        7.4333        9.7182       1.932222       0.02285
  15     218.7        7.7317        2.4903        7.1295        9.6199       1.888134       0.01674
  14     243.0        7.6728        2.7043        6.8161        9.5203       1.847567       0.01407
  13     269.0        7.6088        2.9258        6.4943        9.4201       1.811277       0.01177
  12     297.5        7.5399        3.1536        6.1657        9.3193       1.779416       0.00945
  11     328.5        7.4671        3.3867        5.8295        9.2161       1.749042       0.00826
  10     361.9        7.3908        3.6224        5.4886        9.1111       1.720291       0.00727
   9     398.1        7.3109        3.8601        5.1440        9.0041       1.693183       0.00632
   8     437.6        7.2278        4.0980        4.7969        8.8950       1.667194       0.00556
   7     480.5        7.1417        4.3340        4.4504        8.7844       1.642672       0.00482
   6     533.0        7.0397        4.5996        4.0563        8.6559       1.616124       0.00427
   5     589.8        6.9348        4.8572        3.6682        8.5254       1.590627       0.00378
   4     651.6        6.8274        5.1028        3.2905        8.3933       1.565902       0.00338
   3     718.7        6.7178        5.3345        2.9252        8.2597       1.541918       0.00301
   2     792.3        6.6064        5.5487        2.5764        8.1251       1.518689       0.00266
   1     891.5        5.6687        6.4407        0.7202        7.1609       1.492177       0.00226
   0    1013.0        5.5518        6.4341        0.5827        7.0168       1.465029       0.00189



 Wavenumbers: 38000. - 50000. cm-1, ATM      1
 LEVEL PRESSURE   UPWARD FLUX   DIFDOWN FLUX  DIRDOWN FLUX  DOWNWARD FLUX   NET FLUX    HEATING RATE
          mb          W/m2          W/m2          W/m2        W/m2          W/m2       degree/day
  51    .06700        0.0061        0.0000        1.2836        1.2836       1.277518       0.00000
  50    .07753        0.0061        0.0001        1.2812        1.2812       1.275183       1.87150
  49    .09103        0.0060        0.0002        1.2777        1.2778       1.271851       2.08247
  48    0.1069        0.0059        0.0002        1.2731        1.2734       1.267473       2.33059
  47    0.1255        0.0058        0.0004        1.2672        1.2675       1.261717       2.60908
  46    0.1487        0.0057        0.0005        1.2586        1.2591       1.253391       3.03499
  45    0.1794        0.0055        0.0007        1.2455        1.2462       1.240623       3.50520
  44    0.2165        0.0054        0.0009        1.2282        1.2291       1.223697       3.85037
  43    0.2613        0.0052        0.0011        1.2054        1.2065       1.201348       4.21261
  42    0.3336        0.0049        0.0015        1.1639        1.1654       1.160524       4.75970
  41    0.4307        0.0045        0.0020        1.1051        1.1070       1.102565       5.03943
  40    0.5894        0.0039        0.0026        1.0039        1.0064       1.002524       5.32007
  39     1.339        0.0022        0.0035        0.5438        0.5473       0.545104       5.14971
  38     1.782        0.0016        0.0032        0.3635        0.3666       0.365006       3.42879
  37     2.292        0.0012        0.0027        0.2356        0.2383       0.237058       2.11916
  36     2.964        0.0009        0.0022        0.1455        0.1477       0.146786       1.13318
  35     3.853        0.0006        0.0017        0.0858        0.0875       0.086906       0.56828
  34     5.035        0.0004        0.0013        0.0488        0.0501       0.049701       0.26578
  33     6.613        0.0003        0.0010        0.0273        0.0282       0.027974       0.11615
  32     8.786        0.0002        0.0007        0.0144        0.0151       0.014928       0.05067
  31     11.80        0.0001        0.0004        0.0065        0.0070       0.006903       0.02247
  30     15.07        0.0000        0.0003        0.0031        0.0034       0.003329       0.00923
  29     18.79        0.0000        0.0002        0.0014        0.0016       0.001583       0.00396
  28     23.16        0.0000        0.0001        0.0006        0.0007       0.000720       0.00167
  27     28.12        0.0000        0.0001        0.0003        0.0003       0.000317       0.00069
  26     33.73        0.0000        0.0000        0.0001        0.0001       0.000140       0.00027
  25     40.54        0.0000        0.0000        0.0000        0.0001       0.000057       0.00010
  24     48.69        0.0000        0.0000        0.0000        0.0000       0.000021       0.00004
  23     57.69        0.0000        0.0000        0.0000        0.0000       0.000008       0.00001
  22     68.43        0.0000        0.0000        0.0000        0.0000       0.000003       0.00000
  21     81.20        0.0000        0.0000        0.0000        0.0000       0.000001       0.00000
  20     96.49        0.0000        0.0000        0.0000        0.0000       0.000000       0.00000
  19     114.6        0.0000        0.0000        0.0000        0.0000       0.000000       0.00000
  18     136.5        0.0000        0.0000        0.0000        0.0000       0.000000       0.00000
  17     162.9        0.0000        0.0000        0.0000        0.0000       0.000000       0.00000
  16     196.4        0.0000        0.0000        0.0000        0.0000       0.000000       0.00000
  15     218.7        0.0000        0.0000        0.0000        0.0000       0.000000       0.00000
  14     243.0        0.0000        0.0000        0.0000        0.0000       0.000000       0.00000
  13     269.0        0.0000        0.0000        0.0000        0.0000       0.000000       0.00000
  12     297.5        0.0000        0.0000        0.0000        0.0000       0.000000       0.00000
  11     328.5        0.0000        0.0000        0.0000        0.0000       0.000000       0.00000
  10     361.9        0.0000        0.0000        0.0000        0.0000       0.000000       0.00000
   9     398.1        0.0000        0.0000        0.0000        0.0000       0.000000       0.00000
   8     437.6        0.0000        0.0000        0.0000        0.0000       0.000000       0.00000
   7     480.5        0.0000        0.0000        0.0000        0.0000       0.000000       0.00000
   6     533.0        0.0000        0.0000        0.0000        0.0000       0.000000       0.00000
   5     589.8        0.0000        0.0000        0.0000        0.0000       0.000000       0.00000
   4     651.6        0.0000        0.0000        0.0000        0.0000       0.000000       0.00000
   3     718.7        0.0000        0.0000        0.0000        0.0000       0.000000       0.00000
   2     792.3        0.0000        0.0000        0.0000        0.0000       0.000000       0.00000
   1     891.5        0.0000        0.0000        0.0000        0.0000       0.000000       0.00000
   0    1013.0        0.0000        0.0000        0.0000        0.0000       0.000000       0.00000



 Wavenumbers:   820. -  2600. cm-1, ATM      1
 LEVEL PRESSURE   UPWARD FLUX   DIFDOWN FLUX  DIRDOWN FLUX  DOWNWARD FLUX   NET FLUX    HEATING RATE
          mb          W/m2          W/m2          W/m2        W/m2          W/m2       degree/day
  51    .06700        0.7350        0.0000        6.0047        6.0047       5.269627       0.00000
  50    .07753        0.7350        0.0000        6.0008        6.0008       5.265775       3.08821
  49    .09103        0.7350        0.0000        5.9999        5.9999       5.264889       0.55358
  48    0.1069        0.7350        0.0000        5.9989        5.9989       5.263900       0.52653
  47    0.1255        0.7350        0.0000        5.9978        5.9978       5.262782       0.50650
  46    0.1487        0.7350        0.0000        5.9964        5.9964       5.261426       0.49457
  45    0.1794        0.7350        0.0000        5.9947        5.9947       5.259706       0.47200
  44    0.2165        0.7350        0.0000        5.9929        5.9929       5.257864       0.41911
  43    0.2613        0.7350        0.0000        5.9909        5.9909       5.255905       0.36933
  42    0.3336        0.7350        0.0000        5.9880        5.9880       5.253026       0.33556
  41    0.4307        0.7350        0.0000        5.9846        5.9846       5.249557       0.30165
  40    0.5894        0.7350        0.0000        5.9791        5.9791       5.244052       0.29277
  39     1.339        0.7350        0.0000        5.9536        5.9536       5.218564       0.28695
  38     1.782        0.7350        0.0000        5.9395        5.9395       5.204425       0.26918
  37     2.292        0.7350        0.0000        5.9237        5.9237       5.188674       0.26089
  36     2.964        0.7350        0.0000        5.9039        5.9039       5.168899       0.24823
  35     3.853        0.7350        0.0000        5.8793        5.8793       5.144242       0.23400
  34     5.035        0.7350        0.0000        5.8487        5.8487       5.113678       0.21834
  33     6.613        0.7350        0.0000        5.8108        5.8108       5.075712       0.20297
  32     8.786        0.7351        0.0000        5.7631        5.7631       5.028086       0.18496
  31     11.80        0.7351        0.0000        5.7039        5.7039       4.968825       0.16591
  30     15.07        0.7351        0.0000        5.6539        5.6539       4.918781       0.12920
  29     18.79        0.7351        0.0000        5.6127        5.6127       4.877640       0.09328
  28     23.16        0.7351        0.0000        5.5794        5.5794       4.844255       0.06455
  27     28.12        0.7351        0.0000        5.5518        5.5518       4.816678       0.04688
  26     33.73        0.7352        0.0000        5.5268        5.5268       4.791612       0.03769
  25     40.54        0.7352        0.0000        5.4993        5.4993       4.764152       0.03407
  24     48.69        0.7352        0.0000        5.4678        5.4678       4.732588       0.03266
  23     57.69        0.7352        0.0000        5.4340        5.4340       4.698773       0.03170
  22     68.43        0.7353        0.0000        5.3947        5.3948       4.659465       0.03090
  21     81.20        0.7353        0.0000        5.3497        5.3497       4.614390       0.02979
  20     96.49        0.7354        0.0000        5.2982        5.2982       4.562823       0.02846
  19     114.6        0.7355        0.0000        5.2389        5.2389       4.503434       0.02773
  18     136.5        0.7356        0.0000        5.1716        5.1717       4.436092       0.02589
  17     162.9        0.7357        0.0000        5.0890        5.0890       4.353338       0.02645
  16     196.4        0.7360        0.0000        4.9668        4.9668       4.230886       0.03082
  15     218.7        0.7362        0.0000        4.8585        4.8585       4.122294       0.04123
  14     243.0        0.7366        0.0000        4.7078        4.7079       3.971306       0.05237
  13     269.0        0.7371        0.0000        4.5343        4.5343       3.797169       0.05649
  12     297.5        0.7380        0.0000        4.3419        4.3420       3.603958       0.05730
  11     328.5        0.7392        0.0000        4.1281        4.1281       3.388933       0.05846
  10     361.9        0.7408        0.0000        3.8786        3.8787       3.137867       0.06352
   9     398.1        0.7429        0.0000        3.6159        3.6159       2.873065       0.06169
   8     437.6        0.7456        0.0000        3.3759        3.3759       2.630312       0.05190
   7     480.5        0.7489        0.0000        3.1957        3.1958       2.446905       0.03602
   6     533.0        0.7539        0.0000        3.0467        3.0467       2.292803       0.02479
   5     589.8        0.7613        0.0000        2.9023        2.9023       2.141000       0.02253
   4     651.6        0.7742        0.0000        2.7183        2.7184       1.944119       0.02692
   3     718.7        0.7965        0.0000        2.5058        2.5059       1.709341       0.02951
   2     792.3        0.8387        0.0000        2.2756        2.2757       1.436949       0.03124
   1     891.5        0.1948        0.6699        0.6523        1.3221       1.127364       0.02634
   0    1013.0        0.2356        0.5410        0.5142        1.0552       0.819548       0.02137

  Modules and versions used in this calculation:

       rrtmg_sw.1col.f90:  $Revision$                    rrtmg_sw_init.f90:  $Revision$        
     rrtmgsw_cldprop.f90:  $Revision$                  rrtmgsw_cldprmc.f90:  NOT USED          
     rrtmg_sw_reftra.f90:  $Revision$                  rrtmg_sw_spcvrt.f90:  NOT USED          
     rrtmg_sw_spcvmc.f90:  NOT USED                    rrtmgsw_setcoef.f90:  NOT USED          
     rrtmg_sw_taumol.f90:  $Revision$                  rrtmg_sw_vrtqdr.f90:  NOT USED          
                rrtatm.f:  NOT USED                             util_xxx.f:  NOT USED          
                 extra.f:  NOT USED                       rrtmg_sw_k_g.f90:  $Revision$        

