

 Wavenumbers:   820. - 50000. cm-1, ATM      1
 LEVEL PRESSURE   UPWARD FLUX   DIFDOWN FLUX  DIRDOWN FLUX  DOWNWARD FLUX   NET FLUX    HEATING RATE
          mb          W/m2          W/m2          W/m2        W/m2          W/m2       degree/day
  51    .06700      328.9055        0.0000      617.8126      617.8126     288.907110       0.00000
  50    .07753      328.9050        0.0013      617.7947      617.7960     288.890987      12.92312
  49    .09103      328.9045        0.0029      617.7778      617.7807     288.876201       9.24138
  48    0.1069      328.9038        0.0047      617.7581      617.7628     288.858972       9.17123
  47    0.1255      328.9032        0.0069      617.7340      617.7408     288.837670       9.65723
  46    0.1487      328.9024        0.0095      617.7009      617.7104     288.808048      10.79779
  45    0.1794      328.9014        0.0132      617.6521      617.6653     288.763915      12.11549
  44    0.2165      328.9003        0.0175      617.5895      617.6070     288.706727      13.00935
  43    0.2613      328.8991        0.0226      617.5089      617.5315     288.632394      14.01138
  42    0.3336      328.8974        0.0310      617.3641      617.3951     288.497651      15.70967
  41    0.4307      328.8956        0.0420      617.1591      617.2012     288.305544      16.70330
  40    0.5894      328.8935        0.0598      616.8005      616.8603     287.966837      18.01199
  39     1.339      328.8988        0.1401      614.9443      615.0843     286.185492      20.05471
  38     1.782      328.9127        0.1851      613.9670      614.1522     285.239407      18.01194
  37     2.292      328.9385        0.2363      613.0059      613.2422     284.303707      15.49763
  36     2.964      328.9869        0.3029      611.9577      612.2605     283.273636      12.93050
  35     3.853      329.0710        0.3900      610.8024      611.1924     282.121454      10.93442
  34     5.035      329.2026        0.5050      609.5327      610.0377     280.835128       9.18898
  33     6.613      329.3892        0.6576      608.1464      608.8041     279.414899       7.59255
  32     8.786      329.6316        0.8622      606.6250      607.4873     277.855724       6.05527
  31     11.80      329.9426        1.1534      604.8486      606.0021     276.059537       5.02876
  30     15.07      330.2348        1.4641      603.2440      604.7080     274.473166       4.09570
  29     18.79      330.5278        1.8134      601.6511      603.4645     272.936730       3.48357
  28     23.16      330.8271        2.2191      599.9927      602.2118     271.384710       3.00111
  27     28.12      331.1191        2.6807      598.2881      600.9687     269.849604       2.60958
  26     33.73      331.3723        3.1950      596.5951      599.7901     268.417778       2.15279
  25     40.54      331.5925        3.8140      594.7727      598.5867     266.994244       1.76606
  24     48.69      331.7748        4.5563      592.7865      597.3428     265.568061       1.47588
  23     57.69      331.8945        5.3673      590.7959      596.1632     264.268767       1.21789
  22     68.43      331.9496        6.3275      588.6191      594.9466     262.997003       0.99978
  21     81.20      331.8937        7.4652      586.2690      593.7341     261.840372       0.76428
  20     96.49      331.7146        8.8111      583.6961      592.5072     260.792579       0.57831
  19     114.6      331.4554       10.3928      580.7708      591.1637     259.708247       0.50631
  18     136.5      331.1120       12.2428      577.4359      589.6787     258.566764       0.43893
  17     162.9      330.6725       14.4110      573.5624      587.9734     257.300906       0.40462
  16     196.4      330.0317       17.1713      568.5907      585.7620     255.730327       0.39533
  15     218.7      329.5880       18.9532      565.0572      584.0105     254.422463       0.49655
  14     243.0      329.0993       20.8620      560.7495      581.6115     252.512233       0.66253
  13     269.0      328.5653       22.8982      555.3947      578.2929     249.727673       0.90330
  12     297.5      327.9885       25.0619      548.9964      574.0583     246.069726       1.08491
  11     328.5      327.3751       27.3582      542.0895      569.4478     242.072665       1.08679
  10     361.9      326.7295       29.7828      534.6242      564.4070     237.677576       1.11200
   9     398.1      326.0567       32.3389      526.4204      558.7593     232.702596       1.15906
   8     437.6      325.3698       35.0241      517.3907      552.4148     227.044952       1.20964
   7     480.5      324.6821       37.8355      507.7216      545.5570     220.874959       1.21176
   6     533.0      323.9252       41.2053      495.9006      537.1060     213.180746       1.23775
   5     589.8      323.2712       44.7290      483.0788      527.8078     204.536627       1.28307
   4     651.6      322.8986       48.3917      468.6907      517.0823     194.183747       1.41578
   3     718.7      323.0504       52.1835      453.2257      505.4093     182.358885       1.48606
   2     792.3      324.3620       56.0813      436.4928      492.5742     168.212166       1.62247
   1     891.5      189.2758      253.5215       88.5693      342.0908     152.815011       1.31022
   0    1013.0      190.4300      247.5802       83.1083      330.6886     140.258587       0.87186



 Wavenumbers:  2600. -  3250. cm-1, ATM      1
 LEVEL PRESSURE   UPWARD FLUX   DIFDOWN FLUX  DIRDOWN FLUX  DOWNWARD FLUX   NET FLUX    HEATING RATE
          mb          W/m2          W/m2          W/m2        W/m2          W/m2       degree/day
  51    .06700        1.1369        0.0000        5.4450        5.4450       4.308125       0.00000
  50    .07753        1.1369        0.0000        5.4450        5.4450       4.308117       0.00640
  49    .09103        1.1369        0.0000        5.4450        5.4450       4.308107       0.00627
  48    0.1069        1.1369        0.0000        5.4450        5.4450       4.308095       0.00613
  47    0.1255        1.1369        0.0000        5.4450        5.4450       4.308082       0.00599
  46    0.1487        1.1369        0.0000        5.4450        5.4450       4.308065       0.00608
  45    0.1794        1.1369        0.0000        5.4450        5.4450       4.308043       0.00625
  44    0.2165        1.1369        0.0000        5.4449        5.4449       4.308016       0.00612
  43    0.2613        1.1369        0.0000        5.4449        5.4449       4.307984       0.00600
  42    0.3336        1.1369        0.0000        5.4448        5.4448       4.307931       0.00617
  41    0.4307        1.1369        0.0000        5.4448        5.4448       4.307860       0.00620
  40    0.5894        1.1369        0.0000        5.4446        5.4446       4.307740       0.00637
  39     1.339        1.1369        0.0000        5.4439        5.4439       4.307032       0.00797
  38     1.782        1.1369        0.0000        5.4434        5.4434       4.306489       0.01034
  37     2.292        1.1369        0.0000        5.4427        5.4427       4.305773       0.01186
  36     2.964        1.1369        0.0000        5.4416        5.4416       4.304735       0.01304
  35     3.853        1.1369        0.0000        5.4402        5.4402       4.303257       0.01402
  34     5.035        1.1369        0.0000        5.4381        5.4381       4.301202       0.01468
  33     6.613        1.1369        0.0000        5.4353        5.4353       4.298420       0.01487
  32     8.786        1.1369        0.0000        5.4317        5.4317       4.294788       0.01411
  31     11.80        1.1369        0.0000        5.4269        5.4269       4.290007       0.01339
  30     15.07        1.1369        0.0000        5.4224        5.4224       4.285479       0.01169
  29     18.79        1.1369        0.0000        5.4180        5.4180       4.281065       0.01001
  28     23.16        1.1369        0.0000        5.4135        5.4135       4.276577       0.00868
  27     28.12        1.1369        0.0000        5.4088        5.4088       4.271925       0.00791
  26     33.73        1.1369        0.0000        5.4036        5.4036       4.266679       0.00789
  25     40.54        1.1369        0.0000        5.3966        5.3967       4.259728       0.00862
  24     48.69        1.1369        0.0000        5.3872        5.3872       4.250238       0.00982
  23     57.69        1.1370        0.0000        5.3754        5.3754       4.238435       0.01106
  22     68.43        1.1370        0.0000        5.3599        5.3599       4.222920       0.01220
  21     81.20        1.1370        0.0000        5.3401        5.3401       4.203047       0.01313
  20     96.49        1.1371        0.0000        5.3155        5.3155       4.178425       0.01359
  19     114.6        1.1372        0.0000        5.2853        5.2854       4.148151       0.01414
  18     136.5        1.1373        0.0001        5.2504        5.2505       4.113135       0.01346
  17     162.9        1.1375        0.0001        5.2111        5.2112       4.073633       0.01263
  16     196.4        1.1378        0.0001        5.1640        5.1641       4.026276       0.01192
  15     218.7        1.1382        0.0001        5.1331        5.1332       3.995038       0.01186
  14     243.0        1.1387        0.0001        5.0962        5.0963       3.957619       0.01298
  13     269.0        1.1395        0.0001        5.0511        5.0512       3.911676       0.01490
  12     297.5        1.1408        0.0001        4.9956        4.9957       3.854942       0.01683
  11     328.5        1.1425        0.0001        4.9304        4.9305       3.787962       0.01821
  10     361.9        1.1450        0.0001        4.8511        4.8512       3.706283       0.02067
   9     398.1        1.1483        0.0002        4.7507        4.7508       3.602542       0.02417
   8     437.6        1.1529        0.0002        4.6220        4.6222       3.469273       0.02849
   7     480.5        1.1593        0.0002        4.4625        4.4627       3.303306       0.03260
   6     533.0        1.1698        0.0002        4.2460        4.2462       3.076419       0.03650
   5     589.8        1.1858        0.0002        3.9954        3.9956       2.809831       0.03957
   4     651.6        1.2121        0.0002        3.7089        3.7091       2.496944       0.04279
   3     718.7        1.2556        0.0002        3.4018        3.4020       2.146383       0.04406
   2     792.3        1.3346        0.0002        3.0564        3.0566       1.722004       0.04867
   1     891.5        0.3018        1.0209        0.5526        1.5736       1.271787       0.03831
   0    1013.0        0.3481        0.8459        0.4460        1.2919       0.943805       0.02277



 Wavenumbers:  3250. -  4000. cm-1, ATM      1
 LEVEL PRESSURE   UPWARD FLUX   DIFDOWN FLUX  DIRDOWN FLUX  DOWNWARD FLUX   NET FLUX    HEATING RATE
          mb          W/m2          W/m2          W/m2        W/m2          W/m2       degree/day
  51    .06700        0.0261        0.0000        9.1795        9.1795       9.153434       0.00000
  50    .07753        0.0261        0.0000        9.1747        9.1747       9.148592       3.88148
  49    .09103        0.0261        0.0000        9.1713        9.1713       9.145204       2.11747
  48    0.1069        0.0261        0.0000        9.1688        9.1688       9.142679       1.34402
  47    0.1255        0.0261        0.0000        9.1665        9.1665       9.140420       1.02422
  46    0.1487        0.0261        0.0000        9.1641        9.1641       9.137978       0.88991
  45    0.1794        0.0261        0.0000        9.1612        9.1612       9.135100       0.79008
  44    0.2165        0.0261        0.0000        9.1583        9.1583       9.132180       0.66430
  43    0.2613        0.0261        0.0000        9.1553        9.1553       9.129207       0.56041
  42    0.3336        0.0261        0.0000        9.1511        9.1511       9.125028       0.48723
  41    0.4307        0.0261        0.0000        9.1464        9.1464       9.120260       0.41459
  40    0.5894        0.0261        0.0000        9.1393        9.1394       9.113254       0.37255
  39     1.339        0.0261        0.0000        9.1127        9.1127       9.086641       0.29962
  38     1.782        0.0261        0.0000        9.1011        9.1011       9.075052       0.22062
  37     2.292        0.0261        0.0000        9.0901        9.0901       9.063986       0.18329
  36     2.964        0.0261        0.0000        9.0776        9.0776       9.051556       0.15603
  35     3.853        0.0261        0.0000        9.0629        9.0629       9.036766       0.14036
  34     5.035        0.0261        0.0000        9.0441        9.0441       9.018027       0.13386
  33     6.613        0.0261        0.0000        9.0191        9.0191       8.993025       0.13366
  32     8.786        0.0261        0.0000        8.9843        8.9843       8.958242       0.13509
  31     11.80        0.0261        0.0000        8.9327        8.9327       8.906625       0.14451
  30     15.07        0.0261        0.0000        8.8758        8.8759       8.849780       0.14676
  29     18.79        0.0261        0.0000        8.8110        8.8110       8.784953       0.14698
  28     23.16        0.0261        0.0000        8.7365        8.7366       8.710508       0.14395
  27     28.12        0.0261        0.0000        8.6554        8.6555       8.629395       0.13789
  26     33.73        0.0261        0.0000        8.5719        8.5719       8.545896       0.12554
  25     40.54        0.0260        0.0001        8.4812        8.4812       8.455172       0.11255
  24     48.69        0.0260        0.0001        8.3838        8.3839       8.357870       0.10069
  23     57.69        0.0260        0.0001        8.2861        8.2862       8.260135       0.09161
  22     68.43        0.0260        0.0001        8.1751        8.1751       8.149139       0.08726
  21     81.20        0.0260        0.0001        8.0457        8.0458       8.019780       0.08548
  20     96.49        0.0260        0.0001        7.8949        7.8950       7.869077       0.08318
  19     114.6        0.0260        0.0001        7.7162        7.7163       7.690367       0.08344
  18     136.5        0.0259        0.0002        7.5193        7.5195       7.493523       0.07569
  17     162.9        0.0259        0.0002        7.2913        7.2915       7.265631       0.07284
  16     196.4        0.0259        0.0002        6.9660        6.9662       6.940357       0.08188
  15     218.7        0.0258        0.0002        6.6648        6.6650       6.639164       0.11435
  14     243.0        0.0258        0.0002        6.2619        6.2622       6.236358       0.13971
  13     269.0        0.0258        0.0003        5.7576        5.7579       5.732033       0.16360
  12     297.5        0.0259        0.0003        5.1719        5.1722       5.146286       0.17373
  11     328.5        0.0260        0.0002        4.5757        4.5760       4.550029       0.16212
  10     361.9        0.0261        0.0002        3.9995        3.9998       3.973692       0.14582
   9     398.1        0.0263        0.0002        3.4655        3.4657       3.439370       0.12448
   8     437.6        0.0268        0.0002        2.9740        2.9743       2.947481       0.10517
   7     480.5        0.0275        0.0002        2.5307        2.5309       2.503395       0.08722
   6     533.0        0.0288        0.0002        2.0614        2.0616       2.032721       0.07572
   5     589.8        0.0313        0.0002        1.6150        1.6151       1.583775       0.06664
   4     651.6        0.0366        0.0001        1.1565        1.1566       1.119971       0.06343
   3     718.7        0.0482        0.0001        0.7390        0.7391       0.690887       0.05392
   2     792.3        0.0791        0.0001        0.3985        0.3985       0.319433       0.04260
   1     891.5        0.0002        0.0400        0.0244        0.0644       0.064230       0.02172
   0    1013.0        0.0017        0.0041        0.0020        0.0062       0.004504       0.00415



 Wavenumbers:  4000. -  4650. cm-1, ATM      1
 LEVEL PRESSURE   UPWARD FLUX   DIFDOWN FLUX  DIRDOWN FLUX  DOWNWARD FLUX   NET FLUX    HEATING RATE
          mb          W/m2          W/m2          W/m2        W/m2          W/m2       degree/day
  51    .06700        3.8351        0.0000       10.7795       10.7795       6.944482       0.00000
  50    .07753        3.8351        0.0000       10.7795       10.7795       6.944481       0.00080
  49    .09103        3.8351        0.0000       10.7795       10.7795       6.944480       0.00078
  48    0.1069        3.8351        0.0000       10.7795       10.7795       6.944479       0.00076
  47    0.1255        3.8351        0.0000       10.7795       10.7795       6.944477       0.00075
  46    0.1487        3.8351        0.0000       10.7795       10.7795       6.944475       0.00076
  45    0.1794        3.8351        0.0000       10.7795       10.7795       6.944472       0.00078
  44    0.2165        3.8351        0.0000       10.7795       10.7795       6.944469       0.00076
  43    0.2613        3.8351        0.0000       10.7795       10.7795       6.944465       0.00075
  42    0.3336        3.8351        0.0000       10.7795       10.7795       6.944458       0.00077
  41    0.4307        3.8351        0.0000       10.7795       10.7795       6.944449       0.00077
  40    0.5894        3.8351        0.0000       10.7795       10.7795       6.944434       0.00080
  39     1.339        3.8351        0.0000       10.7794       10.7794       6.944345       0.00101
  38     1.782        3.8351        0.0000       10.7793       10.7793       6.944275       0.00133
  37     2.292        3.8351        0.0000       10.7792       10.7792       6.944181       0.00156
  36     2.964        3.8351        0.0000       10.7791       10.7791       6.944041       0.00176
  35     3.853        3.8351        0.0000       10.7789       10.7789       6.943832       0.00198
  34     5.035        3.8350        0.0000       10.7786       10.7786       6.943525       0.00219
  33     6.613        3.8350        0.0000       10.7781       10.7781       6.943073       0.00242
  32     8.786        3.8350        0.0000       10.7774       10.7774       6.942406       0.00259
  31     11.80        3.8350        0.0001       10.7763       10.7764       6.941357       0.00294
  30     15.07        3.8350        0.0001       10.7751       10.7752       6.940127       0.00318
  29     18.79        3.8350        0.0001       10.7736       10.7737       6.938639       0.00337
  28     23.16        3.8350        0.0001       10.7717       10.7718       6.936791       0.00357
  27     28.12        3.8350        0.0001       10.7695       10.7696       6.934554       0.00380
  26     33.73        3.8350        0.0001       10.7667       10.7668       6.931794       0.00415
  25     40.54        3.8350        0.0002       10.7629       10.7631       6.928051       0.00464
  24     48.69        3.8351        0.0002       10.7579       10.7581       6.923063       0.00516
  23     57.69        3.8351        0.0003       10.7520       10.7523       6.917148       0.00554
  22     68.43        3.8352        0.0003       10.7446       10.7449       6.909732       0.00583
  21     81.20        3.8353        0.0004       10.7355       10.7359       6.900598       0.00604
  20     96.49        3.8354        0.0004       10.7245       10.7249       6.889481       0.00614
  19     114.6        3.8356        0.0005       10.7107       10.7112       6.875574       0.00649
  18     136.5        3.8360        0.0006       10.6942       10.6948       6.858814       0.00644
  17     162.9        3.8365        0.0007       10.6740       10.6747       6.838257       0.00657
  16     196.4        3.8373        0.0008       10.6464       10.6472       6.809888       0.00714
  15     218.7        3.8381        0.0009       10.6255       10.6264       6.788300       0.00820
  14     243.0        3.8392        0.0010       10.5980       10.5991       6.759844       0.00987
  13     269.0        3.8410        0.0012       10.5611       10.5622       6.721267       0.01251
  12     297.5        3.8435        0.0013       10.5119       10.5132       6.669694       0.01530
  11     328.5        3.8470        0.0014       10.4499       10.4513       6.604244       0.01780
  10     361.9        3.8516        0.0015       10.3702       10.3717       6.520070       0.02130
   9     398.1        3.8574        0.0017       10.2678       10.2695       6.412013       0.02517
   8     437.6        3.8648        0.0018       10.1390       10.1408       6.275969       0.02909
   7     480.5        3.8743        0.0020        9.9877        9.9897       6.115359       0.03154
   6     533.0        3.8889        0.0022        9.7937        9.7958       5.906958       0.03353
   5     589.8        3.9099        0.0023        9.5752        9.5775       5.667589       0.03553
   4     651.6        3.9437        0.0025        9.2958        9.2983       5.354595       0.04280
   3     718.7        4.0003        0.0027        8.9267        8.9294       4.929100       0.05347
   2     792.3        4.1058        0.0029        8.4542        8.4571       4.351260       0.06627
   1     891.5        1.1212        3.1741        1.6677        4.8418       3.720621       0.05366
   0    1013.0        1.1936        2.9192        1.5141        4.4333       3.239651       0.03340



 Wavenumbers:  4650. -  5150. cm-1, ATM      1
 LEVEL PRESSURE   UPWARD FLUX   DIFDOWN FLUX  DIRDOWN FLUX  DOWNWARD FLUX   NET FLUX    HEATING RATE
          mb          W/m2          W/m2          W/m2        W/m2          W/m2       degree/day
  51    .06700        2.7578        0.0000       10.2033       10.2033       7.445508       0.00000
  50    .07753        2.7578        0.0000       10.2031       10.2031       7.445272       0.18901
  49    .09103        2.7578        0.0000       10.2028       10.2028       7.444977       0.18428
  48    0.1069        2.7578        0.0000       10.2025       10.2025       7.444641       0.17931
  47    0.1255        2.7578        0.0000       10.2021       10.2021       7.444256       0.17426
  46    0.1487        2.7578        0.0000       10.2016       10.2016       7.443775       0.17536
  45    0.1794        2.7578        0.0000       10.2010       10.2010       7.443125       0.17850
  44    0.2165        2.7578        0.0000       10.2002       10.2002       7.442365       0.17277
  43    0.2613        2.7578        0.0000       10.1993       10.1993       7.441480       0.16690
  42    0.3336        2.7578        0.0000       10.1979       10.1979       7.440047       0.16702
  41    0.4307        2.7578        0.0000       10.1960       10.1960       7.438207       0.16002
  40    0.5894        2.7578        0.0000       10.1932       10.1932       7.435333       0.15283
  39     1.339        2.7578        0.0000       10.1816       10.1816       7.423741       0.13050
  38     1.782        2.7578        0.0000       10.1760       10.1760       7.418213       0.10526
  37     2.292        2.7578        0.0000       10.1706       10.1706       7.412756       0.09038
  36     2.964        2.7578        0.0000       10.1646       10.1647       7.406832       0.07436
  35     3.853        2.7578        0.0000       10.1584       10.1584       7.400618       0.05898
  34     5.035        2.7578        0.0000       10.1521       10.1521       7.394281       0.04527
  33     6.613        2.7578        0.0000       10.1456       10.1456       7.387822       0.03453
  32     8.786        2.7578        0.0001       10.1386       10.1386       7.380808       0.02724
  31     11.80        2.7578        0.0001       10.1295       10.1296       7.371762       0.02533
  30     15.07        2.7578        0.0001       10.1196       10.1197       7.361874       0.02553
  29     18.79        2.7578        0.0001       10.1076       10.1077       7.349854       0.02725
  28     23.16        2.7579        0.0001       10.0923       10.0924       7.334531       0.02963
  27     28.12        2.7579        0.0002       10.0731       10.0733       7.315411       0.03250
  26     33.73        2.7580        0.0002       10.0500       10.0503       7.292283       0.03477
  25     40.54        2.7581        0.0003       10.0201       10.0204       7.262329       0.03716
  24     48.69        2.7582        0.0003        9.9820        9.9823       7.224085       0.03958
  23     57.69        2.7584        0.0004        9.9384        9.9388       7.180453       0.04090
  22     68.43        2.7586        0.0004        9.8858        9.8862       7.127589       0.04156
  21     81.20        2.7589        0.0005        9.8234        9.8240       7.065015       0.04135
  20     96.49        2.7594        0.0006        9.7518        9.7524       6.992942       0.03978
  19     114.6        2.7601        0.0007        9.6719        9.6726       6.912535       0.03754
  18     136.5        2.7610        0.0008        9.5858        9.5866       6.825602       0.03343
  17     162.9        2.7624        0.0010        9.4940        9.4950       6.732680       0.02970
  16     196.4        2.7644        0.0012        9.3883        9.3895       6.625067       0.02709
  15     218.7        2.7660        0.0013        9.3229        9.3242       6.558217       0.02538
  14     243.0        2.7681        0.0015        9.2520        9.2534       6.485304       0.02529
  13     269.0        2.7710        0.0016        9.1717        9.1733       6.402289       0.02693
  12     297.5        2.7750        0.0018        9.0763        9.0780       6.303068       0.02943
  11     328.5        2.7802        0.0019        8.9650        8.9669       6.186701       0.03164
  10     361.9        2.7869        0.0021        8.8349        8.8370       6.050071       0.03457
   9     398.1        2.7957        0.0023        8.6820        8.6843       5.888567       0.03763
   8     437.6        2.8072        0.0025        8.5028        8.5053       5.698094       0.04072
   7     480.5        2.8221        0.0026        8.2948        8.2975       5.475393       0.04374
   6     533.0        2.8448        0.0028        8.0209        8.0237       5.178919       0.04769
   5     589.8        2.8765        0.0031        7.7063        7.7094       4.832882       0.05136
   4     651.6        2.9234        0.0032        7.3412        7.3445       4.421031       0.05632
   3     718.7        2.9945        0.0034        6.9387        6.9421       3.947614       0.05950
   2     792.3        3.1077        0.0036        6.5066        6.5102       3.402447       0.06252
   1     891.5        0.8242        2.4026        1.2700        3.6726       2.848376       0.04715
   0    1013.0        0.8921        2.1783        1.1345        3.3128       2.420647       0.02970



 Wavenumbers:  5150. -  6150. cm-1, ATM      1
 LEVEL PRESSURE   UPWARD FLUX   DIFDOWN FLUX  DIRDOWN FLUX  DOWNWARD FLUX   NET FLUX    HEATING RATE
          mb          W/m2          W/m2          W/m2        W/m2          W/m2       degree/day
  51    .06700        6.6253        0.0000       25.5798       25.5798      18.954568       0.00000
  50    .07753        6.6253        0.0000       25.5798       25.5798      18.954529       0.03159
  49    .09103        6.6253        0.0000       25.5797       25.5797      18.954478       0.03208
  48    0.1069        6.6253        0.0000       25.5797       25.5797      18.954416       0.03259
  47    0.1255        6.6253        0.0000       25.5796       25.5796      18.954343       0.03309
  46    0.1487        6.6253        0.0000       25.5795       25.5795      18.954248       0.03486
  45    0.1794        6.6253        0.0000       25.5794       25.5794      18.954113       0.03710
  44    0.2165        6.6253        0.0000       25.5792       25.5792      18.953947       0.03766
  43    0.2613        6.6252        0.0000       25.5790       25.5790      18.953744       0.03824
  42    0.3336        6.6252        0.0000       25.5786       25.5786      18.953398       0.04041
  41    0.4307        6.6252        0.0000       25.5782       25.5782      18.952927       0.04095
  40    0.5894        6.6252        0.0000       25.5774       25.5774      18.952138       0.04196
  39     1.339        6.6252        0.0000       25.5735       25.5736      18.948337       0.04279
  38     1.782        6.6252        0.0001       25.5713       25.5714      18.946124       0.04213
  37     2.292        6.6252        0.0001       25.5688       25.5688      18.943619       0.04148
  36     2.964        6.6252        0.0001       25.5656       25.5657      18.940438       0.03994
  35     3.853        6.6252        0.0001       25.5615       25.5616      18.936394       0.03838
  34     5.035        6.6252        0.0001       25.5562       25.5564      18.931186       0.03720
  33     6.613        6.6252        0.0002       25.5494       25.5496      18.924430       0.03612
  32     8.786        6.6252        0.0003       25.5406       25.5409      18.915675       0.03400
  31     11.80        6.6252        0.0003       25.5287       25.5290      18.903835       0.03315
  30     15.07        6.6252        0.0004       25.5167       25.5171      18.891960       0.03066
  29     18.79        6.6252        0.0005       25.5042       25.5047      18.879546       0.02815
  28     23.16        6.6252        0.0007       25.4907       25.4913      18.866172       0.02586
  27     28.12        6.6252        0.0008       25.4764       25.4773      18.852070       0.02397
  26     33.73        6.6252        0.0010       25.4620       25.4630      18.837776       0.02149
  25     40.54        6.6253        0.0012       25.4463       25.4474      18.822143       0.01940
  24     48.69        6.6254        0.0014       25.4294       25.4308      18.805396       0.01733
  23     57.69        6.6255        0.0017       25.4126       25.4143      18.788765       0.01559
  22     68.43        6.6257        0.0020       25.3944       25.3964      18.770700       0.01420
  21     81.20        6.6260        0.0024       25.3744       25.3768      18.750816       0.01314
  20     96.49        6.6263        0.0028       25.3519       25.3547      18.728462       0.01234
  19     114.6        6.6267        0.0033       25.3262       25.3295      18.702821       0.01197
  18     136.5        6.6272        0.0039       25.2962       25.3001      18.672968       0.01148
  17     162.9        6.6278        0.0047       25.2521       25.2568      18.628980       0.01406
  16     196.4        6.6287        0.0056       25.1593       25.1649      18.536235       0.02334
  15     218.7        6.6294        0.0062       25.0159       25.0222      18.392814       0.05445
  14     243.0        6.6302        0.0069       24.7089       24.7158      18.085576       0.10656
  13     269.0        6.6313        0.0075       24.1619       24.1693      17.537991       0.17763
  12     297.5        6.6329        0.0081       23.4544       23.4625      16.829517       0.21013
  11     328.5        6.6351        0.0087       22.7355       22.7442      16.109068       0.19589
  10     361.9        6.6380        0.0093       21.9224       21.9317      15.293753       0.20628
   9     398.1        6.6419        0.0099       20.9939       21.0038      14.361893       0.21710
   8     437.6        6.6474        0.0104       19.9833       19.9938      13.346342       0.21713
   7     480.5        6.6551        0.0110       18.9483       18.9593      12.304150       0.20468
   6     533.0        6.6682        0.0116       17.7796       17.7911      11.122934       0.19002
   5     589.8        6.6895        0.0121       16.6726       16.6847       9.995206       0.16739
   4     651.6        6.7285        0.0127       15.6343       15.6470       8.918498       0.14724
   3     718.7        6.8001        0.0134       14.7738       14.7872       7.987146       0.11705
   2     792.3        6.9422        0.0142       14.0291       14.0433       7.101138       0.10162
   1     891.5        1.9554        5.3669        2.7989        8.1659       6.210516       0.07579
   0    1013.0        2.0402        5.0044        2.5756        7.5800       5.539871       0.04657



 Wavenumbers:  6150. -  7700. cm-1, ATM      1
 LEVEL PRESSURE   UPWARD FLUX   DIFDOWN FLUX  DIRDOWN FLUX  DOWNWARD FLUX   NET FLUX    HEATING RATE
          mb          W/m2          W/m2          W/m2        W/m2          W/m2       degree/day
  51    .06700       10.4530        0.0000       47.3109       47.3109      36.857846       0.00000
  50    .07753       10.4530        0.0000       47.3108       47.3108      36.857789       0.04553
  49    .09103       10.4530        0.0000       47.3107       47.3107      36.857716       0.04583
  48    0.1069       10.4530        0.0000       47.3106       47.3106      36.857629       0.04614
  47    0.1255       10.4530        0.0000       47.3105       47.3105      36.857527       0.04645
  46    0.1487       10.4530        0.0000       47.3104       47.3104      36.857394       0.04852
  45    0.1794       10.4530        0.0000       47.3102       47.3102      36.857207       0.05127
  44    0.2165       10.4530        0.0000       47.3100       47.3100      36.856980       0.05167
  43    0.2613       10.4530        0.0000       47.3097       47.3097      36.856704       0.05210
  42    0.3336       10.4530        0.0000       47.3092       47.3092      36.856234       0.05471
  41    0.4307       10.4530        0.0000       47.3085       47.3086      36.855599       0.05521
  40    0.5894       10.4530        0.0001       47.3074       47.3075      36.854540       0.05633
  39     1.339       10.4529        0.0002       47.3022       47.3023      36.849448       0.05733
  38     1.782       10.4529        0.0002       47.2991       47.2993      36.846478       0.05655
  37     2.292       10.4528        0.0003       47.2956       47.2959      36.843102       0.05591
  36     2.964       10.4528        0.0004       47.2912       47.2915      36.838784       0.05421
  35     3.853       10.4527        0.0005       47.2855       47.2859      36.833249       0.05252
  34     5.035       10.4526        0.0006       47.2780       47.2786      36.826069       0.05129
  33     6.613       10.4524        0.0008       47.2683       47.2691      36.816681       0.05019
  32     8.786       10.4522        0.0011       47.2556       47.2566      36.804382       0.04777
  31     11.80       10.4520        0.0014       47.2380       47.2395      36.787478       0.04732
  30     15.07       10.4517        0.0018       47.2201       47.2219      36.770191       0.04463
  29     18.79       10.4514        0.0023       47.2008       47.2031      36.751711       0.04190
  28     23.16       10.4510        0.0028       47.1795       47.1823      36.731321       0.03943
  27     28.12       10.4505        0.0034       47.1565       47.1599      36.709328       0.03739
  26     33.73       10.4501        0.0041       47.1324       47.1365      36.686407       0.03446
  25     40.54       10.4495        0.0049       47.1054       47.1102      36.660771       0.03180
  24     48.69       10.4488        0.0058       47.0754       47.0813      36.632518       0.02924
  23     57.69       10.4480        0.0069       47.0449       47.0519      36.603897       0.02683
  22     68.43       10.4470        0.0082       47.0110       47.0192      36.572161       0.02495
  21     81.20       10.4459        0.0097       46.9729       46.9826      36.536669       0.02345
  20     96.49       10.4446        0.0116       46.9294       46.9409      36.496331       0.02226
  19     114.6       10.4430        0.0137       46.8790       46.8927      36.449702       0.02177
  18     136.5       10.4412        0.0163       46.8200       46.8363      36.395085       0.02100
  17     162.9       10.4390        0.0193       46.7361       46.7555      36.316475       0.02513
  16     196.4       10.4362        0.0233       46.5703       46.5935      36.157309       0.04006
  15     218.7       10.4345        0.0258       46.3473       46.3731      35.938588       0.08304
  14     243.0       10.4329        0.0285       45.9299       45.9583      35.525433       0.14330
  13     269.0       10.4316        0.0311       45.1708       45.2019      34.770295       0.24496
  12     297.5       10.4311        0.0337       44.0115       44.0452      33.614095       0.34292
  11     328.5       10.4316        0.0363       42.7242       42.7605      32.328966       0.34942
  10     361.9       10.4337        0.0389       41.3539       41.3929      30.959239       0.34655
   9     398.1       10.4382        0.0415       39.7953       39.8368      29.398552       0.36360
   8     437.6       10.4469        0.0439       37.9948       38.0387      27.591779       0.38630
   7     480.5       10.4615        0.0461       36.0647       36.1108      25.649331       0.38149
   6     533.0       10.4900        0.0485       33.7773       33.8258      23.335766       0.37218
   5     589.8       10.5408        0.0505       31.4082       31.4587      20.917954       0.35888
   4     651.6       10.6399        0.0521       28.8834       28.9355      18.295589       0.35862
   3     718.7       10.8294        0.0535       26.4104       26.4639      15.634459       0.33443
   2     792.3       11.2259        0.0545       24.0056       24.0601      12.834269       0.32115
   1     891.5        2.9280        8.6251        4.5430       13.1682      10.240149       0.22075
   0    1013.0        3.1476        7.7103        3.9824       11.6927       8.545114       0.11770



 Wavenumbers:  7700. -  8050. cm-1, ATM      1
 LEVEL PRESSURE   UPWARD FLUX   DIFDOWN FLUX  DIRDOWN FLUX  DOWNWARD FLUX   NET FLUX    HEATING RATE
          mb          W/m2          W/m2          W/m2        W/m2          W/m2       degree/day
  51    .06700        4.9561        0.0000       11.1810       11.1810       6.224902       0.00000
  50    .07753        4.9561        0.0000       11.1809       11.1809       6.224881       0.01699
  49    .09103        4.9561        0.0000       11.1809       11.1809       6.224854       0.01665
  48    0.1069        4.9561        0.0000       11.1809       11.1809       6.224824       0.01630
  47    0.1255        4.9561        0.0000       11.1809       11.1809       6.224789       0.01595
  46    0.1487        4.9561        0.0000       11.1808       11.1808       6.224744       0.01619
  45    0.1794        4.9561        0.0000       11.1808       11.1808       6.224683       0.01666
  44    0.2165        4.9561        0.0000       11.1807       11.1807       6.224612       0.01634
  43    0.2613        4.9561        0.0000       11.1806       11.1806       6.224527       0.01603
  42    0.3336        4.9561        0.0000       11.1805       11.1805       6.224386       0.01640
  41    0.4307        4.9562        0.0000       11.1803       11.1804       6.224199       0.01622
  40    0.5894        4.9562        0.0000       11.1801       11.1801       6.223895       0.01621
  39     1.339        4.9564        0.0001       11.1788       11.1789       6.222453       0.01623
  38     1.782        4.9566        0.0001       11.1781       11.1782       6.221606       0.01612
  37     2.292        4.9567        0.0001       11.1772       11.1773       6.220625       0.01624
  36     2.964        4.9569        0.0002       11.1761       11.1762       6.219338       0.01616
  35     3.853        4.9571        0.0002       11.1746       11.1748       6.217638       0.01614
  34     5.035        4.9575        0.0003       11.1726       11.1729       6.215379       0.01613
  33     6.613        4.9579        0.0003       11.1700       11.1703       6.212363       0.01613
  32     8.786        4.9586        0.0005       11.1664       11.1669       6.208300       0.01578
  31     11.80        4.9594        0.0006       11.1613       11.1619       6.202491       0.01626
  30     15.07        4.9604        0.0008       11.1558       11.1566       6.196260       0.01609
  29     18.79        4.9614        0.0010       11.1497       11.1507       6.189229       0.01594
  28     23.16        4.9627        0.0012       11.1425       11.1437       6.181029       0.01586
  27     28.12        4.9641        0.0015       11.1343       11.1358       6.171666       0.01592
  26     33.73        4.9658        0.0018       11.1252       11.1270       6.161211       0.01572
  25     40.54        4.9677        0.0021       11.1142       11.1163       6.148610       0.01563
  24     48.69        4.9701        0.0026       11.1010       11.1036       6.133466       0.01567
  23     57.69        4.9727        0.0030       11.0866       11.0896       6.116891       0.01554
  22     68.43        4.9759        0.0036       11.0695       11.0731       6.097235       0.01545
  21     81.20        4.9797        0.0042       11.0494       11.0536       6.073937       0.01540
  20     96.49        4.9842        0.0050       11.0255       11.0306       6.046344       0.01523
  19     114.6        4.9897        0.0060       10.9975       11.0035       6.013819       0.01519
  18     136.5        4.9963        0.0071       10.9648       10.9719       5.975589       0.01470
  17     162.9        5.0042        0.0084       10.9263       10.9347       5.930499       0.01441
  16     196.4        5.0147        0.0101       10.8773       10.8874       5.872684       0.01455
  15     218.7        5.0217        0.0112       10.8455       10.8568       5.835068       0.01428
  14     243.0        5.0295        0.0125       10.8114       10.8239       5.794435       0.01409
  13     269.0        5.0380        0.0138       10.7749       10.7887       5.750619       0.01421
  12     297.5        5.0475        0.0152       10.7357       10.7509       5.703396       0.01401
  11     328.5        5.0580        0.0167       10.6937       10.7105       5.652454       0.01385
  10     361.9        5.0697        0.0184       10.6489       10.6672       5.597564       0.01389
   9     398.1        5.0827        0.0202       10.6008       10.6209       5.538233       0.01382
   8     437.6        5.0973        0.0221       10.5491       10.5711       5.473849       0.01377
   7     480.5        5.1137        0.0241       10.4934       10.5175       5.403832       0.01375
   6     533.0        5.1352        0.0266       10.4243       10.4509       5.315732       0.01417
   5     589.8        5.1602        0.0293       10.3479       10.3772       5.216955       0.01466
   4     651.6        5.1904        0.0322       10.2613       10.2935       5.103085       0.01557
   3     718.7        5.2276        0.0352       10.1618       10.1970       4.969401       0.01680
   2     792.3        5.2750        0.0385       10.0439       10.0823       4.807323       0.01859
   1     891.5        1.6028        4.1158        2.1105        6.2263       4.623541       0.01564
   0    1013.0        1.6362        4.0245        2.0565        6.0811       4.444867       0.01241



 Wavenumbers:  8050. - 12850. cm-1, ATM      1
 LEVEL PRESSURE   UPWARD FLUX   DIFDOWN FLUX  DIRDOWN FLUX  DOWNWARD FLUX   NET FLUX    HEATING RATE
          mb          W/m2          W/m2          W/m2        W/m2          W/m2       degree/day
  51    .06700       63.8944        0.0000      156.5418      156.5418      92.647301       0.00000
  50    .07753       63.8944        0.0000      156.5417      156.5417      92.647301       0.00000
  49    .09103       63.8944        0.0001      156.5417      156.5417      92.647301       0.00000
  48    0.1069       63.8944        0.0001      156.5416      156.5417      92.647301       0.00000
  47    0.1255       63.8944        0.0002      156.5415      156.5417      92.647301      -0.00000
  46    0.1487       63.8943        0.0002      156.5414      156.5416      92.647301       0.00000
  45    0.1794       63.8943        0.0003      156.5413      156.5416      92.647301       0.00000
  44    0.2165       63.8942        0.0004      156.5412      156.5415      92.647301       0.00000
  43    0.2613       63.8942        0.0005      156.5410      156.5415      92.647301       0.00000
  42    0.3336       63.8941        0.0007      156.5407      156.5414      92.647301      -0.00000
  41    0.4307       63.8939        0.0009      156.5403      156.5412      92.647301       0.00000
  40    0.5894       63.8937        0.0013      156.5397      156.5410      92.647301       0.00000
  39     1.339       63.8927        0.0033      156.5367      156.5400      92.647301       0.00000
  38     1.782       63.8921        0.0044      156.5350      156.5394      92.647301      -0.00000
  37     2.292       63.8914        0.0057      156.5330      156.5387      92.647301       0.00000
  36     2.964       63.8904        0.0074      156.5303      156.5377      92.647301       0.00000
  35     3.853       63.8892        0.0097      156.5268      156.5365      92.647301      -0.00000
  34     5.035       63.8876        0.0127      156.5222      156.5349      92.647301       0.00000
  33     6.613       63.8854        0.0167      156.5160      156.5327      92.647301      -0.00000
  32     8.786       63.8824        0.0221      156.5076      156.5297      92.647301       0.00000
  31     11.80       63.8782        0.0298      156.4957      156.5255      92.647301       0.00000
  30     15.07       63.8737        0.0382      156.4828      156.5210      92.647301       0.00000
  29     18.79       63.8685        0.0476      156.4682      156.5158      92.647301      -0.00000
  28     23.16       63.8625        0.0586      156.4512      156.5098      92.647301       0.00000
  27     28.12       63.8557        0.0713      156.4317      156.5030      92.647301      -0.00000
  26     33.73       63.8480        0.0854      156.4099      156.4953      92.647301       0.00000
  25     40.54       63.8386        0.1025      156.3834      156.4859      92.647301       0.00000
  24     48.69       63.8274        0.1232      156.3515      156.4747      92.647301      -0.00000
  23     57.69       63.8150        0.1459      156.3164      156.4623      92.647301      -0.00000
  22     68.43       63.8002        0.1730      156.2746      156.4475      92.647301      -0.00000
  21     81.20       63.7826        0.2053      156.2246      156.4299      92.647301       0.00000
  20     96.49       63.7616        0.2439      156.1649      156.4089      92.647301      -0.00000
  19     114.6       63.7367        0.2898      156.0879      156.3778      92.641126       0.00288
  18     136.5       63.7071        0.3444      155.9962      156.3405      92.633463       0.00295
  17     162.9       63.6718        0.4095      155.8831      156.2925      92.620728       0.00407
  16     196.4       63.6260        0.4941      155.7199      156.2140      92.588022       0.00823
  15     218.7       63.5961        0.5497      155.5733      156.1230      92.526913       0.02320
  14     243.0       63.5642        0.6101      155.3367      155.9468      92.382622       0.05004
  13     269.0       63.5311        0.6754      154.9514      155.6269      92.095740       0.09306
  12     297.5       63.4984        0.7457      154.3896      155.1353      91.636963       0.13607
  11     328.5       63.4668        0.8214      153.7151      154.5365      91.069775       0.15422
  10     361.9       63.4383        0.9026      152.9087      153.8114      90.373087       0.17627
   9     398.1       63.4162        0.9894      151.8986      152.8880      89.471736       0.20999
   8     437.6       63.4064        1.0814      150.6031      151.6846      88.278197       0.25519
   7     480.5       63.4158        1.1786      149.0014      150.1800      86.764175       0.29735
   6     533.0       63.4652        1.2957      146.7375      148.0333      84.568095       0.35328
   5     589.8       63.5886        1.4179      143.8730      145.2909      81.702222       0.42539
   4     651.6       63.8720        1.5423      140.0955      141.6378      77.765861       0.53831
   3     718.7       64.4404        1.6676      135.5278      137.1953      72.754951       0.62973
   2     792.3       65.6055        1.7902      130.0690      131.8592      66.253704       0.74562
   1     891.5       18.6502       51.3869       26.1362       77.5231      58.872865       0.62807
   0    1013.0       19.4607       48.2171       24.1727       72.3898      52.929090       0.41271



 Wavenumbers: 12850. - 16000. cm-1, ATM      1
 LEVEL PRESSURE   UPWARD FLUX   DIFDOWN FLUX  DIRDOWN FLUX  DOWNWARD FLUX   NET FLUX    HEATING RATE
          mb          W/m2          W/m2          W/m2        W/m2          W/m2       degree/day
  51    .06700       57.6653        0.0000       98.0872       98.0872      40.421912       0.00000
  50    .07753       57.6653        0.0001       98.0864       98.0864      40.421125       0.63095
  49    .09103       57.6653        0.0001       98.0853       98.0854      40.420137       0.61740
  48    0.1069       57.6653        0.0002       98.0841       98.0843      40.419003       0.60351
  47    0.1255       57.6653        0.0003       98.0826       98.0830      40.417702       0.58983
  46    0.1487       57.6653        0.0005       98.0809       98.0813      40.416063       0.59766
  45    0.1794       57.6653        0.0007       98.0784       98.0791      40.413835       0.61140
  44    0.2165       57.6653        0.0009       98.0756       98.0765      40.411220       0.59490
  43    0.2613       57.6653        0.0011       98.0723       98.0735      40.408151       0.57851
  42    0.3336       57.6654        0.0016       98.0670       98.0686      40.403155       0.58252
  41    0.4307       57.6656        0.0021       98.0602       98.0623      40.396713       0.56008
  40    0.5894       57.6660        0.0030       98.0496       98.0526      40.386608       0.53737
  39     1.339       57.6702        0.0074       98.0043       98.0117      40.341574       0.50701
  38     1.782       57.6742        0.0100       97.9793       97.9892      40.315028       0.50539
  37     2.292       57.6804        0.0129       97.9498       97.9627      40.282302       0.54203
  36     2.964       57.6908        0.0168       97.9088       97.9256      40.234814       0.59612
  35     3.853       57.7078        0.0219       97.8503       97.8723      40.164480       0.66748
  34     5.035       57.7336        0.0288       97.7680       97.7968      40.063195       0.72354
  33     6.613       57.7696        0.0379       97.6562       97.6940      39.924470       0.74163
  32     8.786       57.8164        0.0501       97.5107       97.5608      39.744373       0.69943
  31     11.80       57.8771        0.0676       97.3179       97.3855      39.508368       0.66074
  30     15.07       57.9349        0.0864       97.1283       97.2147      39.279787       0.59015
  29     18.79       57.9936        0.1075       96.9300       97.0376      39.043953       0.53471
  28     23.16       58.0545        0.1322       96.7166       96.8488      38.794261       0.48282
  27     28.12       58.1153        0.1605       96.4935       96.6540      38.538613       0.43458
  26     33.73       58.1706        0.1921       96.2731       96.4651      38.294494       0.36704
  25     40.54       58.2227        0.2302       96.0408       96.2710      38.048246       0.30550
  24     48.69       58.2712        0.2762       95.7946       96.0707      37.799543       0.25737
  23     57.69       58.3106        0.3267       95.5573       95.8839      37.573347       0.21203
  22     68.43       58.3425        0.3868       95.3106       95.6974      37.354907       0.17172
  21     81.20       58.3600        0.4586       95.0643       95.5229      37.162882       0.12689
  20     96.49       58.3619        0.5441       94.8153       95.3594      36.997508       0.09127
  19     114.6       58.3632        0.6465       94.5411       95.1876      36.824362       0.08085
  18     136.5       58.3566        0.7679       94.2320       94.9999      36.643335       0.06961
  17     162.9       58.3412        0.9123       93.8753       94.7876      36.446470       0.06293
  16     196.4       58.3052        1.0995       93.4347       94.5342      36.229007       0.05474
  15     218.7       58.2759        1.2224       93.1513       94.3737      36.097804       0.04981
  14     243.0       58.2417        1.3559       92.8439       94.1998      35.958145       0.04844
  13     269.0       58.2026        1.5005       92.5111       94.0116      35.809050       0.04837
  12     297.5       58.1589        1.6567       92.1495       93.8061      35.647245       0.04799
  11     328.5       58.1120        1.8253       91.7554       93.5807      35.468661       0.04856
  10     361.9       58.0627        2.0067       91.3262       93.3330      35.270251       0.05020
   9     398.1       58.0119        2.2018       90.8575       93.0594      35.047426       0.05191
   8     437.6       57.9621        2.4110       90.3418       92.7528      34.790778       0.05487
   7     480.5       57.9154        2.6349       89.7728       92.4077      34.492336       0.05861
   6     533.0       57.8710        2.9098       89.0428       91.9526      34.081649       0.06607
   5     589.8       57.8474        3.2047       88.2038       91.4085      33.561096       0.07727
   4     651.6       57.8717        3.5190       87.1979       90.7169      32.845265       0.09789
   3     718.7       57.9642        3.8513       86.0161       89.8675      31.903230       0.11839
   2     792.3       58.1871        4.1980       84.5970       88.7950      30.607909       0.14856
   1     891.5       32.4763       43.7466       17.6392       61.3858      28.909548       0.14452
   0    1013.0       32.9326       42.9208       17.0360       59.9567      27.024131       0.13091



 Wavenumbers: 16000. - 22650. cm-1, ATM      1
 LEVEL PRESSURE   UPWARD FLUX   DIFDOWN FLUX  DIRDOWN FLUX  DOWNWARD FLUX   NET FLUX    HEATING RATE
          mb          W/m2          W/m2          W/m2        W/m2          W/m2       degree/day
  51    .06700      119.2160        0.0000      156.3892      156.3892      37.173216       0.00000
  50    .07753      119.2160        0.0004      156.3887      156.3891      37.173079       0.11031
  49    .09103      119.2159        0.0008      156.3879      156.3888      37.172878       0.12512
  48    0.1069      119.2158        0.0014      156.3871      156.3885      37.172610       0.14267
  47    0.1255      119.2158        0.0020      156.3861      156.3881      37.172252       0.16263
  46    0.1487      119.2158        0.0028      156.3847      156.3875      37.171723       0.19271
  45    0.1794      119.2158        0.0038      156.3828      156.3867      37.170896       0.22691
  44    0.2165      119.2158        0.0051      156.3805      156.3856      37.169775       0.25502
  43    0.2613      119.2160        0.0066      156.3776      156.3842      37.168254       0.28670
  42    0.3336      119.2164        0.0091      156.3726      156.3817      37.165363       0.33715
  41    0.4307      119.2171        0.0124      156.3657      156.3781      37.161004       0.37900
  40    0.5894      119.2187        0.0177      156.3537      156.3714      37.152691       0.44208
  39     1.339      119.2353        0.0431      156.2834      156.3265      37.091274       0.69144
  38     1.782      119.2514        0.0580      156.2324      156.2904      37.038956       0.99605
  37     2.292      119.2761        0.0753      156.1641      156.2394      36.963229       1.25425
  36     2.964      119.3178        0.0979      156.0605      156.1584      36.840556       1.53992
  35     3.853      119.3859        0.1278      155.9041      156.0319      36.645919       1.84713
  34     5.035      119.4892        0.1674      155.6774      155.8448      36.355574       2.07411
  33     6.613      119.6338        0.2204      155.3656      155.5860      35.952151       2.15670
  32     8.786      119.8219        0.2916      154.9577      155.2492      35.427331       2.03821
  31     11.80      120.0657        0.3932      154.4153      154.8085      34.742792       1.91649
  30     15.07      120.2981        0.5022      153.8804      154.3826      34.084522       1.69953
  29     18.79      120.5341        0.6251      153.3191      153.9442      33.410097       1.52913
  28     23.16      120.7793        0.7684      152.7126      153.4810      32.701720       1.36977
  27     28.12      121.0239        0.9320      152.0755      153.0075      31.983594       1.22077
  26     33.73      121.2465        1.1149      151.4409      152.5558      31.309329       1.01377
  25     40.54      121.4561        1.3356      150.7637      152.0992      30.643183       0.82643
  24     48.69      121.6511        1.6012      150.0338      151.6351      29.983967       0.68219
  23     57.69      121.8096        1.8926      149.3151      151.2077      29.398104       0.54916
  22     68.43      121.9384        2.2391      148.5476      150.7867      28.848363       0.43217
  21     81.20      122.0095        2.6516      147.7517      150.4033      28.393788       0.30038
  20     96.49      122.0178        3.1424      146.9127      150.0550      28.037207       0.19681
  19     114.6      121.9884        3.7232      145.9763      149.6994      27.711006       0.15231
  18     136.5      121.9271        4.4086      144.9088      149.3174      27.390254       0.12334
  17     162.9      121.8300        5.2205      143.6785      148.8991      27.069118       0.10265
  16     196.4      121.6520        6.2674      142.1651      148.4325      26.780462       0.07266
  15     218.7      121.5161        6.9510      141.2033      148.1544      26.638329       0.05396
  14     243.0      121.3596        7.6906      140.1753      147.8659      26.506362       0.04577
  13     269.0      121.1808        8.4879      139.0797      147.5676      26.386776       0.03879
  12     297.5      120.9791        9.3449      137.9141      147.2589      26.279894       0.03170
  11     328.5      120.7570       10.2653      136.6676      146.9329      26.175877       0.02828
  10     361.9      120.5143       11.2499      135.3392      146.5891      26.074837       0.02556
   9     398.1      120.2499       12.3023      133.9235      146.2258      25.975924       0.02304
   8     437.6      119.9642       13.4241      132.4163      145.8404      25.876197       0.02132
   7     480.5      119.6565       14.6172      130.8147      145.4319      25.775347       0.01981
   6     533.0      119.2776       16.0726      128.8599      144.9325      25.654954       0.01937
   5     589.8      118.8720       17.6255      126.7679      144.3934      25.521390       0.01983
   4     651.6      118.4448       19.2768      124.5274      143.8043      25.359468       0.02214
   3     718.7      118.0004       21.0275      122.1285      143.1560      25.155630       0.02562
   2     792.3      117.5528       22.8749      119.5548      142.4298      24.877006       0.03196
   1     891.5       89.4706       89.0895       24.8288      113.9183      24.447721       0.03653
   0    1013.0       89.3028       89.2440       23.9268      113.1708      23.867996       0.04025



 Wavenumbers: 22650. - 29000. cm-1, ATM      1
 LEVEL PRESSURE   UPWARD FLUX   DIFDOWN FLUX  DIRDOWN FLUX  DOWNWARD FLUX   NET FLUX    HEATING RATE
          mb          W/m2          W/m2          W/m2        W/m2          W/m2       degree/day
  51    .06700       49.8634        0.0000       59.0156       59.0156       9.152228       0.00000
  50    .07753       49.8633        0.0004       59.0151       59.0155       9.152228       0.00000
  49    .09103       49.8631        0.0010       59.0144       59.0153       9.152228      -0.00000
  48    0.1069       49.8629        0.0016       59.0136       59.0152       9.152228      -0.00000
  47    0.1255       49.8628        0.0023       59.0127       59.0150       9.152228      -0.00000
  46    0.1487       49.8625        0.0032       59.0115       59.0147       9.152228       0.00000
  45    0.1794       49.8622        0.0045       59.0099       59.0144       9.152228      -0.00000
  44    0.2165       49.8618        0.0060       59.0080       59.0140       9.152228       0.00000
  43    0.2613       49.8613        0.0077       59.0058       59.0135       9.152228       0.00000
  42    0.3336       49.8605        0.0106       59.0022       59.0128       9.152228      -0.00000
  41    0.4307       49.8595        0.0144       58.9973       59.0117       9.152228       0.00000
  40    0.5894       49.8578        0.0207       58.9894       59.0100       9.152228       0.00000
  39     1.339       49.8498        0.0503       58.9518       59.0021       9.152228       0.00000
  38     1.782       49.8452        0.0677       58.9297       58.9974       9.152228      -0.00000
  37     2.292       49.8397        0.0878       58.9042       58.9920       9.152228      -0.00000
  36     2.964       49.8326        0.1142       58.8706       58.9849       9.152228       0.00000
  35     3.853       49.8232        0.1491       58.8264       58.9755       9.152228       0.00000
  34     5.035       49.8108        0.1954       58.7676       58.9630       9.152228       0.00000
  33     6.613       49.7941        0.2572       58.6891       58.9463       9.152228      -0.00000
  32     8.786       49.7716        0.3405       58.5834       58.9239       9.152228       0.00000
  31     11.80       49.7396        0.4593       58.4324       58.8918       9.152228       0.00000
  30     15.07       49.7051        0.5867       58.2706       58.8574       9.152228      -0.00000
  29     18.79       49.6663        0.7303       58.0882       58.8185       9.152228       0.00000
  28     23.16       49.6210        0.8976       57.8757       58.7733       9.152228      -0.00000
  27     28.12       49.5693        1.0882       57.6333       58.7216       9.152228       0.00000
  26     33.73       49.5116        1.3008       57.3631       58.6638       9.152228       0.00000
  25     40.54       49.4421        1.5564       57.0379       58.5943       9.152228      -0.00000
  24     48.69       49.3585        1.8629       56.6479       58.5108       9.152228       0.00000
  23     57.69       49.2671        2.1973       56.2221       58.4194       9.152228      -0.00000
  22     68.43       49.1588        2.5924       55.7186       58.3110       9.152228       0.00000
  21     81.20       49.0305        3.0588       55.1239       58.1827       9.152228       0.00000
  20     96.49       48.8787        3.6081       54.4228       58.0309       9.152228      -0.00000
  19     114.6       48.7001        4.2513       53.6010       57.8523       9.152228       0.00000
  18     136.5       48.4906        5.0010       52.6418       57.6428       9.152228      -0.00000
  17     162.9       48.2442        5.8761       51.5203       57.3964       9.152228       0.00000
  16     196.4       47.9297        6.9825       50.0994       57.0819       9.152228      -0.00000
  15     218.7       47.7261        7.6921       49.1863       56.8783       9.152228       0.00000
  14     243.0       47.5075        8.4484       48.2113       56.6597       9.152228       0.00000
  13     269.0       47.2735        9.2508       47.1749       56.4257       9.152228       0.00000
  12     297.5       47.0241       10.0981       46.0783       56.1764       9.152228      -0.00000
  11     328.5       46.7585       10.9912       44.9195       55.9107       9.152228       0.00000
  10     361.9       46.4769       11.9273       43.7018       55.6291       9.152228       0.00000
   9     398.1       46.1787       12.9059       42.4250       55.3310       9.152228      -0.00000
   8     437.6       45.8640       13.9246       41.0916       55.0162       9.152228       0.00000
   7     480.5       45.5327       14.9804       39.7045       54.6849       9.152228       0.00000
   6     533.0       45.1330       16.2309       38.0543       54.2852       9.152228       0.00000
   5     589.8       44.7116       17.5208       36.3431       53.8638       9.152228      -0.00000
   4     651.6       44.2691       18.8418       34.5795       53.4214       9.152228      -0.00000
   3     718.7       43.8056       20.1876       32.7702       52.9578       9.152228       0.00000
   2     792.3       43.3219       21.5485       30.9256       52.4741       9.152228       0.00000
   1     891.5       34.3000       37.3375        6.1146       43.4521       9.152106       0.00001
   0    1013.0       33.8933       37.4895        5.5558       43.0454       9.152106      -0.00000



 Wavenumbers: 29000. - 38000. cm-1, ATM      1
 LEVEL PRESSURE   UPWARD FLUX   DIFDOWN FLUX  DIRDOWN FLUX  DOWNWARD FLUX   NET FLUX    HEATING RATE
          mb          W/m2          W/m2          W/m2        W/m2          W/m2       degree/day
  51    .06700        7.5996        0.0000       20.8114       20.8114      13.211787       0.00000
  50    .07753        7.5994        0.0003       20.8070       20.8074      13.207981       3.05033
  49    .09103        7.5991        0.0007       20.8009       20.8016      13.202446       3.45945
  48    0.1069        7.5989        0.0012       20.7928       20.7939      13.195039       3.94267
  47    0.1255        7.5986        0.0017       20.7820       20.7837      13.185139       4.48847
  46    0.1487        7.5982        0.0023       20.7665       20.7688      13.170582       5.30619
  45    0.1794        7.5977        0.0032       20.7424       20.7456      13.147927       6.21935
  44    0.2165        7.5972        0.0043       20.7103       20.7146      13.117417       6.94032
  43    0.2613        7.5965        0.0055       20.6675       20.6730      13.076441       7.72380
  42    0.3336        7.5956        0.0075       20.5880       20.5955      12.999917       8.92202
  41    0.4307        7.5943        0.0101       20.4722       20.4824      12.888020       9.72917
  40    0.5894        7.5926        0.0143       20.2637       20.2780      12.685445      10.77266
  39     1.339        7.5878        0.0323       19.0984       19.1306      11.542796      12.86415
  38     1.782        7.5873        0.0415       18.4394       18.4809      10.893572      12.36019
  37     2.292        7.5887        0.0515       17.7714       17.8229      10.234220      10.92058
  36     2.964        7.5932        0.0637       17.0421       17.1059       9.512677       9.05755
  35     3.853        7.6029        0.0790       16.2678       16.3469       8.743972       7.29515
  34     5.035        7.6196        0.0984       15.4803       15.5787       7.959131       5.60658
  33     6.613        7.6442        0.1231       14.7157       14.8388       7.194599       4.08719
  32     8.786        7.6768        0.1555       13.9936       14.1490       6.472230       2.80542
  31     11.80        7.7191        0.2004       13.2835       13.4840       5.764921       1.98024
  30     15.07        7.7595        0.2470       12.7394       12.9864       5.226904       1.38905
  29     18.79        7.8009        0.2986       12.2666       12.5652       4.764291       1.04889
  28     23.16        7.8445        0.3571       11.8300       12.1871       4.342660       0.81530
  27     28.12        7.8886        0.4226       11.4279       11.8504       3.961892       0.64728
  26     33.73        7.9281        0.4946       11.0695       11.5641       3.636003       0.48998
  25     40.54        7.9639        0.5806       10.7209       11.3015       3.337652       0.37014
  24     48.69        7.9955        0.6825       10.3742       11.0567       3.061161       0.28612
  23     57.69        8.0188        0.7926       10.0549       10.8475       2.828676       0.21792
  22     68.43        8.0336        0.9215        9.7327       10.6542       2.620661       0.16353
  21     81.20        8.0316        1.0735        9.4134       10.4869       2.455332       0.10925
  20     96.49        8.0108        1.2519        9.0887       10.3407       2.329877       0.06924
  19     114.6        7.9778        1.4576        8.7388       10.1963       2.218565       0.05198
  18     136.5        7.9347        1.6920        8.3549       10.0469       2.112140       0.04092
  17     162.9        7.8810        1.9582        7.9311        9.8893       2.008360       0.03317
  16     196.4        7.8024        2.2865        7.4333        9.7198       1.917448       0.02288
  15     218.7        7.7484        2.4921        7.1295        9.6217       1.873298       0.01676
  14     243.0        7.6897        2.7063        6.8161        9.5224       1.832670       0.01409
  13     269.0        7.6260        2.9280        6.4943        9.4223       1.796323       0.01179
  12     297.5        7.5574        3.1561        6.1657        9.3218       1.764409       0.00947
  11     328.5        7.4849        3.3895        5.8295        9.2189       1.733982       0.00827
  10     361.9        7.4090        3.6255        5.4886        9.1142       1.705177       0.00729
   9     398.1        7.3295        3.8635        5.1440        9.0075       1.678016       0.00633
   8     437.6        7.2468        4.1018        4.7969        8.8988       1.651972       0.00557
   7     480.5        7.1612        4.3382        4.4504        8.7886       1.627395       0.00483
   6     533.0        7.0598        4.6043        4.0563        8.6605       1.600784       0.00428
   5     589.8        6.9554        4.8624        3.6682        8.5306       1.575221       0.00379
   4     651.6        6.8487        5.1086        3.2905        8.3991       1.550427       0.00339
   3     718.7        6.7397        5.3409        2.9252        8.2661       1.526371       0.00302
   2     792.3        6.6291        5.5558        2.5764        8.1322       1.503066       0.00267
   1     891.5        5.4329        6.4465        0.4634        6.9099       1.477010       0.00222
   0    1013.0        5.3243        6.4002        0.3750        6.7752       1.450903       0.00181



 Wavenumbers: 38000. - 50000. cm-1, ATM      1
 LEVEL PRESSURE   UPWARD FLUX   DIFDOWN FLUX  DIRDOWN FLUX  DOWNWARD FLUX   NET FLUX    HEATING RATE
          mb          W/m2          W/m2          W/m2        W/m2          W/m2       degree/day
  51    .06700        0.0061        0.0000        1.2836        1.2836       1.277518       0.00000
  50    .07753        0.0061        0.0001        1.2812        1.2812       1.275183       1.87150
  49    .09103        0.0060        0.0002        1.2777        1.2778       1.271851       2.08247
  48    0.1069        0.0059        0.0002        1.2731        1.2734       1.267473       2.33059
  47    0.1255        0.0058        0.0004        1.2672        1.2675       1.261717       2.60908
  46    0.1487        0.0057        0.0005        1.2586        1.2591       1.253391       3.03499
  45    0.1794        0.0055        0.0007        1.2455        1.2462       1.240623       3.50520
  44    0.2165        0.0054        0.0009        1.2282        1.2291       1.223697       3.85037
  43    0.2613        0.0052        0.0011        1.2054        1.2065       1.201348       4.21261
  42    0.3336        0.0049        0.0015        1.1639        1.1654       1.160524       4.75970
  41    0.4307        0.0045        0.0020        1.1051        1.1070       1.102565       5.03943
  40    0.5894        0.0039        0.0026        1.0039        1.0064       1.002524       5.32007
  39     1.339        0.0022        0.0035        0.5438        0.5473       0.545104       5.14971
  38     1.782        0.0016        0.0032        0.3635        0.3666       0.365006       3.42879
  37     2.292        0.0012        0.0027        0.2356        0.2383       0.237058       2.11916
  36     2.964        0.0009        0.0022        0.1455        0.1477       0.146786       1.13318
  35     3.853        0.0006        0.0017        0.0858        0.0875       0.086906       0.56828
  34     5.035        0.0004        0.0013        0.0488        0.0501       0.049701       0.26578
  33     6.613        0.0003        0.0010        0.0273        0.0282       0.027974       0.11615
  32     8.786        0.0002        0.0007        0.0144        0.0151       0.014928       0.05067
  31     11.80        0.0001        0.0004        0.0065        0.0070       0.006903       0.02247
  30     15.07        0.0000        0.0003        0.0031        0.0034       0.003329       0.00923
  29     18.79        0.0000        0.0002        0.0014        0.0016       0.001583       0.00396
  28     23.16        0.0000        0.0001        0.0006        0.0007       0.000720       0.00167
  27     28.12        0.0000        0.0001        0.0003        0.0003       0.000317       0.00069
  26     33.73        0.0000        0.0000        0.0001        0.0001       0.000140       0.00027
  25     40.54        0.0000        0.0000        0.0000        0.0001       0.000057       0.00010
  24     48.69        0.0000        0.0000        0.0000        0.0000       0.000021       0.00004
  23     57.69        0.0000        0.0000        0.0000        0.0000       0.000008       0.00001
  22     68.43        0.0000        0.0000        0.0000        0.0000       0.000003       0.00000
  21     81.20        0.0000        0.0000        0.0000        0.0000       0.000001       0.00000
  20     96.49        0.0000        0.0000        0.0000        0.0000       0.000000       0.00000
  19     114.6        0.0000        0.0000        0.0000        0.0000       0.000000       0.00000
  18     136.5        0.0000        0.0000        0.0000        0.0000       0.000000       0.00000
  17     162.9        0.0000        0.0000        0.0000        0.0000       0.000000       0.00000
  16     196.4        0.0000        0.0000        0.0000        0.0000       0.000000       0.00000
  15     218.7        0.0000        0.0000        0.0000        0.0000       0.000000       0.00000
  14     243.0        0.0000        0.0000        0.0000        0.0000       0.000000       0.00000
  13     269.0        0.0000        0.0000        0.0000        0.0000       0.000000       0.00000
  12     297.5        0.0000        0.0000        0.0000        0.0000       0.000000       0.00000
  11     328.5        0.0000        0.0000        0.0000        0.0000       0.000000       0.00000
  10     361.9        0.0000        0.0000        0.0000        0.0000       0.000000       0.00000
   9     398.1        0.0000        0.0000        0.0000        0.0000       0.000000       0.00000
   8     437.6        0.0000        0.0000        0.0000        0.0000       0.000000       0.00000
   7     480.5        0.0000        0.0000        0.0000        0.0000       0.000000       0.00000
   6     533.0        0.0000        0.0000        0.0000        0.0000       0.000000       0.00000
   5     589.8        0.0000        0.0000        0.0000        0.0000       0.000000       0.00000
   4     651.6        0.0000        0.0000        0.0000        0.0000       0.000000       0.00000
   3     718.7        0.0000        0.0000        0.0000        0.0000       0.000000       0.00000
   2     792.3        0.0000        0.0000        0.0000        0.0000       0.000000       0.00000
   1     891.5        0.0000        0.0000        0.0000        0.0000       0.000000       0.00000
   0    1013.0        0.0000        0.0000        0.0000        0.0000       0.000000       0.00000



 Wavenumbers:   820. -  2600. cm-1, ATM      1
 LEVEL PRESSURE   UPWARD FLUX   DIFDOWN FLUX  DIRDOWN FLUX  DOWNWARD FLUX   NET FLUX    HEATING RATE
          mb          W/m2          W/m2          W/m2        W/m2          W/m2       degree/day
  51    .06700        0.8704        0.0000        6.0047        6.0047       5.134283       0.00000
  50    .07753        0.8704        0.0000        6.0008        6.0008       5.130430       3.08822
  49    .09103        0.8704        0.0000        5.9999        5.9999       5.129544       0.55359
  48    0.1069        0.8704        0.0000        5.9989        5.9989       5.128555       0.52653
  47    0.1255        0.8704        0.0000        5.9978        5.9978       5.127437       0.50651
  46    0.1487        0.8704        0.0000        5.9964        5.9964       5.126081       0.49458
  45    0.1794        0.8704        0.0000        5.9947        5.9947       5.124361       0.47201
  44    0.2165        0.8704        0.0000        5.9929        5.9929       5.122519       0.41911
  43    0.2613        0.8704        0.0000        5.9909        5.9909       5.120559       0.36934
  42    0.3336        0.8704        0.0000        5.9880        5.9880       5.117681       0.33557
  41    0.4307        0.8704        0.0000        5.9846        5.9846       5.114212       0.30166
  40    0.5894        0.8704        0.0000        5.9791        5.9791       5.108706       0.29277
  39     1.339        0.8704        0.0000        5.9536        5.9536       5.083218       0.28695
  38     1.782        0.8704        0.0000        5.9395        5.9395       5.069079       0.26918
  37     2.292        0.8704        0.0000        5.9237        5.9237       5.053327       0.26090
  36     2.964        0.8704        0.0000        5.9039        5.9039       5.033552       0.24824
  35     3.853        0.8704        0.0000        5.8793        5.8793       5.008894       0.23401
  34     5.035        0.8704        0.0000        5.8487        5.8487       4.978329       0.21835
  33     6.613        0.8704        0.0000        5.8108        5.8108       4.940361       0.20297
  32     8.786        0.8704        0.0000        5.7631        5.7631       4.892733       0.18497
  31     11.80        0.8704        0.0000        5.7039        5.7039       4.833470       0.16592
  30     15.07        0.8704        0.0000        5.6539        5.6539       4.783424       0.12921
  29     18.79        0.8705        0.0000        5.6127        5.6127       4.742279       0.09329
  28     23.16        0.8705        0.0000        5.5794        5.5794       4.708891       0.06456
  27     28.12        0.8705        0.0000        5.5518        5.5518       4.681310       0.04689
  26     33.73        0.8705        0.0000        5.5268        5.5268       4.656239       0.03769
  25     40.54        0.8706        0.0000        5.4993        5.4993       4.628773       0.03408
  24     48.69        0.8706        0.0000        5.4678        5.4678       4.597202       0.03267
  23     57.69        0.8706        0.0000        5.4340        5.4340       4.563380       0.03170
  22     68.43        0.8707        0.0000        5.3947        5.3948       4.524064       0.03091
  21     81.20        0.8708        0.0000        5.3497        5.3497       4.478978       0.02979
  20     96.49        0.8708        0.0000        5.2982        5.2982       4.427397       0.02847
  19     114.6        0.8709        0.0000        5.2389        5.2389       4.367992       0.02774
  18     136.5        0.8710        0.0000        5.1716        5.1717       4.300630       0.02590
  17     162.9        0.8712        0.0000        5.0890        5.0890       4.217847       0.02646
  16     196.4        0.8715        0.0000        4.9668        4.9668       4.095344       0.03084
  15     218.7        0.8718        0.0000        4.8585        4.8585       3.986704       0.04125
  14     243.0        0.8722        0.0000        4.7078        4.7079       3.835637       0.05239
  13     269.0        0.8729        0.0000        4.5343        4.5343       3.661386       0.05653
  12     297.5        0.8740        0.0000        4.3419        4.3420       3.467989       0.05736
  11     328.5        0.8754        0.0000        4.1281        4.1281       3.252717       0.05853
  10     361.9        0.8774        0.0000        3.8786        3.8787       3.001323       0.06361
   9     398.1        0.8799        0.0000        3.6159        3.6159       2.736096       0.06179
   8     437.6        0.8831        0.0000        3.3759        3.3759       2.492792       0.05202
   7     480.5        0.8871        0.0000        3.1957        3.1958       2.308713       0.03615
   6     533.0        0.8931        0.0000        3.0467        3.0467       2.153588       0.02495
   5     589.8        0.9020        0.0000        2.9023        2.9023       2.000278       0.02276
   4     651.6        0.9176        0.0000        2.7183        2.7184       1.800784       0.02728
   3     718.7        0.9444        0.0000        2.5058        2.5059       1.561484       0.03007
   2     792.3        0.9953        0.0000        2.2756        2.2757       1.280378       0.03224
   1     891.5        0.2124        0.7691        0.4198        1.1889       0.976543       0.02585
   0    1013.0        0.2568        0.6217        0.3310        0.9527       0.695902       0.01949

  Modules and versions used in this calculation:

       rrtmg_sw.1col.f90:  $Revision$                    rrtmg_sw_init.f90:  $Revision$        
     rrtmgsw_cldprop.f90:  $Revision$                  rrtmgsw_cldprmc.f90:  NOT USED          
     rrtmg_sw_reftra.f90:  $Revision$                  rrtmg_sw_spcvrt.f90:  NOT USED          
     rrtmg_sw_spcvmc.f90:  NOT USED                    rrtmgsw_setcoef.f90:  NOT USED          
     rrtmg_sw_taumol.f90:  $Revision$                  rrtmg_sw_vrtqdr.f90:  NOT USED          
                rrtatm.f:  NOT USED                             util_xxx.f:  NOT USED          
                 extra.f:  NOT USED                       rrtmg_sw_k_g.f90:  $Revision$        

