

 Wavenumbers:   820. - 50000. cm-1, ATM      1
 LEVEL PRESSURE   UPWARD FLUX   DIFDOWN FLUX  DIRDOWN FLUX  DOWNWARD FLUX   NET FLUX    HEATING RATE
          mb          W/m2          W/m2          W/m2        W/m2          W/m2       degree/day
  51    .06700      265.7644        0.0000      617.8126      617.8126     352.048192       0.00000
  50    .07753      265.7639        0.0013      617.7947      617.7960     352.032075      12.91824
  49    .09103      265.7633        0.0029      617.7778      617.7806     352.017298       9.23616
  48    0.1069      265.7627        0.0047      617.7581      617.7628     352.000079       9.16558
  47    0.1255      265.7620        0.0068      617.7340      617.7408     351.978791       9.65109
  46    0.1487      265.7612        0.0095      617.7009      617.7104     351.949187      10.79083
  45    0.1794      265.7601        0.0131      617.6521      617.6652     351.905083      12.10756
  44    0.2165      265.7590        0.0174      617.5895      617.6069     351.847933      13.00071
  43    0.2613      265.7577        0.0225      617.5089      617.5314     351.773650      14.00193
  42    0.3336      265.7559        0.0308      617.3641      617.3949     351.639001      15.69884
  41    0.4307      265.7539        0.0418      617.1591      617.2009     351.447030      16.69137
  40    0.5894      265.7514        0.0595      616.8005      616.8600     351.108580      17.99837
  39     1.339      265.7545        0.1393      614.9443      615.0835     349.329035      20.03444
  38     1.782      265.7666        0.1841      613.9670      614.1511     348.384440      17.98358
  37     2.292      265.7900        0.2349      613.0059      613.2408     347.450867      15.46239
  36     2.964      265.8345        0.3010      611.9577      612.2587     346.424208      12.88767
  35     3.853      265.9127        0.3877      610.8024      611.1901     345.277402      10.88340
  34     5.035      266.0356        0.5019      609.5327      610.0346     343.999076       9.13183
  33     6.613      266.2100        0.6535      608.1464      608.8000     342.589975       7.53306
  32     8.786      266.4365        0.8568      606.6250      607.4819     341.045349       5.99877
  31     11.80      266.7265        1.1461      604.8486      605.9948     339.268301       4.97517
  30     15.07      266.9981        1.4547      603.2440      604.6986     337.700532       4.04767
  29     18.79      267.2695        1.8017      601.6511      603.4528     336.183360       3.43989
  28     23.16      267.5456        2.2047      599.9927      602.1974     334.651828       2.96149
  27     28.12      267.8134        2.6632      598.2881      600.9512     333.137796       2.57375
  26     33.73      268.0430        3.1740      596.5951      599.7691     331.726161       2.12243
  25     40.54      268.2384        3.7888      594.7727      598.5615     330.323093       1.74066
  24     48.69      268.3947        4.5260      592.7865      597.3125     328.917791       1.45427
  23     57.69      268.4894        5.3313      590.7959      596.1272     327.637781       1.19982
  22     68.43      268.5188        6.2847      588.6191      594.9038     326.385042       0.98482
  21     81.20      268.4376        7.4143      586.2690      593.6832     325.245625       0.75291
  20     96.49      268.2333        8.7505      583.6961      592.4466     324.213336       0.56975
  19     114.6      267.9465       10.3207      580.7708      591.0915     323.145007       0.49883
  18     136.5      267.5717       12.1569      577.4359      589.5928     322.021092       0.43217
  17     162.9      267.0959       14.3086      573.5624      587.8710     320.775139       0.39826
  16     196.4      266.4101       17.0474      568.5907      585.6381     319.227999       0.38943
  15     218.7      265.9369       18.8152      565.0572      583.8724     317.935423       0.49074
  14     243.0      265.4148       20.7084      560.7495      581.4580     316.043117       0.65631
  13     269.0      264.8418       22.7279      555.3947      578.1225     313.280715       0.89611
  12     297.5      264.2177       24.8732      548.9964      573.8696     309.651960       1.07625
  11     328.5      263.5463       27.1498      542.0895      569.2393     305.693036       1.07642
  10     361.9      262.8289       29.5530      534.6242      564.1772     301.348301       1.09926
   9     398.1      262.0653       32.0859      526.4204      558.5064     296.441071       1.14327
   8     437.6      261.2595       34.7463      517.3907      552.1369     290.877398       1.18955
   7     480.5      260.4144       37.5308      507.7216      545.2524     284.837962       1.18612
   6     533.0      259.4072       40.8676      495.9006      536.7683     277.361096       1.20279
   5     589.8      258.3777       44.3556      483.0788      527.4344     269.056781       1.23263
   4     651.6      257.3758       47.9803      468.6907      516.6709     259.295135       1.33493
   3     718.7      256.4519       51.7317      453.2257      504.9574     248.505592       1.35595
   2     792.3      255.7334       55.5871      436.4928      492.0800     236.346527       1.39451
   1     891.5      255.4355       60.5350      413.9344      474.4694     219.033879       1.47322
   0    1013.0      256.6759       66.1125      388.4125      454.5250     197.849116       1.47097



 Wavenumbers:  2600. -  3250. cm-1, ATM      1
 LEVEL PRESSURE   UPWARD FLUX   DIFDOWN FLUX  DIRDOWN FLUX  DOWNWARD FLUX   NET FLUX    HEATING RATE
          mb          W/m2          W/m2          W/m2        W/m2          W/m2       degree/day
  51    .06700        0.3923        0.0000        5.4450        5.4450       5.052709       0.00000
  50    .07753        0.3923        0.0000        5.4450        5.4450       5.052701       0.00640
  49    .09103        0.3923        0.0000        5.4450        5.4450       5.052691       0.00627
  48    0.1069        0.3923        0.0000        5.4450        5.4450       5.052679       0.00613
  47    0.1255        0.3923        0.0000        5.4450        5.4450       5.052666       0.00599
  46    0.1487        0.3923        0.0000        5.4450        5.4450       5.052649       0.00608
  45    0.1794        0.3923        0.0000        5.4450        5.4450       5.052627       0.00625
  44    0.2165        0.3923        0.0000        5.4449        5.4449       5.052600       0.00612
  43    0.2613        0.3923        0.0000        5.4449        5.4449       5.052568       0.00600
  42    0.3336        0.3923        0.0000        5.4448        5.4448       5.052515       0.00617
  41    0.4307        0.3923        0.0000        5.4448        5.4448       5.052444       0.00620
  40    0.5894        0.3923        0.0000        5.4446        5.4446       5.052324       0.00637
  39     1.339        0.3923        0.0000        5.4439        5.4439       5.051616       0.00797
  38     1.782        0.3923        0.0000        5.4434        5.4434       5.051073       0.01034
  37     2.292        0.3923        0.0000        5.4427        5.4427       5.050357       0.01186
  36     2.964        0.3923        0.0000        5.4416        5.4416       5.049319       0.01304
  35     3.853        0.3923        0.0000        5.4402        5.4402       5.047842       0.01402
  34     5.035        0.3923        0.0000        5.4381        5.4381       5.045786       0.01468
  33     6.613        0.3923        0.0000        5.4353        5.4353       5.043005       0.01487
  32     8.786        0.3923        0.0000        5.4317        5.4317       5.039373       0.01411
  31     11.80        0.3923        0.0000        5.4269        5.4269       5.034593       0.01338
  30     15.07        0.3923        0.0000        5.4224        5.4224       5.030066       0.01169
  29     18.79        0.3923        0.0000        5.4180        5.4180       5.025654       0.01000
  28     23.16        0.3923        0.0000        5.4135        5.4135       5.021169       0.00867
  27     28.12        0.3923        0.0000        5.4088        5.4088       5.016521       0.00790
  26     33.73        0.3923        0.0000        5.4036        5.4036       5.011281       0.00788
  25     40.54        0.3923        0.0000        5.3966        5.3967       5.004339       0.00861
  24     48.69        0.3923        0.0000        5.3872        5.3872       4.994863       0.00981
  23     57.69        0.3923        0.0000        5.3754        5.3754       4.983079       0.01105
  22     68.43        0.3923        0.0000        5.3599        5.3599       4.967591       0.01218
  21     81.20        0.3923        0.0000        5.3401        5.3401       4.947757       0.01311
  20     96.49        0.3923        0.0000        5.3155        5.3155       4.923190       0.01356
  19     114.6        0.3924        0.0000        5.2853        5.2853       4.892991       0.01410
  18     136.5        0.3924        0.0001        5.2504        5.2505       4.858081       0.01342
  17     162.9        0.3924        0.0001        5.2111        5.2111       4.818733       0.01258
  16     196.4        0.3925        0.0001        5.1640        5.1641       4.771629       0.01186
  15     218.7        0.3925        0.0001        5.1331        5.1332       4.740638       0.01177
  14     243.0        0.3927        0.0001        5.0962        5.0963       4.703628       0.01284
  13     269.0        0.3929        0.0001        5.0511        5.0512       4.658315       0.01470
  12     297.5        0.3932        0.0001        4.9956        4.9957       4.602538       0.01654
  11     328.5        0.3936        0.0001        4.9304        4.9305       4.536898       0.01785
  10     361.9        0.3942        0.0001        4.8511        4.8512       4.457067       0.02020
   9     398.1        0.3949        0.0001        4.7507        4.7508       4.355888       0.02357
   8     437.6        0.3960        0.0001        4.6220        4.6222       4.226200       0.02773
   7     480.5        0.3974        0.0002        4.4625        4.4626       4.065229       0.03161
   6     533.0        0.3997        0.0002        4.2460        4.2462       3.846539       0.03518
   5     589.8        0.4030        0.0002        3.9954        3.9956       3.592561       0.03770
   4     651.6        0.4083        0.0002        3.7089        3.7090       3.300721       0.03991
   3     718.7        0.4165        0.0002        3.4018        3.4020       2.985480       0.03962
   2     792.3        0.4299        0.0002        3.0564        3.0566       2.626660       0.04115
   1     891.5        0.4603        0.0002        2.5828        2.5830       2.122638       0.04289
   0    1013.0        0.5318        0.0002        2.0845        2.0847       1.552876       0.03956



 Wavenumbers:  3250. -  4000. cm-1, ATM      1
 LEVEL PRESSURE   UPWARD FLUX   DIFDOWN FLUX  DIRDOWN FLUX  DOWNWARD FLUX   NET FLUX    HEATING RATE
          mb          W/m2          W/m2          W/m2        W/m2          W/m2       degree/day
  51    .06700        0.0006        0.0000        9.1795        9.1795       9.178969       0.00000
  50    .07753        0.0006        0.0000        9.1747        9.1747       9.174126       3.88148
  49    .09103        0.0006        0.0000        9.1713        9.1713       9.170738       2.11747
  48    0.1069        0.0006        0.0000        9.1688        9.1688       9.168213       1.34402
  47    0.1255        0.0006        0.0000        9.1665        9.1665       9.165954       1.02422
  46    0.1487        0.0006        0.0000        9.1641        9.1641       9.163513       0.88991
  45    0.1794        0.0006        0.0000        9.1612        9.1612       9.160635       0.79008
  44    0.2165        0.0006        0.0000        9.1583        9.1583       9.157715       0.66430
  43    0.2613        0.0006        0.0000        9.1553        9.1553       9.154741       0.56041
  42    0.3336        0.0006        0.0000        9.1511        9.1511       9.150563       0.48723
  41    0.4307        0.0006        0.0000        9.1464        9.1464       9.145794       0.41459
  40    0.5894        0.0006        0.0000        9.1393        9.1394       9.138789       0.37255
  39     1.339        0.0006        0.0000        9.1127        9.1127       9.112175       0.29962
  38     1.782        0.0006        0.0000        9.1011        9.1011       9.100587       0.22062
  37     2.292        0.0006        0.0000        9.0901        9.0901       9.089520       0.18329
  36     2.964        0.0006        0.0000        9.0776        9.0776       9.077090       0.15603
  35     3.853        0.0006        0.0000        9.0629        9.0629       9.062300       0.14036
  34     5.035        0.0006        0.0000        9.0441        9.0441       9.043561       0.13386
  33     6.613        0.0006        0.0000        9.0191        9.0191       9.018560       0.13366
  32     8.786        0.0005        0.0000        8.9843        8.9843       8.983776       0.13509
  31     11.80        0.0005        0.0000        8.9327        8.9327       8.932160       0.14451
  30     15.07        0.0005        0.0000        8.8758        8.8759       8.875315       0.14676
  29     18.79        0.0005        0.0000        8.8110        8.8110       8.810488       0.14698
  28     23.16        0.0005        0.0000        8.7365        8.7366       8.736043       0.14395
  27     28.12        0.0005        0.0000        8.6554        8.6555       8.654930       0.13789
  26     33.73        0.0005        0.0000        8.5719        8.5719       8.571430       0.12554
  25     40.54        0.0005        0.0001        8.4812        8.4812       8.480706       0.11255
  24     48.69        0.0005        0.0001        8.3838        8.3839       8.383405       0.10069
  23     57.69        0.0005        0.0001        8.2861        8.2862       8.285670       0.09161
  22     68.43        0.0005        0.0001        8.1751        8.1751       8.174673       0.08726
  21     81.20        0.0005        0.0001        8.0457        8.0458       8.045315       0.08548
  20     96.49        0.0004        0.0001        7.8949        7.8950       7.894612       0.08318
  19     114.6        0.0004        0.0001        7.7162        7.7163       7.715902       0.08344
  18     136.5        0.0004        0.0002        7.5193        7.5194       7.519059       0.07569
  17     162.9        0.0004        0.0002        7.2913        7.2915       7.291167       0.07284
  16     196.4        0.0003        0.0002        6.9660        6.9662       6.965895       0.08187
  15     218.7        0.0003        0.0002        6.6648        6.6650       6.664706       0.11435
  14     243.0        0.0003        0.0002        6.2619        6.2622       6.261912       0.13970
  13     269.0        0.0003        0.0003        5.7576        5.7579       5.757613       0.16359
  12     297.5        0.0002        0.0003        5.1719        5.1722       5.171922       0.17371
  11     328.5        0.0002        0.0002        4.5757        4.5760       4.575762       0.16209
  10     361.9        0.0002        0.0002        3.9995        3.9998       3.999587       0.14578
   9     398.1        0.0002        0.0002        3.4655        3.4657       3.465530       0.12442
   8     437.6        0.0002        0.0002        2.9740        2.9742       2.974082       0.10507
   7     480.5        0.0002        0.0002        2.5307        2.5309       2.530709       0.08708
   6     533.0        0.0001        0.0002        2.0614        2.0616       2.061411       0.07550
   5     589.8        0.0001        0.0002        1.6150        1.6151       1.614979       0.06627
   4     651.6        0.0002        0.0001        1.1565        1.1566       1.156427       0.06271
   3     718.7        0.0002        0.0001        0.7390        0.7391       0.738910       0.05247
   2     792.3        0.0003        0.0001        0.3985        0.3985       0.398215       0.03907
   1     891.5        0.0009        0.0000        0.1139        0.1139       0.113026       0.02427
   0    1013.0        0.0089        0.0000        0.0094        0.0094       0.000485       0.00781



 Wavenumbers:  4000. -  4650. cm-1, ATM      1
 LEVEL PRESSURE   UPWARD FLUX   DIFDOWN FLUX  DIRDOWN FLUX  DOWNWARD FLUX   NET FLUX    HEATING RATE
          mb          W/m2          W/m2          W/m2        W/m2          W/m2       degree/day
  51    .06700        1.0026        0.0000       10.7795       10.7795       9.776944       0.00000
  50    .07753        1.0026        0.0000       10.7795       10.7795       9.776943       0.00080
  49    .09103        1.0026        0.0000       10.7795       10.7795       9.776942       0.00078
  48    0.1069        1.0026        0.0000       10.7795       10.7795       9.776940       0.00076
  47    0.1255        1.0026        0.0000       10.7795       10.7795       9.776939       0.00075
  46    0.1487        1.0026        0.0000       10.7795       10.7795       9.776937       0.00076
  45    0.1794        1.0026        0.0000       10.7795       10.7795       9.776934       0.00078
  44    0.2165        1.0026        0.0000       10.7795       10.7795       9.776931       0.00076
  43    0.2613        1.0026        0.0000       10.7795       10.7795       9.776927       0.00075
  42    0.3336        1.0026        0.0000       10.7795       10.7795       9.776920       0.00077
  41    0.4307        1.0026        0.0000       10.7795       10.7795       9.776911       0.00077
  40    0.5894        1.0026        0.0000       10.7795       10.7795       9.776896       0.00080
  39     1.339        1.0026        0.0000       10.7794       10.7794       9.776807       0.00101
  38     1.782        1.0026        0.0000       10.7793       10.7793       9.776737       0.00133
  37     2.292        1.0026        0.0000       10.7792       10.7792       9.776643       0.00156
  36     2.964        1.0026        0.0000       10.7791       10.7791       9.776503       0.00176
  35     3.853        1.0026        0.0000       10.7789       10.7789       9.776295       0.00197
  34     5.035        1.0026        0.0000       10.7786       10.7786       9.775988       0.00219
  33     6.613        1.0026        0.0000       10.7781       10.7781       9.775537       0.00241
  32     8.786        1.0026        0.0000       10.7774       10.7774       9.774871       0.00259
  31     11.80        1.0026        0.0000       10.7763       10.7764       9.773825       0.00293
  30     15.07        1.0026        0.0001       10.7751       10.7751       9.772598       0.00317
  29     18.79        1.0025        0.0001       10.7736       10.7737       9.771115       0.00336
  28     23.16        1.0025        0.0001       10.7717       10.7718       9.769276       0.00356
  27     28.12        1.0025        0.0001       10.7695       10.7696       9.767049       0.00378
  26     33.73        1.0025        0.0001       10.7667       10.7668       9.764306       0.00412
  25     40.54        1.0025        0.0002       10.7629       10.7631       9.760588       0.00461
  24     48.69        1.0025        0.0002       10.7579       10.7581       9.755638       0.00512
  23     57.69        1.0024        0.0002       10.7520       10.7522       9.749777       0.00549
  22     68.43        1.0024        0.0003       10.7446       10.7449       9.742439       0.00577
  21     81.20        1.0024        0.0003       10.7355       10.7358       9.733418       0.00596
  20     96.49        1.0024        0.0004       10.7245       10.7248       9.722459       0.00605
  19     114.6        1.0024        0.0004       10.7107       10.7111       9.708786       0.00638
  18     136.5        1.0023        0.0005       10.6942       10.6947       9.692350       0.00632
  17     162.9        1.0024        0.0006       10.6740       10.6746       9.672263       0.00642
  16     196.4        1.0024        0.0007       10.6464       10.6471       9.644676       0.00694
  15     218.7        1.0025        0.0008       10.6255       10.6263       9.623778       0.00793
  14     243.0        1.0026        0.0009       10.5980       10.5989       9.596317       0.00952
  13     269.0        1.0029        0.0010       10.5611       10.5621       9.559202       0.01204
  12     297.5        1.0033        0.0011       10.5119       10.5130       9.509756       0.01467
  11     328.5        1.0038        0.0012       10.4499       10.4511       9.447218       0.01700
  10     361.9        1.0046        0.0013       10.3702       10.3715       9.366856       0.02033
   9     398.1        1.0056        0.0014       10.2678       10.2692       9.263593       0.02406
   8     437.6        1.0069        0.0015       10.1390       10.1405       9.133685       0.02778
   7     480.5        1.0084        0.0017        9.9877        9.9894       8.980958       0.03000
   6     533.0        1.0108        0.0018        9.7937        9.7955       8.784738       0.03157
   5     589.8        1.0141        0.0020        9.5752        9.5771       8.563074       0.03290
   4     651.6        1.0191        0.0021        9.2958        9.2979       8.278799       0.03888
   3     718.7        1.0270        0.0023        8.9267        8.9290       7.901954       0.04736
   2     792.3        1.0401        0.0024        8.4542        8.4566       7.416459       0.05568
   1     891.5        1.0703        0.0025        7.7948        7.7973       6.726962       0.05867
   0    1013.0        1.1407        0.0026        7.0767        7.0792       5.938549       0.05474



 Wavenumbers:  4650. -  5150. cm-1, ATM      1
 LEVEL PRESSURE   UPWARD FLUX   DIFDOWN FLUX  DIRDOWN FLUX  DOWNWARD FLUX   NET FLUX    HEATING RATE
          mb          W/m2          W/m2          W/m2        W/m2          W/m2       degree/day
  51    .06700        0.7319        0.0000       10.2033       10.2033       9.471430       0.00000
  50    .07753        0.7319        0.0000       10.2031       10.2031       9.471194       0.18901
  49    .09103        0.7319        0.0000       10.2028       10.2028       9.470899       0.18428
  48    0.1069        0.7319        0.0000       10.2025       10.2025       9.470562       0.17931
  47    0.1255        0.7319        0.0000       10.2021       10.2021       9.470178       0.17426
  46    0.1487        0.7319        0.0000       10.2016       10.2016       9.469697       0.17536
  45    0.1794        0.7319        0.0000       10.2010       10.2010       9.469047       0.17850
  44    0.2165        0.7319        0.0000       10.2002       10.2002       9.468287       0.17277
  43    0.2613        0.7319        0.0000       10.1993       10.1993       9.467402       0.16690
  42    0.3336        0.7319        0.0000       10.1979       10.1979       9.465969       0.16702
  41    0.4307        0.7319        0.0000       10.1960       10.1960       9.464129       0.16002
  40    0.5894        0.7319        0.0000       10.1932       10.1932       9.461255       0.15283
  39     1.339        0.7319        0.0000       10.1816       10.1816       9.449664       0.13050
  38     1.782        0.7319        0.0000       10.1760       10.1760       9.444135       0.10525
  37     2.292        0.7319        0.0000       10.1706       10.1706       9.438679       0.09037
  36     2.964        0.7319        0.0000       10.1646       10.1647       9.432757       0.07434
  35     3.853        0.7319        0.0000       10.1584       10.1584       9.426543       0.05897
  34     5.035        0.7319        0.0000       10.1521       10.1521       9.420209       0.04525
  33     6.613        0.7319        0.0000       10.1456       10.1456       9.413755       0.03451
  32     8.786        0.7319        0.0001       10.1386       10.1386       9.406749       0.02721
  31     11.80        0.7319        0.0001       10.1295       10.1296       9.397717       0.02529
  30     15.07        0.7318        0.0001       10.1196       10.1197       9.387849       0.02548
  29     18.79        0.7318        0.0001       10.1076       10.1077       9.375856       0.02719
  28     23.16        0.7318        0.0001       10.0923       10.0924       9.360571       0.02956
  27     28.12        0.7318        0.0002       10.0731       10.0733       9.341503       0.03241
  26     33.73        0.7318        0.0002       10.0500       10.0502       9.318444       0.03467
  25     40.54        0.7318        0.0002       10.0201       10.0204       9.288588       0.03704
  24     48.69        0.7318        0.0003        9.9820        9.9822       9.250483       0.03943
  23     57.69        0.7317        0.0003        9.9384        9.9388       9.207027       0.04073
  22     68.43        0.7317        0.0004        9.8858        9.8861       9.154406       0.04137
  21     81.20        0.7317        0.0005        9.8234        9.8239       9.092167       0.04113
  20     96.49        0.7317        0.0005        9.7518        9.7523       9.020556       0.03952
  19     114.6        0.7318        0.0006        9.6719        9.6726       8.940781       0.03725
  18     136.5        0.7318        0.0007        9.5858        9.5865       8.854717       0.03309
  17     162.9        0.7319        0.0009        9.4940        9.4949       8.762996       0.02932
  16     196.4        0.7321        0.0010        9.3883        9.3893       8.657219       0.02663
  15     218.7        0.7323        0.0012        9.3229        9.3241       8.591805       0.02484
  14     243.0        0.7325        0.0013        9.2520        9.2533       8.520742       0.02465
  13     269.0        0.7329        0.0014        9.1717        9.1731       8.440195       0.02613
  12     297.5        0.7334        0.0015        9.0763        9.0778       8.344400       0.02841
  11     328.5        0.7342        0.0017        8.9650        8.9666       8.232485       0.03043
  10     361.9        0.7352        0.0018        8.8349        8.8367       8.101589       0.03312
   9     398.1        0.7365        0.0020        8.6820        8.6840       7.947525       0.03589
   8     437.6        0.7382        0.0021        8.5028        8.5049       7.766728       0.03866
   7     480.5        0.7405        0.0023        8.2948        8.2971       7.556618       0.04126
   6     533.0        0.7440        0.0025        8.0209        8.0233       7.279378       0.04460
   5     589.8        0.7488        0.0026        7.7063        7.7090       6.960128       0.04739
   4     651.6        0.7560        0.0028        7.3412        7.3440       6.588034       0.05088
   3     718.7        0.7666        0.0029        6.9387        6.9416       6.175019       0.05190
   2     792.3        0.7827        0.0030        6.5066        6.5096       5.726939       0.05139
   1     891.5        0.8164        0.0031        5.9361        5.9392       5.122825       0.05141
   0    1013.0        0.8847        0.0032        5.3025        5.3057       4.420959       0.04873



 Wavenumbers:  5150. -  6150. cm-1, ATM      1
 LEVEL PRESSURE   UPWARD FLUX   DIFDOWN FLUX  DIRDOWN FLUX  DOWNWARD FLUX   NET FLUX    HEATING RATE
          mb          W/m2          W/m2          W/m2        W/m2          W/m2       degree/day
  51    .06700        1.9455        0.0000       25.5798       25.5798      23.634349       0.00000
  50    .07753        1.9455        0.0000       25.5798       25.5798      23.634309       0.03156
  49    .09103        1.9455        0.0000       25.5797       25.5797      23.634258       0.03205
  48    0.1069        1.9455        0.0000       25.5797       25.5797      23.634197       0.03256
  47    0.1255        1.9455        0.0000       25.5796       25.5796      23.634124       0.03306
  46    0.1487        1.9455        0.0000       25.5795       25.5795      23.634028       0.03483
  45    0.1794        1.9455        0.0000       25.5794       25.5794      23.633893       0.03707
  44    0.2165        1.9455        0.0000       25.5792       25.5792      23.633728       0.03763
  43    0.2613        1.9455        0.0000       25.5790       25.5790      23.633525       0.03821
  42    0.3336        1.9455        0.0000       25.5786       25.5786      23.633179       0.04038
  41    0.4307        1.9455        0.0000       25.5782       25.5782      23.632708       0.04092
  40    0.5894        1.9455        0.0000       25.5774       25.5774      23.631920       0.04193
  39     1.339        1.9454        0.0000       25.5735       25.5736      23.628122       0.04275
  38     1.782        1.9454        0.0000       25.5713       25.5713      23.625912       0.04208
  37     2.292        1.9454        0.0001       25.5688       25.5688      23.623412       0.04142
  36     2.964        1.9454        0.0001       25.5656       25.5656      23.620235       0.03987
  35     3.853        1.9454        0.0001       25.5615       25.5616      23.616200       0.03830
  34     5.035        1.9454        0.0001       25.5562       25.5564      23.611004       0.03712
  33     6.613        1.9453        0.0002       25.5494       25.5496      23.604266       0.03602
  32     8.786        1.9453        0.0002       25.5406       25.5408      23.595537       0.03390
  31     11.80        1.9452        0.0003       25.5287       25.5290      23.583738       0.03303
  30     15.07        1.9452        0.0004       25.5167       25.5171      23.571913       0.03053
  29     18.79        1.9451        0.0005       25.5042       25.5047      23.559557       0.02801
  28     23.16        1.9450        0.0006       25.4907       25.4913      23.546258       0.02572
  27     28.12        1.9449        0.0007       25.4764       25.4772      23.532245       0.02382
  26     33.73        1.9448        0.0009       25.4620       25.4629      23.518063       0.02132
  25     40.54        1.9447        0.0011       25.4463       25.4473      23.502583       0.01921
  24     48.69        1.9446        0.0013       25.4294       25.4306      23.486042       0.01712
  23     57.69        1.9445        0.0015       25.4126       25.4141      23.469658       0.01536
  22     68.43        1.9443        0.0018       25.3944       25.3962      23.451908       0.01395
  21     81.20        1.9441        0.0021       25.3744       25.3765      23.432415       0.01288
  20     96.49        1.9439        0.0025       25.3519       25.3544      23.410545       0.01207
  19     114.6        1.9436        0.0030       25.3262       25.3291      23.385498       0.01170
  18     136.5        1.9433        0.0035       25.2962       25.2997      23.356371       0.01120
  17     162.9        1.9430        0.0042       25.2521       25.2563      23.313278       0.01377
  16     196.4        1.9426        0.0050       25.1593       25.1643      23.221749       0.02304
  15     218.7        1.9423        0.0056       25.0159       25.0215      23.079187       0.05413
  14     243.0        1.9420        0.0061       24.7089       24.7150      22.772983       0.10620
  13     269.0        1.9418        0.0066       24.1619       24.1685      22.226686       0.17722
  12     297.5        1.9416        0.0072       23.4544       23.4615      21.519907       0.20962
  11     328.5        1.9415        0.0077       22.7355       22.7431      20.801631       0.19530
  10     361.9        1.9415        0.0082       21.9224       21.9306      19.989138       0.20557
   9     398.1        1.9416        0.0087       20.9939       21.0026      19.061022       0.21623
   8     437.6        1.9418        0.0091       19.9833       19.9924      18.050615       0.21603
   7     480.5        1.9423        0.0095       18.9483       18.9578      17.015499       0.20329
   6     533.0        1.9433        0.0099       17.7796       17.7895      15.846235       0.18810
   5     589.8        1.9451        0.0103       16.6726       16.6829      14.737822       0.16452
   4     651.6        1.9486        0.0108       15.6343       15.6451      13.696449       0.14241
   3     718.7        1.9550        0.0112       14.7738       14.7850      12.830015       0.10889
   2     792.3        1.9670        0.0118       14.0291       14.0409      12.073887       0.08672
   1     891.5        1.9981        0.0125       13.0822       13.0947      11.096566       0.08317
   0    1013.0        2.0859        0.0132       12.0384       12.0515       9.965598       0.07853



 Wavenumbers:  6150. -  7700. cm-1, ATM      1
 LEVEL PRESSURE   UPWARD FLUX   DIFDOWN FLUX  DIRDOWN FLUX  DOWNWARD FLUX   NET FLUX    HEATING RATE
          mb          W/m2          W/m2          W/m2        W/m2          W/m2       degree/day
  51    .06700        2.9537        0.0000       47.3109       47.3109      44.357207       0.00000
  50    .07753        2.9537        0.0000       47.3108       47.3108      44.357150       0.04553
  49    .09103        2.9537        0.0000       47.3107       47.3107      44.357077       0.04583
  48    0.1069        2.9536        0.0000       47.3106       47.3106      44.356990       0.04614
  47    0.1255        2.9536        0.0000       47.3105       47.3105      44.356888       0.04645
  46    0.1487        2.9536        0.0000       47.3104       47.3104      44.356754       0.04852
  45    0.1794        2.9536        0.0000       47.3102       47.3102      44.356568       0.05127
  44    0.2165        2.9536        0.0000       47.3100       47.3100      44.356341       0.05167
  43    0.2613        2.9536        0.0000       47.3097       47.3097      44.356064       0.05210
  42    0.3336        2.9536        0.0000       47.3092       47.3092      44.355595       0.05471
  41    0.4307        2.9536        0.0000       47.3085       47.3086      44.354960       0.05521
  40    0.5894        2.9536        0.0001       47.3074       47.3075      44.353901       0.05633
  39     1.339        2.9535        0.0001       47.3022       47.3023      44.348808       0.05733
  38     1.782        2.9535        0.0002       47.2991       47.2993      44.345838       0.05655
  37     2.292        2.9534        0.0002       47.2956       47.2959      44.342462       0.05591
  36     2.964        2.9534        0.0003       47.2912       47.2915      44.338144       0.05421
  35     3.853        2.9533        0.0004       47.2855       47.2859      44.332610       0.05252
  34     5.035        2.9532        0.0005       47.2780       47.2786      44.325429       0.05129
  33     6.613        2.9530        0.0007       47.2683       47.2690      44.316042       0.05019
  32     8.786        2.9528        0.0010       47.2556       47.2565      44.303743       0.04776
  31     11.80        2.9525        0.0013       47.2380       47.2393      44.286840       0.04732
  30     15.07        2.9522        0.0016       47.2201       47.2217      44.269553       0.04463
  29     18.79        2.9518        0.0020       47.2008       47.2029      44.251075       0.04190
  28     23.16        2.9514        0.0025       47.1795       47.1820      44.230686       0.03943
  27     28.12        2.9509        0.0031       47.1565       47.1596      44.208694       0.03738
  26     33.73        2.9503        0.0037       47.1324       47.1361      44.185776       0.03446
  25     40.54        2.9496        0.0044       47.1054       47.1098      44.160143       0.03180
  24     48.69        2.9488        0.0053       47.0754       47.0807      44.131895       0.02923
  23     57.69        2.9479        0.0063       47.0449       47.0512      44.103279       0.02682
  22     68.43        2.9469        0.0074       47.0110       47.0184      44.071551       0.02494
  21     81.20        2.9456        0.0088       46.9729       46.9817      44.036069       0.02345
  20     96.49        2.9441        0.0105       46.9294       46.9398      43.995744       0.02226
  19     114.6        2.9423        0.0124       46.8790       46.8914      43.949136       0.02176
  18     136.5        2.9402        0.0147       46.8200       46.8347      43.894550       0.02099
  17     162.9        2.9376        0.0175       46.7361       46.7536      43.815995       0.02511
  16     196.4        2.9344        0.0211       46.5703       46.5913      43.656969       0.04003
  15     218.7        2.9322        0.0234       46.3473       46.3707      43.438423       0.08297
  14     243.0        2.9300        0.0257       45.9299       45.9556      43.025620       0.14317
  13     269.0        2.9277        0.0281       45.1708       45.1989      42.271216       0.24472
  12     297.5        2.9253        0.0304       44.0115       44.0418      41.116484       0.34248
  11     328.5        2.9230        0.0326       42.7242       42.7568      39.833799       0.34876
  10     361.9        2.9208        0.0349       41.3539       41.3888      38.467976       0.34557
   9     398.1        2.9188        0.0370       39.7953       39.8323      36.913453       0.36217
   8     437.6        2.9172        0.0390       37.9948       38.0337      35.116487       0.38420
   7     480.5        2.9163        0.0407       36.0647       36.1054      33.189180       0.37852
   6     533.0        2.9164        0.0425       33.7773       33.8198      30.903425       0.36771
   5     589.8        2.9188        0.0440       31.4082       31.4521      28.533308       0.35180
   4     651.6        2.9263        0.0449       28.8834       28.9283      26.001955       0.34617
   3     718.7        2.9424        0.0456       26.4104       26.4560      23.513582       0.31272
   2     792.3        2.9747        0.0460       24.0056       24.0516      21.076888       0.27946
   1     891.5        3.0600        0.0462       21.2348       21.2810      18.220992       0.24302
   0    1013.0        3.2916        0.0466       18.6150       18.6616      15.369963       0.19796



 Wavenumbers:  7700. -  8050. cm-1, ATM      1
 LEVEL PRESSURE   UPWARD FLUX   DIFDOWN FLUX  DIRDOWN FLUX  DOWNWARD FLUX   NET FLUX    HEATING RATE
          mb          W/m2          W/m2          W/m2        W/m2          W/m2       degree/day
  51    .06700        1.6501        0.0000       11.1810       11.1810       9.530910       0.00000
  50    .07753        1.6501        0.0000       11.1809       11.1809       9.530891       0.01508
  49    .09103        1.6501        0.0000       11.1809       11.1809       9.530868       0.01478
  48    0.1069        1.6501        0.0000       11.1809       11.1809       9.530840       0.01447
  47    0.1255        1.6501        0.0000       11.1809       11.1809       9.530809       0.01416
  46    0.1487        1.6501        0.0000       11.1808       11.1808       9.530770       0.01437
  45    0.1794        1.6501        0.0000       11.1808       11.1808       9.530716       0.01479
  44    0.2165        1.6501        0.0000       11.1807       11.1807       9.530652       0.01450
  43    0.2613        1.6501        0.0000       11.1806       11.1806       9.530577       0.01423
  42    0.3336        1.6501        0.0000       11.1805       11.1805       9.530452       0.01456
  41    0.4307        1.6501        0.0000       11.1803       11.1804       9.530286       0.01440
  40    0.5894        1.6501        0.0000       11.1801       11.1801       9.530016       0.01439
  39     1.339        1.6501        0.0001       11.1788       11.1789       9.528736       0.01441
  38     1.782        1.6502        0.0001       11.1781       11.1781       9.527984       0.01431
  37     2.292        1.6502        0.0001       11.1772       11.1773       9.527114       0.01441
  36     2.964        1.6502        0.0001       11.1761       11.1762       9.525972       0.01434
  35     3.853        1.6503        0.0002       11.1746       11.1748       9.524463       0.01432
  34     5.035        1.6504        0.0002       11.1726       11.1728       9.522460       0.01431
  33     6.613        1.6505        0.0003       11.1700       11.1702       9.519784       0.01430
  32     8.786        1.6506        0.0004       11.1664       11.1668       9.516181       0.01399
  31     11.80        1.6508        0.0005       11.1613       11.1618       9.511032       0.01442
  30     15.07        1.6510        0.0007       11.1558       11.1565       9.505512       0.01425
  29     18.79        1.6512        0.0008       11.1497       11.1505       9.499286       0.01412
  28     23.16        1.6515        0.0010       11.1425       11.1435       9.492028       0.01403
  27     28.12        1.6518        0.0013       11.1343       11.1356       9.483748       0.01408
  26     33.73        1.6522        0.0015       11.1252       11.1267       9.474509       0.01389
  25     40.54        1.6526        0.0018       11.1142       11.1160       9.463384       0.01380
  24     48.69        1.6531        0.0022       11.1010       11.1032       9.450028       0.01382
  23     57.69        1.6537        0.0026       11.0866       11.0891       9.435430       0.01368
  22     68.43        1.6544        0.0030       11.0695       11.0726       9.418143       0.01359
  21     81.20        1.6553        0.0036       11.0494       11.0529       9.397690       0.01352
  20     96.49        1.6563        0.0043       11.0255       11.0298       9.373518       0.01334
  19     114.6        1.6575        0.0050       10.9975       11.0026       9.345097       0.01327
  18     136.5        1.6590        0.0060       10.9648       10.9707       9.311792       0.01281
  17     162.9        1.6607        0.0071       10.9263       10.9334       9.272652       0.01251
  16     196.4        1.6631        0.0085       10.8773       10.8858       9.222695       0.01257
  15     218.7        1.6647        0.0095       10.8455       10.8550       9.190330       0.01229
  14     243.0        1.6664        0.0105       10.8114       10.8219       9.155495       0.01208
  13     269.0        1.6684        0.0116       10.7749       10.7865       9.118078       0.01214
  12     297.5        1.6706        0.0128       10.7357       10.7485       9.077927       0.01191
  11     328.5        1.6730        0.0141       10.6937       10.7078       9.034819       0.01172
  10     361.9        1.6757        0.0154       10.6489       10.6643       8.988610       0.01169
   9     398.1        1.6787        0.0169       10.6008       10.6177       8.938944       0.01157
   8     437.6        1.6822        0.0185       10.5491       10.5676       8.885381       0.01145
   7     480.5        1.6861        0.0202       10.4934       10.5136       8.827511       0.01137
   6     533.0        1.6913        0.0223       10.4243       10.4466       8.755239       0.01163
   5     589.8        1.6975        0.0245       10.3479       10.3724       8.674901       0.01192
   4     651.6        1.7051        0.0269       10.2613       10.2882       8.583146       0.01255
   3     718.7        1.7146        0.0294       10.1618       10.1912       8.476561       0.01339
   2     792.3        1.7270        0.0320       10.0439       10.0759       8.348971       0.01463
   1     891.5        1.7483        0.0355        9.8626        9.8981       8.149780       0.01695
   0    1013.0        1.7830        0.0395        9.6103        9.6498       7.866779       0.01965



 Wavenumbers:  8050. - 12850. cm-1, ATM      1
 LEVEL PRESSURE   UPWARD FLUX   DIFDOWN FLUX  DIRDOWN FLUX  DOWNWARD FLUX   NET FLUX    HEATING RATE
          mb          W/m2          W/m2          W/m2        W/m2          W/m2       degree/day
  51    .06700       32.6620        0.0000      156.5418      156.5418     123.879719       0.00000
  50    .07753       32.6620        0.0000      156.5417      156.5417     123.879719      -0.00000
  49    .09103       32.6620        0.0001      156.5417      156.5417     123.879719       0.00000
  48    0.1069       32.6620        0.0001      156.5416      156.5417     123.879719      -0.00000
  47    0.1255       32.6619        0.0001      156.5415      156.5417     123.879719      -0.00000
  46    0.1487       32.6619        0.0002      156.5414      156.5416     123.879719       0.00000
  45    0.1794       32.6618        0.0003      156.5413      156.5416     123.879719       0.00000
  44    0.2165       32.6618        0.0003      156.5412      156.5415     123.879719      -0.00000
  43    0.2613       32.6617        0.0004      156.5410      156.5414     123.879719       0.00000
  42    0.3336       32.6616        0.0006      156.5407      156.5413     123.879719       0.00000
  41    0.4307       32.6614        0.0008      156.5403      156.5411     123.879719      -0.00000
  40    0.5894       32.6612        0.0012      156.5397      156.5409     123.879719       0.00000
  39     1.339       32.6599        0.0029      156.5367      156.5396     123.879719       0.00000
  38     1.782       32.6592        0.0039      156.5350      156.5389     123.879719      -0.00000
  37     2.292       32.6583        0.0051      156.5330      156.5380     123.879719       0.00000
  36     2.964       32.6572        0.0066      156.5303      156.5369     123.879719       0.00000
  35     3.853       32.6557        0.0086      156.5268      156.5354     123.879719       0.00000
  34     5.035       32.6538        0.0113      156.5222      156.5335     123.879719       0.00000
  33     6.613       32.6511        0.0148      156.5160      156.5308     123.879719      -0.00000
  32     8.786       32.6476        0.0197      156.5076      156.5273     123.879719      -0.00000
  31     11.80       32.6425        0.0266      156.4957      156.5222     123.879719       0.00000
  30     15.07       32.6371        0.0340      156.4828      156.5168     123.879719       0.00000
  29     18.79       32.6309        0.0424      156.4682      156.5106     123.879719      -0.00000
  28     23.16       32.6237        0.0522      156.4512      156.5034     123.879719      -0.00000
  27     28.12       32.6154        0.0634      156.4317      156.4951     123.879719       0.00000
  26     33.73       32.6062        0.0760      156.4099      156.4859     123.879719       0.00000
  25     40.54       32.5950        0.0913      156.3834      156.4747     123.879719       0.00000
  24     48.69       32.5814        0.1096      156.3515      156.4612     123.879719       0.00000
  23     57.69       32.5666        0.1299      156.3164      156.4463     123.879719      -0.00000
  22     68.43       32.5488        0.1540      156.2746      156.4285     123.879719      -0.00000
  21     81.20       32.5276        0.1828      156.2246      156.4074     123.879719       0.00000
  20     96.49       32.5023        0.2171      156.1649      156.3821     123.879719       0.00000
  19     114.6       32.4723        0.2580      156.0879      156.3459     123.873624       0.00285
  18     136.5       32.4366        0.3065      155.9962      156.3027     123.866053       0.00291
  17     162.9       32.3940        0.3644      155.8831      156.2475     123.853448       0.00403
  16     196.4       32.3386        0.4397      155.7199      156.1596     123.820978       0.00817
  15     218.7       32.3022        0.4891      155.5733      156.0624     123.760204       0.02307
  14     243.0       32.2628        0.5429      155.3367      155.8795     123.616746       0.04976
  13     269.0       32.2204        0.6009      154.9514      155.5523     123.331873       0.09241
  12     297.5       32.1755        0.6632      154.3896      155.0529     122.877408       0.13479
  11     328.5       32.1279        0.7304      153.7151      154.4455     122.317611       0.15221
  10     361.9       32.0781        0.8023      152.9087      153.7111     121.632927       0.17323
   9     398.1       32.0269        0.8790      151.8986      152.7776     120.750763       0.20552
   8     437.6       31.9755        0.9603      150.6031      151.5635     119.587982       0.24861
   7     480.5       31.9256        1.0459      149.0014      150.0473     118.121648       0.28798
   6     533.0       31.8740        1.1487      146.7375      147.8863     116.012316       0.33932
   5     589.8       31.8360        1.2555      143.8730      145.1285     113.292531       0.40371
   4     651.6       31.8319        1.3636      140.0955      141.4591     109.627204       0.50124
   3     718.7       31.8876        1.4717      135.5278      136.9995     105.111824       0.56746
   2     792.3       32.0601        1.5767      130.0690      131.6457      99.585556       0.63380
   1     891.5       32.5914        1.7003      122.1273      123.8276      91.236115       0.71050
   0    1013.0       34.0164        1.8292      112.9512      114.7804      80.763998       0.72713



 Wavenumbers: 12850. - 16000. cm-1, ATM      1
 LEVEL PRESSURE   UPWARD FLUX   DIFDOWN FLUX  DIRDOWN FLUX  DOWNWARD FLUX   NET FLUX    HEATING RATE
          mb          W/m2          W/m2          W/m2        W/m2          W/m2       degree/day
  51    .06700       49.0391        0.0000       98.0872       98.0872      49.048151       0.00000
  50    .07753       49.0391        0.0001       98.0864       98.0864      49.047366       0.62903
  49    .09103       49.0390        0.0001       98.0853       98.0854      49.046382       0.61522
  48    0.1069       49.0390        0.0002       98.0841       98.0843      49.045252       0.60103
  47    0.1255       49.0390        0.0003       98.0826       98.0830      49.043958       0.58701
  46    0.1487       49.0390        0.0005       98.0809       98.0813      49.042327       0.59431
  45    0.1794       49.0390        0.0006       98.0784       98.0791      49.040114       0.60745
  44    0.2165       49.0389        0.0008       98.0756       98.0765      49.037519       0.59047
  43    0.2613       49.0389        0.0011       98.0723       98.0734      49.034476       0.57352
  42    0.3336       49.0390        0.0015       98.0670       98.0685      49.029530       0.57666
  41    0.4307       49.0391        0.0020       98.0602       98.0622      49.023164       0.55349
  40    0.5894       49.0393        0.0029       98.0496       98.0525      49.013204       0.52967
  39     1.339       49.0422        0.0071       98.0043       98.0114      48.969239       0.49497
  38     1.782       49.0452        0.0095       97.9793       97.9888      48.943605       0.48804
  37     2.292       49.0499        0.0124       97.9498       97.9621      48.912198       0.52018
  36     2.964       49.0580        0.0161       97.9088       97.9249      48.866848       0.56928
  35     3.853       49.0714        0.0210       97.8503       97.8713      48.799909       0.63526
  34     5.035       49.0918        0.0275       97.7680       97.7955      48.703696       0.68731
  33     6.613       49.1204        0.0362       97.6562       97.6924      48.572034       0.70387
  32     8.786       49.1574        0.0479       97.5107       97.5586      48.401155       0.66363
  31     11.80       49.2053        0.0646       97.3179       97.3825      48.177222       0.62694
  30     15.07       49.2506        0.0826       97.1283       97.2109      47.960308       0.56003
  29     18.79       49.2963        0.1028       96.9300       97.0328      47.736485       0.50748
  28     23.16       49.3435        0.1264       96.7166       96.8430      47.499477       0.45830
  27     28.12       49.3901        0.1534       96.4935       96.6468      47.256762       0.41260
  26     33.73       49.4317        0.1835       96.2731       96.4566      47.024862       0.34867
  25     40.54       49.4700        0.2199       96.0408       96.2607      46.790771       0.29042
  24     48.69       49.5042        0.2638       95.7946       96.0584      46.554201       0.24481
  23     57.69       49.5304        0.3120       95.5573       95.8693      46.338907       0.20181
  22     68.43       49.5492        0.3695       95.3106       95.6801      46.130838       0.16357
  21     81.20       49.5547        0.4379       95.0643       95.5023      45.947579       0.12109
  20     96.49       49.5455        0.5196       94.8153       95.3349      45.789348       0.08733
  19     114.6       49.5353        0.6173       94.5411       95.1584      45.623081       0.07763
  18     136.5       49.5160        0.7331       94.2320       94.9651      45.449154       0.06688
  17     162.9       49.4863        0.8708       93.8753       94.7462      45.259852       0.06051
  16     196.4       49.4338        1.0493       93.4347       94.4840      45.050191       0.05277
  15     218.7       49.3943        1.1665       93.1513       94.3178      44.923501       0.04810
  14     243.0       49.3491        1.2938       92.8439       94.1377      44.788637       0.04678
  13     269.0       49.2980        1.4316       92.5111       93.9427      44.644745       0.04668
  12     297.5       49.2411        1.5804       92.1495       93.7299      44.488820       0.04625
  11     328.5       49.1793        1.7411       91.7554       93.4965      44.317188       0.04667
  10     361.9       49.1129        1.9139       91.3262       93.2401      44.127171       0.04808
   9     398.1       49.0425        2.0997       90.8575       92.9572      43.914723       0.04950
   8     437.6       48.9693        2.2989       90.3418       92.6407      43.671359       0.05203
   7     480.5       48.8947        2.5120       89.7728       92.2848      43.390117       0.05523
   6     533.0       48.8104        2.7736       89.0428       91.8164      43.005992       0.06179
   5     589.8       48.7344        3.0542       88.2038       91.2580      42.523605       0.07160
   4     651.6       48.6836        3.3532       87.1979       90.5512      41.867569       0.08971
   3     718.7       48.6691        3.6692       86.0161       89.6854      41.016265       0.10699
   2     792.3       48.7274        3.9986       84.5970       88.5956      39.868214       0.13167
   1     891.5       48.9811        4.4249       82.4374       86.8624      37.881330       0.16907
   0    1013.0       49.6356        4.9112       79.6182       84.5294      34.893758       0.20744



 Wavenumbers: 16000. - 22650. cm-1, ATM      1
 LEVEL PRESSURE   UPWARD FLUX   DIFDOWN FLUX  DIRDOWN FLUX  DOWNWARD FLUX   NET FLUX    HEATING RATE
          mb          W/m2          W/m2          W/m2        W/m2          W/m2       degree/day
  51    .06700      117.0517        0.0000      156.3892      156.3892      39.337515       0.00000
  50    .07753      117.0517        0.0004      156.3887      156.3890      39.337379       0.10941
  49    .09103      117.0516        0.0008      156.3879      156.3888      39.337180       0.12410
  48    0.1069      117.0515        0.0014      156.3871      156.3885      39.336914       0.14151
  47    0.1255      117.0515        0.0020      156.3861      156.3880      39.336558       0.16130
  46    0.1487      117.0514        0.0028      156.3847      156.3875      39.336034       0.19114
  45    0.1794      117.0514        0.0038      156.3828      156.3866      39.335214       0.22505
  44    0.2165      117.0515        0.0051      156.3805      156.3856      39.334102       0.25293
  43    0.2613      117.0516        0.0066      156.3776      156.3842      39.332594       0.28436
  42    0.3336      117.0519        0.0090      156.3726      156.3817      39.329726       0.33440
  41    0.4307      117.0526        0.0123      156.3657      156.3780      39.325402       0.37590
  40    0.5894      117.0542        0.0176      156.3537      156.3713      39.317157       0.43847
  39     1.339      117.0700        0.0429      156.2834      156.3263      39.256242       0.68579
  38     1.782      117.0857        0.0577      156.2324      156.2900      39.204352       0.98791
  37     2.292      117.1097        0.0748      156.1641      156.2389      39.129243       1.24400
  36     2.964      117.1502        0.0973      156.0605      156.1578      39.007573       1.52732
  35     3.853      117.2166        0.1270      155.9041      156.0311      38.814531       1.83200
  34     5.035      117.3172        0.1664      155.6774      155.8438      38.526569       2.05708
  33     6.613      117.4582        0.2190      155.3656      155.5846      38.126466       2.13895
  32     8.786      117.6415        0.2898      154.9577      155.2474      37.605981       2.02137
  31     11.80      117.8790        0.3908      154.4153      154.8061      36.927124       1.90058
  30     15.07      118.1052        0.4992      153.8804      154.3795      36.274347       1.68534
  29     18.79      118.3348        0.6213      153.3191      153.9404      35.605582       1.51630
  28     23.16      118.5731        0.7637      152.7126      153.4763      34.903183       1.35821
  27     28.12      118.8107        0.9263      152.0755      153.0018      34.191154       1.21040
  26     33.73      119.0263        1.1080      151.4409      152.5490      33.522649       1.00512
  25     40.54      119.2288        1.3273      150.7637      152.0910      32.862227       0.81933
  24     48.69      119.4164        1.5913      150.0338      151.6251      32.208711       0.67629
  23     57.69      119.5680        1.8808      149.3151      151.1959      31.627945       0.54438
  22     68.43      119.6897        2.2251      148.5476      150.7727      31.083015       0.42839
  21     81.20      119.7542        2.6349      147.7517      150.3866      30.632442       0.29773
  20     96.49      119.7562        3.1225      146.9127      150.0352      30.279019       0.19506
  19     114.6      119.7202        3.6995      145.9763      149.6758      29.955603       0.15101
  18     136.5      119.6517        4.3805      144.9088      149.2893      29.637607       0.12228
  17     162.9      119.5463        5.1870      143.6785      148.8656      29.319250       0.10176
  16     196.4      119.3588        6.2269      142.1651      148.3919      29.033113       0.07202
  15     218.7      119.2170        6.9059      141.2033      148.1092      28.892231       0.05349
  14     243.0      119.0543        7.6404      140.1753      147.8157      28.761444       0.04536
  13     269.0      118.8690        8.4322      139.0797      147.5119      28.642957       0.03844
  12     297.5      118.6602        9.2832      137.9141      147.1973      28.537106       0.03139
  11     328.5      118.4306       10.1972      136.6676      146.8648      28.434147       0.02799
  10     361.9      118.1798       11.1748      135.3392      146.5140      28.334207       0.02529
   9     398.1      117.9066       12.2196      133.9235      146.1431      28.236468       0.02277
   8     437.6      117.6114       13.3332      132.4163      145.7495      28.138056       0.02104
   7     480.5      117.2934       14.5174      130.8147      145.3321      28.038707       0.01951
   6     533.0      116.9015       15.9619      128.8599      144.8218      27.920375       0.01904
   5     589.8      116.4814       17.5029      126.7679      144.2709      27.789485       0.01943
   4     651.6      116.0374       19.1414      124.5274      143.6688      27.631435       0.02161
   3     718.7      115.5734       20.8781      122.1285      143.0066      27.433252       0.02491
   2     792.3      115.1020       22.7105      119.5548      142.2653      27.163312       0.03096
   1     891.5      114.5282       25.1361      116.0566      141.1927      26.664459       0.04245
   0    1013.0      113.9412       27.9756      111.8404      139.8161      25.874833       0.05483



 Wavenumbers: 22650. - 29000. cm-1, ATM      1
 LEVEL PRESSURE   UPWARD FLUX   DIFDOWN FLUX  DIRDOWN FLUX  DOWNWARD FLUX   NET FLUX    HEATING RATE
          mb          W/m2          W/m2          W/m2        W/m2          W/m2       degree/day
  51    .06700       50.5866        0.0000       59.0156       59.0156       8.429009       0.00000
  50    .07753       50.5865        0.0004       59.0151       59.0155       8.429009      -0.00000
  49    .09103       50.5863        0.0010       59.0144       59.0153       8.429009       0.00000
  48    0.1069       50.5862        0.0016       59.0136       59.0152       8.429009       0.00000
  47    0.1255       50.5860        0.0023       59.0127       59.0150       8.429009      -0.00000
  46    0.1487       50.5857        0.0033       59.0115       59.0148       8.429009       0.00000
  45    0.1794       50.5854        0.0045       59.0099       59.0144       8.429009       0.00000
  44    0.2165       50.5850        0.0060       59.0080       59.0140       8.429009      -0.00000
  43    0.2613       50.5846        0.0077       59.0058       59.0136       8.429009       0.00000
  42    0.3336       50.5838        0.0106       59.0022       59.0128       8.429009       0.00000
  41    0.4307       50.5828        0.0145       58.9973       59.0118       8.429009      -0.00000
  40    0.5894       50.5811        0.0208       58.9894       59.0101       8.429009       0.00000
  39     1.339       50.5733        0.0505       58.9518       59.0023       8.429009      -0.00000
  38     1.782       50.5687        0.0680       58.9297       58.9977       8.429009       0.00000
  37     2.292       50.5634        0.0882       58.9042       58.9924       8.429009      -0.00000
  36     2.964       50.5564        0.1147       58.8706       58.9854       8.429009      -0.00000
  35     3.853       50.5471        0.1498       58.8264       58.9761       8.429009       0.00000
  34     5.035       50.5349        0.1963       58.7676       58.9639       8.429009       0.00000
  33     6.613       50.5185        0.2584       58.6891       58.9475       8.429009       0.00000
  32     8.786       50.4964        0.3420       58.5834       58.9254       8.429009      -0.00000
  31     11.80       50.4648        0.4614       58.4324       58.8939       8.429009       0.00000
  30     15.07       50.4310        0.5894       58.2706       58.8600       8.429009       0.00000
  29     18.79       50.3928        0.7336       58.0882       58.8218       8.429009       0.00000
  28     23.16       50.3483        0.9016       57.8757       58.7773       8.429009      -0.00000
  27     28.12       50.2975        1.0932       57.6333       58.7265       8.429009       0.00000
  26     33.73       50.2408        1.3067       57.3631       58.6698       8.429009       0.00000
  25     40.54       50.1724        1.5635       57.0379       58.6014       8.429009      -0.00000
  24     48.69       50.0903        1.8714       56.6479       58.5193       8.429009       0.00000
  23     57.69       50.0005        2.2074       56.2221       58.4295       8.429009      -0.00000
  22     68.43       49.8940        2.6044       55.7186       58.3230       8.429009       0.00000
  21     81.20       49.7679        3.0730       55.1239       58.1970       8.429009      -0.00000
  20     96.49       49.6188        3.6251       54.4228       58.0479       8.429009       0.00000
  19     114.6       49.4434        4.2714       53.6010       57.8724       8.429009      -0.00000
  18     136.5       49.2377        5.0249       52.6418       57.6667       8.429009       0.00000
  17     162.9       48.9958        5.9045       51.5203       57.4248       8.429009       0.00000
  16     196.4       48.6872        7.0168       50.0994       57.1162       8.429009       0.00000
  15     218.7       48.4875        7.7303       49.1863       56.9166       8.429009      -0.00000
  14     243.0       48.2731        8.4909       48.2113       56.7021       8.429009      -0.00000
  13     269.0       48.0438        9.2979       47.1749       56.4728       8.429009       0.00000
  12     297.5       47.7994       10.1502       46.0783       56.2284       8.429009       0.00000
  11     328.5       47.5392       11.0487       44.9195       55.9682       8.429009       0.00000
  10     361.9       47.2635       11.9906       43.7018       55.6925       8.429009       0.00000
   9     398.1       46.9717       12.9756       42.4250       55.4007       8.429009       0.00000
   8     437.6       46.6638       14.0011       41.0916       55.0928       8.429009       0.00000
   7     480.5       46.3398       15.0644       39.7045       54.7688       8.429009       0.00000
   6     533.0       45.9493       16.3240       38.0543       54.3783       8.429009       0.00000
   5     589.8       45.5379       17.6238       36.3431       53.9669       8.429009       0.00000
   4     651.6       45.1062       18.9557       34.5795       53.5352       8.429009       0.00000
   3     718.7       44.6544       20.3132       32.7702       53.0834       8.429009       0.00000
   2     792.3       44.1834       21.6869       30.9256       52.6124       8.429009       0.00000
   1     891.5       43.5668       23.4180       28.5778       51.9958       8.429009      -0.00000
   0    1013.0       42.8540       25.3166       25.9665       51.2830       8.429009       0.00000



 Wavenumbers: 29000. - 38000. cm-1, ATM      1
 LEVEL PRESSURE   UPWARD FLUX   DIFDOWN FLUX  DIRDOWN FLUX  DOWNWARD FLUX   NET FLUX    HEATING RATE
          mb          W/m2          W/m2          W/m2        W/m2          W/m2       degree/day
  51    .06700        7.5343        0.0000       20.8114       20.8114      13.277061       0.00000
  50    .07753        7.5341        0.0003       20.8070       20.8074      13.273256       3.05024
  49    .09103        7.5339        0.0007       20.8009       20.8016      13.267721       3.45935
  48    0.1069        7.5336        0.0012       20.7928       20.7939      13.260314       3.94256
  47    0.1255        7.5333        0.0017       20.7820       20.7837      13.250414       4.48833
  46    0.1487        7.5329        0.0023       20.7665       20.7688      13.235857       5.30602
  45    0.1794        7.5324        0.0032       20.7424       20.7456      13.213203       6.21915
  44    0.2165        7.5319        0.0042       20.7103       20.7146      13.182695       6.94010
  43    0.2613        7.5312        0.0055       20.6675       20.6730      13.141720       7.72354
  42    0.3336        7.5303        0.0075       20.5880       20.5955      13.065198       8.92171
  41    0.4307        7.5290        0.0101       20.4722       20.4823      12.953306       9.72881
  40    0.5894        7.5273        0.0143       20.2637       20.2780      12.750739      10.77224
  39     1.339        7.5224        0.0322       19.0984       19.1306      11.608150      12.86348
  38     1.782        7.5219        0.0415       18.4394       18.4808      10.958976      12.35922
  37     2.292        7.5231        0.0514       17.7714       17.8228      10.299697      10.91938
  36     2.964        7.5275        0.0636       17.0421       17.1057       9.578269       9.05610
  35     3.853        7.5370        0.0789       16.2678       16.3467       8.809745       7.29343
  34     5.035        7.5534        0.0982       15.4803       15.5785       8.025174       5.60466
  33     6.613        7.5775        0.1229       14.7157       14.8386       7.261015       4.08519
  32     8.786        7.6096        0.1551       13.9936       14.1487       6.539137       2.80351
  31     11.80        7.6511        0.2000       13.2835       13.4835       5.832479       1.97842
  30     15.07        7.6907        0.2464       12.7394       12.9858       5.295106       1.38739
  29     18.79        7.7313        0.2978       12.2666       12.5645       4.833172       1.04735
  28     23.16        7.7740        0.3562       11.8300       12.1862       4.412281       0.81387
  27     28.12        7.8171        0.4215       11.4279       11.8493       4.032295       0.64595
  26     33.73        7.8556        0.4933       11.0695       11.5628       3.707173       0.48883
  25     40.54        7.8903        0.5790       10.7209       11.2999       3.409616       0.36915
  24     48.69        7.9208        0.6805       10.3742       11.0547       3.133950       0.28527
  23     57.69        7.9429        0.7903       10.0549       10.8451       2.902234       0.21720
  22     68.43        7.9565        0.9187        9.7327       10.6515       2.694979       0.16293
  21     81.20        7.9533        1.0702        9.4134       10.4836       2.530309       0.10881
  20     96.49        7.9313        1.2479        9.0887       10.3367       2.405394       0.06894
  19     114.6        7.8969        1.4528        8.7388       10.1915       2.294598       0.05173
  18     136.5        7.8524        1.6862        8.3549       10.0411       2.188707       0.04072
  17     162.9        7.7969        1.9512        7.9311        9.8824       2.085491       0.03299
  16     196.4        7.7162        2.2780        7.4333        9.7113       1.995118       0.02275
  15     218.7        7.6609        2.4826        7.1295        9.6122       1.951249       0.01666
  14     243.0        7.6008        2.6957        6.8161        9.5117       1.910894       0.01400
  13     269.0        7.5357        2.9162        6.4943        9.4105       1.874805       0.01171
  12     297.5        7.4655        3.1429        6.1657        9.3087       1.843130       0.00939
  11     328.5        7.3914        3.3748        5.8295        9.2043       1.812944       0.00821
  10     361.9        7.3136        3.6093        5.4886        9.0980       1.784381       0.00723
   9     398.1        7.2321        3.8456        5.1440        8.9896       1.757462       0.00627
   8     437.6        7.1473        4.0821        4.7969        8.8790       1.731664       0.00552
   7     480.5        7.0594        4.3164        4.4504        8.7668       1.707334       0.00478
   6     533.0        6.9552        4.5800        4.0563        8.6363       1.681009       0.00423
   5     589.8        6.8478        4.8354        3.6682        8.5036       1.655743       0.00375
   4     651.6        6.7378        5.0786        3.2905        8.3691       1.631259       0.00335
   3     718.7        6.6253        5.3077        2.9252        8.2329       1.607528       0.00298
   2     792.3        6.5109        5.5190        2.5764        8.0954       1.584564       0.00263
   1     891.5        6.3649        5.7556        2.1659        7.9215       1.556610       0.00238
   0    1013.0        6.2011        5.9748        1.7526        7.7274       1.526305       0.00210



 Wavenumbers: 38000. - 50000. cm-1, ATM      1
 LEVEL PRESSURE   UPWARD FLUX   DIFDOWN FLUX  DIRDOWN FLUX  DOWNWARD FLUX   NET FLUX    HEATING RATE
          mb          W/m2          W/m2          W/m2        W/m2          W/m2       degree/day
  51    .06700        0.0061        0.0000        1.2836        1.2836       1.277518       0.00000
  50    .07753        0.0061        0.0001        1.2812        1.2812       1.275183       1.87150
  49    .09103        0.0060        0.0002        1.2777        1.2778       1.271851       2.08247
  48    0.1069        0.0059        0.0002        1.2731        1.2734       1.267473       2.33059
  47    0.1255        0.0058        0.0004        1.2672        1.2675       1.261717       2.60908
  46    0.1487        0.0057        0.0005        1.2586        1.2591       1.253391       3.03499
  45    0.1794        0.0055        0.0007        1.2455        1.2462       1.240623       3.50520
  44    0.2165        0.0054        0.0009        1.2282        1.2291       1.223697       3.85037
  43    0.2613        0.0052        0.0011        1.2054        1.2065       1.201348       4.21261
  42    0.3336        0.0049        0.0015        1.1639        1.1654       1.160524       4.75970
  41    0.4307        0.0045        0.0020        1.1051        1.1070       1.102565       5.03943
  40    0.5894        0.0039        0.0026        1.0039        1.0064       1.002524       5.32007
  39     1.339        0.0022        0.0035        0.5438        0.5473       0.545104       5.14971
  38     1.782        0.0016        0.0032        0.3635        0.3666       0.365006       3.42879
  37     2.292        0.0012        0.0027        0.2356        0.2383       0.237058       2.11916
  36     2.964        0.0009        0.0022        0.1455        0.1477       0.146786       1.13318
  35     3.853        0.0006        0.0017        0.0858        0.0875       0.086906       0.56828
  34     5.035        0.0004        0.0013        0.0488        0.0501       0.049701       0.26578
  33     6.613        0.0003        0.0010        0.0273        0.0282       0.027974       0.11615
  32     8.786        0.0002        0.0007        0.0144        0.0151       0.014928       0.05067
  31     11.80        0.0001        0.0004        0.0065        0.0070       0.006903       0.02247
  30     15.07        0.0000        0.0003        0.0031        0.0034       0.003329       0.00923
  29     18.79        0.0000        0.0002        0.0014        0.0016       0.001583       0.00396
  28     23.16        0.0000        0.0001        0.0006        0.0007       0.000720       0.00167
  27     28.12        0.0000        0.0001        0.0003        0.0003       0.000317       0.00069
  26     33.73        0.0000        0.0000        0.0001        0.0001       0.000140       0.00027
  25     40.54        0.0000        0.0000        0.0000        0.0001       0.000057       0.00010
  24     48.69        0.0000        0.0000        0.0000        0.0000       0.000021       0.00004
  23     57.69        0.0000        0.0000        0.0000        0.0000       0.000008       0.00001
  22     68.43        0.0000        0.0000        0.0000        0.0000       0.000003       0.00000
  21     81.20        0.0000        0.0000        0.0000        0.0000       0.000001       0.00000
  20     96.49        0.0000        0.0000        0.0000        0.0000       0.000000       0.00000
  19     114.6        0.0000        0.0000        0.0000        0.0000       0.000000       0.00000
  18     136.5        0.0000        0.0000        0.0000        0.0000       0.000000       0.00000
  17     162.9        0.0000        0.0000        0.0000        0.0000       0.000000       0.00000
  16     196.4        0.0000        0.0000        0.0000        0.0000       0.000000       0.00000
  15     218.7        0.0000        0.0000        0.0000        0.0000       0.000000       0.00000
  14     243.0        0.0000        0.0000        0.0000        0.0000       0.000000       0.00000
  13     269.0        0.0000        0.0000        0.0000        0.0000       0.000000       0.00000
  12     297.5        0.0000        0.0000        0.0000        0.0000       0.000000       0.00000
  11     328.5        0.0000        0.0000        0.0000        0.0000       0.000000       0.00000
  10     361.9        0.0000        0.0000        0.0000        0.0000       0.000000       0.00000
   9     398.1        0.0000        0.0000        0.0000        0.0000       0.000000       0.00000
   8     437.6        0.0000        0.0000        0.0000        0.0000       0.000000       0.00000
   7     480.5        0.0000        0.0000        0.0000        0.0000       0.000000       0.00000
   6     533.0        0.0000        0.0000        0.0000        0.0000       0.000000       0.00000
   5     589.8        0.0000        0.0000        0.0000        0.0000       0.000000       0.00000
   4     651.6        0.0000        0.0000        0.0000        0.0000       0.000000       0.00000
   3     718.7        0.0000        0.0000        0.0000        0.0000       0.000000       0.00000
   2     792.3        0.0000        0.0000        0.0000        0.0000       0.000000       0.00000
   1     891.5        0.0000        0.0000        0.0000        0.0000       0.000000       0.00000
   0    1013.0        0.0000        0.0000        0.0000        0.0000       0.000000       0.00000



 Wavenumbers:   820. -  2600. cm-1, ATM      1
 LEVEL PRESSURE   UPWARD FLUX   DIFDOWN FLUX  DIRDOWN FLUX  DOWNWARD FLUX   NET FLUX    HEATING RATE
          mb          W/m2          W/m2          W/m2        W/m2          W/m2       degree/day
  51    .06700        0.2079        0.0000        6.0047        6.0047       5.796703       0.00000
  50    .07753        0.2079        0.0000        6.0008        6.0008       5.792850       3.08819
  49    .09103        0.2079        0.0000        5.9999        5.9999       5.791964       0.55356
  48    0.1069        0.2079        0.0000        5.9989        5.9989       5.790975       0.52650
  47    0.1255        0.2079        0.0000        5.9978        5.9978       5.789858       0.50648
  46    0.1487        0.2079        0.0000        5.9964        5.9964       5.788501       0.49455
  45    0.1794        0.2079        0.0000        5.9947        5.9947       5.786782       0.47198
  44    0.2165        0.2079        0.0000        5.9929        5.9929       5.784940       0.41908
  43    0.2613        0.2079        0.0000        5.9909        5.9909       5.782981       0.36931
  42    0.3336        0.2079        0.0000        5.9880        5.9880       5.780103       0.33554
  41    0.4307        0.2079        0.0000        5.9846        5.9846       5.776634       0.30162
  40    0.5894        0.2079        0.0000        5.9791        5.9791       5.771129       0.29274
  39     1.339        0.2079        0.0000        5.9536        5.9536       5.745644       0.28692
  38     1.782        0.2079        0.0000        5.9395        5.9395       5.731507       0.26915
  37     2.292        0.2079        0.0000        5.9237        5.9237       5.715757       0.26086
  36     2.964        0.2079        0.0000        5.9039        5.9039       5.695985       0.24820
  35     3.853        0.2079        0.0000        5.8793        5.8793       5.671331       0.23397
  34     5.035        0.2079        0.0000        5.8487        5.8487       5.640771       0.21831
  33     6.613        0.2080        0.0000        5.8108        5.8108       5.602810       0.20294
  32     8.786        0.2080        0.0000        5.7631        5.7631       5.555191       0.18493
  31     11.80        0.2080        0.0000        5.7039        5.7039       5.495941       0.16588
  30     15.07        0.2080        0.0000        5.6539        5.6539       5.445908       0.12917
  29     18.79        0.2080        0.0000        5.6127        5.6127       5.404779       0.09325
  28     23.16        0.2080        0.0000        5.5794        5.5794       5.371409       0.06453
  27     28.12        0.2080        0.0000        5.5518        5.5518       5.343849       0.04685
  26     33.73        0.2080        0.0000        5.5268        5.5268       5.318802       0.03766
  25     40.54        0.2080        0.0000        5.4993        5.4993       5.291364       0.03404
  24     48.69        0.2080        0.0000        5.4678        5.4678       5.259826       0.03264
  23     57.69        0.2080        0.0000        5.4340        5.4340       5.226041       0.03167
  22     68.43        0.2080        0.0000        5.3947        5.3948       5.186769       0.03087
  21     81.20        0.2080        0.0000        5.3497        5.3497       5.141737       0.02976
  20     96.49        0.2080        0.0000        5.2982        5.2982       5.090224       0.02843
  19     114.6        0.2080        0.0000        5.2389        5.2389       5.030901       0.02770
  18     136.5        0.2080        0.0000        5.1716        5.1717       4.963642       0.02586
  17     162.9        0.2080        0.0000        5.0890        5.0890       4.881006       0.02641
  16     196.4        0.2081        0.0000        4.9668        4.9668       4.758758       0.03077
  15     218.7        0.2081        0.0000        4.8585        4.8585       4.650362       0.04115
  14     243.0        0.2082        0.0000        4.7078        4.7079       4.499690       0.05226
  13     269.0        0.2083        0.0000        4.5343        4.5343       4.326020       0.05634
  12     297.5        0.2084        0.0000        4.3419        4.3420       4.133554       0.05708
  11     328.5        0.2086        0.0000        4.1281        4.1281       3.919527       0.05819
  10     361.9        0.2089        0.0000        3.8786        3.8787       3.669784       0.06319
   9     398.1        0.2093        0.0000        3.6159        3.6159       3.406691       0.06129
   8     437.6        0.2097        0.0000        3.3759        3.3759       3.166148       0.05143
   7     480.5        0.2103        0.0000        3.1957        3.1958       2.985444       0.03549
   6     533.0        0.2113        0.0000        3.0467        3.0467       2.835430       0.02413
   5     589.8        0.2127        0.0000        2.9023        2.9023       2.689635       0.02164
   4     651.6        0.2152        0.0000        2.7183        2.7184       2.503128       0.02551
   3     718.7        0.2197        0.0000        2.5058        2.5059       2.286194       0.02726
   2     792.3        0.2278        0.0000        2.2756        2.2757       2.047852       0.02734
   1     891.5        0.2486        0.0000        1.9621        1.9622       1.713567       0.02845
   0    1013.0        0.3009        0.0000        1.5468        1.5469       1.246005       0.03247

  Modules and versions used in this calculation:

       rrtmg_sw.1col.f90:  $Revision$                    rrtmg_sw_init.f90:  $Revision$        
     rrtmgsw_cldprop.f90:  $Revision$                  rrtmgsw_cldprmc.f90:  NOT USED          
     rrtmg_sw_reftra.f90:  $Revision$                  rrtmg_sw_spcvrt.f90:  NOT USED          
     rrtmg_sw_spcvmc.f90:  NOT USED                    rrtmgsw_setcoef.f90:  NOT USED          
     rrtmg_sw_taumol.f90:  $Revision$                  rrtmg_sw_vrtqdr.f90:  NOT USED          
                rrtatm.f:  NOT USED                             util_xxx.f:  NOT USED          
                 extra.f:  NOT USED                       rrtmg_sw_k_g.f90:  $Revision$        

