

 Wavenumbers:   820. - 50000. cm-1, ATM      1
 LEVEL PRESSURE   UPWARD FLUX   DIFDOWN FLUX  DIRDOWN FLUX  DOWNWARD FLUX   NET FLUX    HEATING RATE
          mb          W/m2          W/m2          W/m2        W/m2          W/m2       degree/day
  51    .06700      432.6422        0.0000      617.8126      617.8126     185.170403       0.00000
  50    .07753      432.6418        0.0013      617.7947      617.7960     185.154265      12.93458
  49    .09103      432.6413        0.0030      617.7778      617.7808     185.139459       9.25409
  48    0.1069      432.6408        0.0049      617.7581      617.7630     185.122204       9.18541
  47    0.1255      432.6402        0.0071      617.7340      617.7411     185.100867       9.67309
  46    0.1487      432.6396        0.0099      617.7009      617.7107     185.071193      10.81629
  45    0.1794      432.6387        0.0136      617.6521      617.6657     185.026982      12.13701
  44    0.2165      432.6379        0.0181      617.5895      617.6076     184.969689      13.03328
  43    0.2613      432.6370        0.0234      617.5089      617.5323     184.895215      14.03804
  42    0.3336      432.6359        0.0320      617.3641      617.3961     184.760205      15.74079
  41    0.4307      432.6349        0.0434      617.1591      617.2026     184.567698      16.73807
  40    0.5894      432.6341        0.0618      616.8005      616.8623     184.228233      18.05231
  39     1.339      432.6479        0.1450      614.9443      615.0893     182.441368      20.11685
  38     1.782      432.6682        0.1918      613.9670      614.1588     181.490627      18.10057
  37     2.292      432.7026        0.2449      613.0059      613.2508     180.548226      15.60861
  36     2.964      432.7644        0.3141      611.9577      612.2717     179.507346      13.06619
  35     3.853      432.8690        0.4047      610.8024      611.2071     178.338055      11.09679
  34     5.035      433.0307        0.5242      609.5327      610.0569     177.026219       9.37121
  33     6.613      433.2588        0.6829      608.1464      608.8293     175.570486       7.78235
  32     8.786      433.5558        0.8957      606.6250      607.5207     173.964944       6.23534
  31     11.80      433.9394        1.1987      604.8486      606.0473     172.107899       5.19914
  30     15.07      434.3033        1.5219      603.2440      604.7659     170.462543       4.24799
  29     18.79      434.6715        1.8855      601.6511      603.5367     168.865174       3.62173
  28     23.16      435.0522        2.3080      599.9927      602.3007     167.248550       3.12603
  27     28.12      435.4296        2.7888      598.2881      601.0768     165.647247       2.72211
  26     33.73      435.7673        3.3247      596.5951      599.9198     164.152454       2.24746
  25     40.54      436.0767        3.9698      594.7727      598.7425     162.665762       1.84441
  24     48.69      436.3543        4.7438      592.7865      597.5302     161.175978       1.54169
  23     57.69      436.5665        5.5896      590.7959      596.3855     159.818983       1.27198
  22     68.43      436.7189        6.5915      588.6191      595.2105     158.491691       1.04343
  21     81.20      436.7608        7.7790      586.2690      594.0480     157.287205       0.79591
  20     96.49      436.6814        9.1846      583.6961      592.8808     156.199396       0.60039
  19     114.6      436.5336       10.8377      580.7708      591.6085     155.074927       0.52505
  18     136.5      436.3168       12.7725      577.4359      590.2084     153.891619       0.45501
  17     162.9      436.0236       15.0421      573.5624      588.6045     152.580901       0.41896
  16     196.4      435.5622       17.9347      568.5907      586.5254     150.963194       0.40720
  15     218.7      435.2336       19.8039      565.0572      584.8611     149.627472       0.50712
  14     243.0      434.8707       21.8078      560.7495      582.5573     147.686615       0.67315
  13     269.0      434.4757       23.9476      555.3947      579.3423     144.866664       0.91478
  12     297.5      434.0552       26.2237      548.9964      575.2201     141.164810       1.09793
  11     328.5      433.6195       28.6420      542.0895      570.7316     137.112025       1.10194
  10     361.9      433.1779       31.1986      534.6242      565.8228     132.644838       1.13024
   9     398.1      432.7438       33.8974      526.4204      560.3178     127.574044       1.18138
   8     437.6      432.3432       36.7368      517.3907      554.1274     121.784243       1.23790
   7     480.5      432.0049       39.7143      507.7216      547.4359     115.430979       1.24776
   6     533.0      431.7593       43.2901      495.9006      539.1908     107.431429       1.28687
   5     589.8      431.8081       47.0374      483.0788      530.1162      98.308080       1.35420
   4     651.6      432.5177       50.9421      468.6907      519.6327      87.115046       1.53068
   3     718.7      434.4199       54.9953      453.2257      508.2211      73.801133       1.67319
   2     792.3      438.9530       59.1740      436.4928      495.6669      56.713843       1.95972
   1     891.5       77.0355      123.2085        0.0000      123.2085      46.172986       0.89698
   0    1013.0       77.1483      120.9608        0.0000      120.9608      43.812510       0.16390



 Wavenumbers:  2600. -  3250. cm-1, ATM      1
 LEVEL PRESSURE   UPWARD FLUX   DIFDOWN FLUX  DIRDOWN FLUX  DOWNWARD FLUX   NET FLUX    HEATING RATE
          mb          W/m2          W/m2          W/m2        W/m2          W/m2       degree/day
  51    .06700        2.0721        0.0000        5.4450        5.4450       3.372961       0.00000
  50    .07753        2.0721        0.0000        5.4450        5.4450       3.372953       0.00640
  49    .09103        2.0721        0.0000        5.4450        5.4450       3.372943       0.00627
  48    0.1069        2.0721        0.0000        5.4450        5.4450       3.372932       0.00613
  47    0.1255        2.0721        0.0000        5.4450        5.4450       3.372919       0.00599
  46    0.1487        2.0721        0.0000        5.4450        5.4450       3.372902       0.00608
  45    0.1794        2.0721        0.0000        5.4450        5.4450       3.372879       0.00625
  44    0.2165        2.0721        0.0000        5.4449        5.4449       3.372852       0.00612
  43    0.2613        2.0721        0.0000        5.4449        5.4449       3.372821       0.00600
  42    0.3336        2.0721        0.0000        5.4448        5.4448       3.372768       0.00617
  41    0.4307        2.0721        0.0000        5.4448        5.4448       3.372696       0.00620
  40    0.5894        2.0721        0.0000        5.4446        5.4446       3.372577       0.00637
  39     1.339        2.0721        0.0000        5.4439        5.4439       3.371869       0.00797
  38     1.782        2.0721        0.0000        5.4434        5.4434       3.371326       0.01034
  37     2.292        2.0721        0.0000        5.4427        5.4427       3.370610       0.01186
  36     2.964        2.0721        0.0000        5.4416        5.4416       3.369571       0.01304
  35     3.853        2.0721        0.0000        5.4402        5.4402       3.368094       0.01402
  34     5.035        2.0721        0.0000        5.4381        5.4381       3.366038       0.01469
  33     6.613        2.0721        0.0000        5.4353        5.4353       3.363256       0.01487
  32     8.786        2.0721        0.0000        5.4317        5.4317       3.359623       0.01411
  31     11.80        2.0721        0.0000        5.4269        5.4269       3.354841       0.01339
  30     15.07        2.0721        0.0000        5.4224        5.4224       3.350311       0.01169
  29     18.79        2.0721        0.0000        5.4180        5.4180       3.345895       0.01001
  28     23.16        2.0721        0.0000        5.4135        5.4135       3.341402       0.00869
  27     28.12        2.0721        0.0000        5.4088        5.4088       3.336745       0.00792
  26     33.73        2.0721        0.0000        5.4036        5.4036       3.331491       0.00790
  25     40.54        2.0721        0.0000        5.3966        5.3967       3.324528       0.00864
  24     48.69        2.0722        0.0000        5.3872        5.3872       3.315018       0.00984
  23     57.69        2.0722        0.0000        5.3754        5.3754       3.303189       0.01109
  22     68.43        2.0723        0.0000        5.3599        5.3599       3.287636       0.01223
  21     81.20        2.0724        0.0000        5.3401        5.3401       3.267710       0.01317
  20     96.49        2.0725        0.0000        5.3155        5.3155       3.243013       0.01363
  19     114.6        2.0727        0.0001        5.2853        5.2854       3.212636       0.01418
  18     136.5        2.0730        0.0001        5.2504        5.2505       3.177475       0.01352
  17     162.9        2.0734        0.0001        5.2111        5.2112       3.137766       0.01269
  16     196.4        2.0741        0.0001        5.1640        5.1641       3.090067       0.01201
  15     218.7        2.0747        0.0001        5.1331        5.1332       3.058497       0.01199
  14     243.0        2.0758        0.0001        5.0962        5.0963       3.020529       0.01317
  13     269.0        2.0775        0.0001        5.0511        5.0512       2.973740       0.01518
  12     297.5        2.0800        0.0001        4.9956        4.9957       2.915720       0.01721
  11     328.5        2.0836        0.0001        4.9304        4.9305       2.846934       0.01870
  10     361.9        2.0885        0.0002        4.8511        4.8513       2.762758       0.02130
   9     398.1        2.0953        0.0002        4.7507        4.7509       2.655542       0.02498
   8     437.6        2.1048        0.0002        4.6220        4.6222       2.517399       0.02954
   7     480.5        2.1181        0.0002        4.4625        4.4627       2.344602       0.03394
   6     533.0        2.1398        0.0002        4.2460        4.2462       2.106453       0.03831
   5     589.8        2.1732        0.0002        3.9954        3.9956       1.822429       0.04216
   4     651.6        2.2289        0.0002        3.7089        3.7091       1.480161       0.04681
   3     718.7        2.3224        0.0002        3.4018        3.4020       1.079626       0.05034
   2     792.3        2.4962        0.0002        3.0564        3.0567       0.560451       0.05954
   1     891.5        0.0600        0.3152        0.0000        0.3152       0.255241       0.02597
   0    1013.0        0.0678        0.2706        0.0000        0.2706       0.202735       0.00365



 Wavenumbers:  3250. -  4000. cm-1, ATM      1
 LEVEL PRESSURE   UPWARD FLUX   DIFDOWN FLUX  DIRDOWN FLUX  DOWNWARD FLUX   NET FLUX    HEATING RATE
          mb          W/m2          W/m2          W/m2        W/m2          W/m2       degree/day
  51    .06700        0.0772        0.0000        9.1795        9.1795       9.102327       0.00000
  50    .07753        0.0772        0.0000        9.1747        9.1747       9.097484       3.88148
  49    .09103        0.0772        0.0000        9.1713        9.1713       9.094096       2.11747
  48    0.1069        0.0772        0.0000        9.1688        9.1688       9.091571       1.34402
  47    0.1255        0.0772        0.0000        9.1665        9.1665       9.089312       1.02422
  46    0.1487        0.0772        0.0000        9.1641        9.1641       9.086871       0.88991
  45    0.1794        0.0772        0.0000        9.1612        9.1612       9.083993       0.79008
  44    0.2165        0.0772        0.0000        9.1583        9.1583       9.081073       0.66430
  43    0.2613        0.0772        0.0000        9.1553        9.1553       9.078100       0.56041
  42    0.3336        0.0772        0.0000        9.1511        9.1511       9.073921       0.48723
  41    0.4307        0.0772        0.0000        9.1464        9.1464       9.069152       0.41459
  40    0.5894        0.0772        0.0000        9.1393        9.1394       9.062147       0.37255
  39     1.339        0.0772        0.0000        9.1127        9.1127       9.035533       0.29962
  38     1.782        0.0772        0.0000        9.1011        9.1011       9.023945       0.22062
  37     2.292        0.0772        0.0000        9.0901        9.0901       9.012878       0.18329
  36     2.964        0.0772        0.0000        9.0776        9.0776       9.000448       0.15603
  35     3.853        0.0772        0.0000        9.0629        9.0629       8.985658       0.14036
  34     5.035        0.0772        0.0000        9.0441        9.0441       8.966919       0.13386
  33     6.613        0.0772        0.0000        9.0191        9.0191       8.941918       0.13366
  32     8.786        0.0772        0.0000        8.9843        8.9843       8.907134       0.13509
  31     11.80        0.0772        0.0000        8.9327        8.9327       8.855518       0.14451
  30     15.07        0.0772        0.0000        8.8758        8.8759       8.798673       0.14676
  29     18.79        0.0772        0.0000        8.8110        8.8110       8.733846       0.14698
  28     23.16        0.0772        0.0000        8.7365        8.7366       8.659401       0.14395
  27     28.12        0.0772        0.0000        8.6554        8.6555       8.578288       0.13789
  26     33.73        0.0772        0.0000        8.5719        8.5719       8.494788       0.12554
  25     40.54        0.0771        0.0001        8.4812        8.4812       8.404064       0.11255
  24     48.69        0.0771        0.0001        8.3838        8.3839       8.306763       0.10069
  23     57.69        0.0771        0.0001        8.2861        8.2862       8.209027       0.09161
  22     68.43        0.0771        0.0001        8.1751        8.1751       8.098031       0.08726
  21     81.20        0.0771        0.0001        8.0457        8.0458       7.968672       0.08548
  20     96.49        0.0771        0.0001        7.8949        7.8951       7.817968       0.08318
  19     114.6        0.0771        0.0001        7.7162        7.7163       7.639258       0.08345
  18     136.5        0.0770        0.0002        7.5193        7.5195       7.442414       0.07569
  17     162.9        0.0770        0.0002        7.2913        7.2915       7.214520       0.07284
  16     196.4        0.0770        0.0002        6.9660        6.9662       6.889242       0.08188
  15     218.7        0.0770        0.0002        6.6648        6.6650       6.588040       0.11436
  14     243.0        0.0770        0.0002        6.2619        6.2622       6.185213       0.13971
  13     269.0        0.0770        0.0003        5.7576        5.7579       5.680835       0.16362
  12     297.5        0.0772        0.0003        5.1719        5.1722       5.094976       0.17376
  11     328.5        0.0775        0.0002        4.5757        4.5760       4.498523       0.16217
  10     361.9        0.0779        0.0002        3.9995        3.9998       3.921862       0.14590
   9     398.1        0.0787        0.0002        3.4655        3.4657       3.387009       0.12461
   8     437.6        0.0800        0.0002        2.9740        2.9743       2.894238       0.10536
   7     480.5        0.0821        0.0002        2.5307        2.5309       2.448723       0.08750
   6     533.0        0.0863        0.0002        2.0614        2.0616       1.975292       0.07616
   5     589.8        0.0938        0.0002        1.6150        1.6151       1.521309       0.06739
   4     651.6        0.1096        0.0001        1.1565        1.1566       1.046977       0.06487
   3     718.7        0.1445        0.0001        0.7390        0.7391       0.594654       0.05684
   2     792.3        0.2378        0.0001        0.3985        0.3985       0.160726       0.04977
   1     891.5        0.0000        0.0049        0.0000        0.0049       0.004889       0.01326
   0    1013.0        0.0001        0.0005        0.0000        0.0005       0.000381       0.00031



 Wavenumbers:  4000. -  4650. cm-1, ATM      1
 LEVEL PRESSURE   UPWARD FLUX   DIFDOWN FLUX  DIRDOWN FLUX  DOWNWARD FLUX   NET FLUX    HEATING RATE
          mb          W/m2          W/m2          W/m2        W/m2          W/m2       degree/day
  51    .06700        6.6210        0.0000       10.7795       10.7795       4.158513       0.00000
  50    .07753        6.6210        0.0000       10.7795       10.7795       4.158512       0.00080
  49    .09103        6.6210        0.0000       10.7795       10.7795       4.158511       0.00078
  48    0.1069        6.6210        0.0000       10.7795       10.7795       4.158509       0.00077
  47    0.1255        6.6210        0.0000       10.7795       10.7795       4.158507       0.00075
  46    0.1487        6.6210        0.0000       10.7795       10.7795       4.158505       0.00076
  45    0.1794        6.6210        0.0000       10.7795       10.7795       4.158503       0.00078
  44    0.2165        6.6210        0.0000       10.7795       10.7795       4.158499       0.00076
  43    0.2613        6.6210        0.0000       10.7795       10.7795       4.158495       0.00075
  42    0.3336        6.6210        0.0000       10.7795       10.7795       4.158489       0.00077
  41    0.4307        6.6210        0.0000       10.7795       10.7795       4.158480       0.00078
  40    0.5894        6.6210        0.0000       10.7795       10.7795       4.158465       0.00080
  39     1.339        6.6210        0.0000       10.7794       10.7794       4.158375       0.00101
  38     1.782        6.6210        0.0000       10.7793       10.7793       4.158305       0.00133
  37     2.292        6.6210        0.0000       10.7792       10.7792       4.158211       0.00156
  36     2.964        6.6210        0.0000       10.7791       10.7791       4.158070       0.00177
  35     3.853        6.6210        0.0000       10.7789       10.7789       4.157861       0.00198
  34     5.035        6.6210        0.0000       10.7786       10.7786       4.157554       0.00220
  33     6.613        6.6210        0.0000       10.7781       10.7781       4.157100       0.00242
  32     8.786        6.6210        0.0000       10.7774       10.7775       4.156431       0.00260
  31     11.80        6.6210        0.0001       10.7763       10.7764       4.155379       0.00295
  30     15.07        6.6210        0.0001       10.7751       10.7752       4.154143       0.00319
  29     18.79        6.6210        0.0001       10.7736       10.7737       4.152648       0.00339
  28     23.16        6.6210        0.0001       10.7717       10.7718       4.150789       0.00359
  27     28.12        6.6211        0.0001       10.7695       10.7696       4.148537       0.00383
  26     33.73        6.6211        0.0002       10.7667       10.7668       4.145757       0.00418
  25     40.54        6.6211        0.0002       10.7629       10.7631       4.141982       0.00468
  24     48.69        6.6212        0.0002       10.7579       10.7582       4.136943       0.00521
  23     57.69        6.6213        0.0003       10.7520       10.7523       4.130959       0.00561
  22     68.43        6.6215        0.0003       10.7446       10.7449       4.123445       0.00591
  21     81.20        6.6217        0.0004       10.7355       10.7359       4.114171       0.00613
  20     96.49        6.6221        0.0005       10.7245       10.7250       4.102855       0.00625
  19     114.6        6.6226        0.0006       10.7107       10.7113       4.088662       0.00663
  18     136.5        6.6234        0.0007       10.6942       10.6949       4.071504       0.00660
  17     162.9        6.6244        0.0008       10.6740       10.6748       4.050381       0.00675
  16     196.4        6.6262        0.0010       10.6464       10.6473       4.021080       0.00738
  15     218.7        6.6278        0.0011       10.6255       10.6265       3.998685       0.00850
  14     243.0        6.6302        0.0012       10.5980       10.5992       3.969076       0.01027
  13     269.0        6.6336        0.0013       10.5611       10.5624       3.928824       0.01306
  12     297.5        6.6386        0.0015       10.5119       10.5134       3.874827       0.01601
  11     328.5        6.6454        0.0016       10.4499       10.4515       3.806070       0.01869
  10     361.9        6.6544        0.0018       10.3702       10.3719       3.717558       0.02239
   9     398.1        6.6657        0.0019       10.2678       10.2697       3.604013       0.02645
   8     437.6        6.6802        0.0021       10.1390       10.1411       3.460872       0.03060
   7     480.5        6.6989        0.0023        9.9877        9.9900       3.291020       0.03336
   6     533.0        6.7281        0.0025        9.7937        9.7962       3.068113       0.03586
   5     589.8        6.7706        0.0027        9.5752        9.5779       2.807246       0.03872
   4     651.6        6.8403        0.0029        9.2958        9.2987       2.458409       0.04770
   3     718.7        6.9599        0.0031        8.9267        8.9299       1.969944       0.06139
   2     792.3        7.1918        0.0033        8.4542        8.4576       1.265708       0.08077
   1     891.5        0.2394        1.0756        0.0000        1.0756       0.836184       0.03655
   0    1013.0        0.2523        1.0065        0.0000        1.0065       0.754197       0.00569



 Wavenumbers:  4650. -  5150. cm-1, ATM      1
 LEVEL PRESSURE   UPWARD FLUX   DIFDOWN FLUX  DIRDOWN FLUX  DOWNWARD FLUX   NET FLUX    HEATING RATE
          mb          W/m2          W/m2          W/m2        W/m2          W/m2       degree/day
  51    .06700        4.7926        0.0000       10.2033       10.2033       5.410743       0.00000
  50    .07753        4.7926        0.0000       10.2031       10.2031       5.410507       0.18901
  49    .09103        4.7926        0.0000       10.2028       10.2028       5.410213       0.18428
  48    0.1069        4.7926        0.0000       10.2025       10.2025       5.409876       0.17931
  47    0.1255        4.7926        0.0000       10.2021       10.2021       5.409491       0.17426
  46    0.1487        4.7926        0.0000       10.2016       10.2016       5.409010       0.17536
  45    0.1794        4.7926        0.0000       10.2010       10.2010       5.408360       0.17850
  44    0.2165        4.7926        0.0000       10.2002       10.2002       5.407601       0.17277
  43    0.2613        4.7926        0.0000       10.1993       10.1993       5.406715       0.16690
  42    0.3336        4.7926        0.0000       10.1979       10.1979       5.405283       0.16702
  41    0.4307        4.7926        0.0000       10.1960       10.1960       5.403442       0.16002
  40    0.5894        4.7926        0.0000       10.1932       10.1932       5.400568       0.15283
  39     1.339        4.7926        0.0000       10.1816       10.1816       5.388976       0.13051
  38     1.782        4.7926        0.0000       10.1760       10.1760       5.383447       0.10527
  37     2.292        4.7926        0.0000       10.1706       10.1706       5.377989       0.09039
  36     2.964        4.7926        0.0000       10.1646       10.1647       5.372065       0.07437
  35     3.853        4.7926        0.0000       10.1584       10.1584       5.365848       0.05900
  34     5.035        4.7926        0.0000       10.1521       10.1521       5.359508       0.04529
  33     6.613        4.7926        0.0000       10.1456       10.1456       5.353044       0.03456
  32     8.786        4.7926        0.0001       10.1386       10.1386       5.346021       0.02728
  31     11.80        4.7926        0.0001       10.1295       10.1296       5.336957       0.02538
  30     15.07        4.7927        0.0001       10.1196       10.1197       5.327046       0.02559
  29     18.79        4.7927        0.0001       10.1076       10.1077       5.314994       0.02733
  28     23.16        4.7928        0.0002       10.0923       10.0924       5.299626       0.02972
  27     28.12        4.7929        0.0002       10.0731       10.0733       5.280444       0.03261
  26     33.73        4.7930        0.0002       10.0500       10.0503       5.257233       0.03490
  25     40.54        4.7933        0.0003       10.0201       10.0204       5.227164       0.03730
  24     48.69        4.7936        0.0003        9.9820        9.9823       5.188756       0.03975
  23     57.69        4.7939        0.0004        9.9384        9.9389       5.144914       0.04110
  22     68.43        4.7945        0.0005        9.8858        9.8862       5.091762       0.04178
  21     81.20        4.7952        0.0006        9.8234        9.8240       5.028791       0.04161
  20     96.49        4.7963        0.0007        9.7518        9.7524       4.956171       0.04008
  19     114.6        4.7977        0.0008        9.6719        9.6727       4.875015       0.03789
  18     136.5        4.7997        0.0009        9.5858        9.5867       4.787055       0.03382
  17     162.9        4.8025        0.0011        9.4940        9.4952       4.692712       0.03016
  16     196.4        4.8067        0.0013        9.3883        9.3896       4.582930       0.02763
  15     218.7        4.8100        0.0015        9.3229        9.3244       4.514386       0.02602
  14     243.0        4.8143        0.0016        9.2520        9.2536       4.439299       0.02604
  13     269.0        4.8201        0.0018        9.1717        9.1735       4.353394       0.02787
  12     297.5        4.8281        0.0020        9.0763        9.0783       4.250179       0.03061
  11     328.5        4.8385        0.0022        8.9650        8.9671       4.128627       0.03305
  10     361.9        4.8520        0.0024        8.8349        8.8373       3.985318       0.03626
   9     398.1        4.8694        0.0026        8.6820        8.6846       3.815138       0.03965
   8     437.6        4.8922        0.0028        8.5028        8.5056       3.613369       0.04314
   7     480.5        4.9219        0.0030        8.2948        8.2978       3.375929       0.04663
   6     533.0        4.9673        0.0032        8.0209        8.0241       3.056864       0.05133
   5     589.8        5.0306        0.0035        7.7063        7.7098       2.679202       0.05606
   4     651.6        5.1249        0.0037        7.3412        7.3449       2.220035       0.06279
   3     718.7        5.2689        0.0039        6.9387        6.9426       1.673670       0.06866
   2     792.3        5.5030        0.0041        6.5066        6.5107       1.007718       0.07638
   1     891.5        0.1723        0.7950        0.0000        0.7950       0.622738       0.03276
   0    1013.0        0.1840        0.7339        0.0000        0.7339       0.549898       0.00506



 Wavenumbers:  5150. -  6150. cm-1, ATM      1
 LEVEL PRESSURE   UPWARD FLUX   DIFDOWN FLUX  DIRDOWN FLUX  DOWNWARD FLUX   NET FLUX    HEATING RATE
          mb          W/m2          W/m2          W/m2        W/m2          W/m2       degree/day
  51    .06700       11.3134        0.0000       25.5798       25.5798      14.266378       0.00000
  50    .07753       11.3134        0.0000       25.5798       25.5798      14.266339       0.03163
  49    .09103       11.3134        0.0000       25.5797       25.5797      14.266287       0.03211
  48    0.1069       11.3134        0.0000       25.5797       25.5797      14.266226       0.03262
  47    0.1255       11.3134        0.0000       25.5796       25.5796      14.266153       0.03312
  46    0.1487       11.3134        0.0000       25.5795       25.5795      14.266057       0.03489
  45    0.1794       11.3134        0.0000       25.5794       25.5794      14.265922       0.03714
  44    0.2165       11.3134        0.0000       25.5792       25.5792      14.265756       0.03770
  43    0.2613       11.3134        0.0000       25.5790       25.5790      14.265553       0.03828
  42    0.3336       11.3134        0.0000       25.5786       25.5786      14.265206       0.04044
  41    0.4307       11.3134        0.0000       25.5782       25.5782      14.264735       0.04098
  40    0.5894       11.3134        0.0000       25.5774       25.5774      14.263945       0.04199
  39     1.339       11.3134        0.0000       25.5735       25.5736      14.260140       0.04284
  38     1.782       11.3134        0.0001       25.5713       25.5714      14.257924       0.04219
  37     2.292       11.3134        0.0001       25.5688       25.5688      14.255416       0.04155
  36     2.964       11.3134        0.0001       25.5656       25.5657      14.252228       0.04002
  35     3.853       11.3134        0.0001       25.5615       25.5616      14.248175       0.03846
  34     5.035       11.3134        0.0002       25.5562       25.5564      14.242953       0.03730
  33     6.613       11.3135        0.0002       25.5494       25.5496      14.236178       0.03622
  32     8.786       11.3135        0.0003       25.5406       25.5409      14.227393       0.03411
  31     11.80       11.3135        0.0004       25.5287       25.5290      14.215506       0.03328
  30     15.07       11.3136        0.0005       25.5167       25.5172      14.203578       0.03080
  29     18.79       11.3137        0.0006       25.5042       25.5048      14.191097       0.02830
  28     23.16       11.3138        0.0007       25.4907       25.4914      14.177641       0.02602
  27     28.12       11.3139        0.0009       25.4764       25.4773      14.163437       0.02414
  26     33.73       11.3141        0.0011       25.4620       25.4631      14.149018       0.02168
  25     40.54       11.3143        0.0013       25.4463       25.4476      14.133213       0.01961
  24     48.69       11.3147        0.0016       25.4294       25.4309      14.116236       0.01757
  23     57.69       11.3151        0.0019       25.4126       25.4145      14.099328       0.01585
  22     68.43       11.3157        0.0022       25.3944       25.3966      14.080912       0.01448
  21     81.20       11.3164        0.0026       25.3744       25.3770      14.060588       0.01343
  20     96.49       11.3173        0.0031       25.3519       25.3550      14.037692       0.01264
  19     114.6       11.3185        0.0037       25.3262       25.3298      14.011385       0.01228
  18     136.5       11.3198        0.0044       25.2962       25.3006      13.980719       0.01179
  17     162.9       11.3216        0.0052       25.2521       25.2573      13.935727       0.01438
  16     196.4       11.3239        0.0062       25.1593       25.1655      13.841615       0.02369
  15     218.7       11.3256        0.0069       25.0159       25.0228      13.697222       0.05482
  14     243.0       11.3277        0.0076       24.7089       24.7165      13.388805       0.10697
  13     269.0       11.3304        0.0083       24.1619       24.1702      12.839738       0.17811
  12     297.5       11.3341        0.0090       23.4544       23.4634      12.129284       0.21071
  11     328.5       11.3389        0.0097       22.7355       22.7452      11.406266       0.19659
  10     361.9       11.3453        0.0104       21.9224       21.9328      10.587570       0.20714
   9     398.1       11.3539        0.0111       20.9939       21.0050       9.651165       0.21816
   8     437.6       11.3658        0.0118       19.9833       19.9951       8.629284       0.21848
   7     480.5       11.3825        0.0124       18.9483       18.9607       7.578278       0.20641
   6     533.0       11.4108        0.0132       17.7796       17.7928       6.381991       0.19244
   5     589.8       11.4569        0.0140       16.6726       16.6865       5.229611       0.17105
   4     651.6       11.5418        0.0147       15.6343       15.6490       4.107255       0.15349
   3     718.7       11.6985        0.0156       14.7738       14.7894       3.090841       0.12774
   2     792.3       12.0171        0.0165       14.0291       14.0456       2.028529       0.12184
   1     891.5        0.4280        1.8504        0.0000        1.8504       1.422357       0.05158
   0    1013.0        0.4418        1.7624        0.0000        1.7624       1.320581       0.00707



 Wavenumbers:  6150. -  7700. cm-1, ATM      1
 LEVEL PRESSURE   UPWARD FLUX   DIFDOWN FLUX  DIRDOWN FLUX  DOWNWARD FLUX   NET FLUX    HEATING RATE
          mb          W/m2          W/m2          W/m2        W/m2          W/m2       degree/day
  51    .06700       18.2384        0.0000       47.3109       47.3109      29.072425       0.00000
  50    .07753       18.2384        0.0000       47.3108       47.3108      29.072368       0.04553
  49    .09103       18.2384        0.0000       47.3107       47.3107      29.072295       0.04583
  48    0.1069       18.2384        0.0000       47.3106       47.3106      29.072208       0.04614
  47    0.1255       18.2384        0.0000       47.3105       47.3105      29.072106       0.04645
  46    0.1487       18.2384        0.0000       47.3104       47.3104      29.071973       0.04852
  45    0.1794       18.2384        0.0000       47.3102       47.3102      29.071786       0.05127
  44    0.2165       18.2384        0.0000       47.3100       47.3100      29.071559       0.05167
  43    0.2613       18.2384        0.0000       47.3097       47.3097      29.071283       0.05210
  42    0.3336       18.2384        0.0000       47.3092       47.3092      29.070813       0.05471
  41    0.4307       18.2384        0.0000       47.3085       47.3086      29.070178       0.05521
  40    0.5894       18.2384        0.0001       47.3074       47.3075      29.069119       0.05633
  39     1.339       18.2383        0.0002       47.3022       47.3024      29.064027       0.05733
  38     1.782       18.2383        0.0002       47.2991       47.2994      29.061057       0.05655
  37     2.292       18.2383        0.0003       47.2956       47.2959      29.057681       0.05591
  36     2.964       18.2382        0.0004       47.2912       47.2916      29.053362       0.05421
  35     3.853       18.2381        0.0005       47.2855       47.2860      29.047828       0.05252
  34     5.035       18.2381        0.0007       47.2780       47.2787      29.040647       0.05130
  33     6.613       18.2379        0.0009       47.2683       47.2692      29.031259       0.05019
  32     8.786       18.2378        0.0012       47.2556       47.2567      29.018960       0.04777
  31     11.80       18.2375        0.0016       47.2380       47.2396      29.002055       0.04733
  30     15.07       18.2373        0.0020       47.2201       47.2221      28.984767       0.04464
  29     18.79       18.2370        0.0025       47.2008       47.2033      28.966286       0.04190
  28     23.16       18.2367        0.0031       47.1795       47.1826      28.945894       0.03943
  27     28.12       18.2363        0.0037       47.1565       47.1602      28.923899       0.03739
  26     33.73       18.2359        0.0045       47.1324       47.1369      28.900974       0.03447
  25     40.54       18.2354        0.0053       47.1054       47.1107      28.875334       0.03181
  24     48.69       18.2348        0.0064       47.0754       47.0818      28.847076       0.02924
  23     57.69       18.2341        0.0076       47.0449       47.0525      28.818448       0.02683
  22     68.43       18.2333        0.0090       47.0110       47.0200      28.786703       0.02496
  21     81.20       18.2323        0.0107       46.9729       46.9835      28.751198       0.02346
  20     96.49       18.2312        0.0127       46.9294       46.9421      28.710842       0.02227
  19     114.6       18.2299        0.0151       46.8790       46.8941      28.664187       0.02178
  18     136.5       18.2283        0.0179       46.8200       46.8379      28.609531       0.02102
  17     162.9       18.2265        0.0212       46.7361       46.7574      28.530852       0.02515
  16     196.4       18.2243        0.0256       46.5703       46.5958      28.371508       0.04011
  15     218.7       18.2231        0.0284       46.3473       46.3757      28.152562       0.08313
  14     243.0       18.2222        0.0313       45.9299       45.9612      27.738951       0.14345
  13     269.0       18.2222        0.0343       45.1708       45.2051      26.982849       0.24528
  12     297.5       18.2239        0.0372       44.0115       44.0487      25.824711       0.34349
  11     328.5       18.2280        0.0402       42.7242       42.7644      24.536337       0.35031
  10     361.9       18.2357        0.0432       41.3539       41.3971      23.161406       0.34787
   9     398.1       18.2490        0.0462       39.7953       39.8414      21.592468       0.36553
   8     437.6       18.2713        0.0490       37.9948       38.0438      19.772503       0.38912
   7     480.5       18.3068        0.0517       36.0647       36.1164      17.809585       0.38551
   6     533.0       18.3737        0.0547       33.7773       33.8319      15.458228       0.37826
   5     589.8       18.4904        0.0574       31.4082       31.4655      12.975143       0.36857
   4     651.6       18.7164        0.0596       28.8834       28.9430      10.226608       0.37587
   3     718.7       19.1523        0.0616       26.4104       26.4720       7.319710       0.36532
   2     792.3       20.0969        0.0633       24.0056       24.0689       3.972033       0.38394
   1     891.5        0.6261        2.8658        0.0000        2.8658       2.239618       0.14742
   0    1013.0        0.6624        2.6424        0.0000        2.6424       1.979920       0.01803



 Wavenumbers:  7700. -  8050. cm-1, ATM      1
 LEVEL PRESSURE   UPWARD FLUX   DIFDOWN FLUX  DIRDOWN FLUX  DOWNWARD FLUX   NET FLUX    HEATING RATE
          mb          W/m2          W/m2          W/m2        W/m2          W/m2       degree/day
  51    .06700        8.2730        0.0000       11.1810       11.1810       2.907996       0.00000
  50    .07753        8.2730        0.0000       11.1809       11.1809       2.907972       0.01895
  49    .09103        8.2730        0.0000       11.1809       11.1809       2.907943       0.01857
  48    0.1069        8.2730        0.0000       11.1809       11.1809       2.907909       0.01818
  47    0.1255        8.2730        0.0000       11.1809       11.1809       2.907869       0.01779
  46    0.1487        8.2730        0.0000       11.1808       11.1808       2.907820       0.01805
  45    0.1794        8.2730        0.0000       11.1808       11.1808       2.907752       0.01858
  44    0.2165        8.2730        0.0000       11.1807       11.1807       2.907672       0.01822
  43    0.2613        8.2731        0.0000       11.1806       11.1806       2.907577       0.01788
  42    0.3336        8.2731        0.0000       11.1805       11.1805       2.907420       0.01830
  41    0.4307        8.2732        0.0000       11.1803       11.1804       2.907212       0.01810
  40    0.5894        8.2732        0.0000       11.1801       11.1801       2.906872       0.01808
  39     1.339        8.2736        0.0001       11.1788       11.1789       2.905264       0.01811
  38     1.782        8.2739        0.0001       11.1781       11.1782       2.904319       0.01799
  37     2.292        8.2741        0.0001       11.1772       11.1773       2.903225       0.01812
  36     2.964        8.2745        0.0002       11.1761       11.1763       2.901789       0.01803
  35     3.853        8.2749        0.0002       11.1746       11.1748       2.899891       0.01801
  34     5.035        8.2755        0.0003       11.1726       11.1729       2.897371       0.01801
  33     6.613        8.2764        0.0004       11.1700       11.1704       2.894004       0.01800
  32     8.786        8.2775        0.0005       11.1664       11.1669       2.889467       0.01762
  31     11.80        8.2790        0.0007       11.1613       11.1620       2.882980       0.01816
  30     15.07        8.2807        0.0009       11.1558       11.1568       2.876019       0.01797
  29     18.79        8.2827        0.0011       11.1497       11.1508       2.868160       0.01782
  28     23.16        8.2849        0.0014       11.1425       11.1439       2.858989       0.01773
  27     28.12        8.2875        0.0017       11.1343       11.1360       2.848513       0.01781
  26     33.73        8.2904        0.0020       11.1252       11.1272       2.836807       0.01760
  25     40.54        8.2940        0.0025       11.1142       11.1167       2.822687       0.01752
  24     48.69        8.2983        0.0030       11.1010       11.1040       2.805702       0.01758
  23     57.69        8.3030        0.0035       11.0866       11.0901       2.787094       0.01744
  22     68.43        8.3087        0.0041       11.0695       11.0737       2.764998       0.01737
  21     81.20        8.3155        0.0049       11.0494       11.0543       2.738771       0.01733
  20     96.49        8.3237        0.0058       11.0255       11.0314       2.707656       0.01717
  19     114.6        8.3336        0.0069       10.9975       11.0045       2.670903       0.01716
  18     136.5        8.3454        0.0082       10.9648       10.9730       2.627599       0.01665
  17     162.9        8.3597        0.0097       10.9263       10.9360       2.576375       0.01637
  16     196.4        8.3785        0.0117       10.8773       10.8890       2.510457       0.01659
  15     218.7        8.3911        0.0130       10.8455       10.8586       2.467423       0.01634
  14     243.0        8.4051        0.0144       10.8114       10.8259       2.420806       0.01617
  13     269.0        8.4205        0.0160       10.7749       10.7909       2.370383       0.01636
  12     297.5        8.4375        0.0176       10.7357       10.7533       2.315854       0.01617
  11     328.5        8.4563        0.0194       10.6937       10.7132       2.256817       0.01605
  10     361.9        8.4772        0.0213       10.6489       10.6702       2.192954       0.01616
   9     398.1        8.5005        0.0234       10.6008       10.6242       2.123629       0.01615
   8     437.6        8.5267        0.0256       10.5491       10.5747       2.048051       0.01616
   7     480.5        8.5560        0.0280       10.4934       10.5215       1.965468       0.01622
   6     533.0        8.5943        0.0309       10.4243       10.4552       1.860980       0.01681
   5     589.8        8.6389        0.0341       10.3479       10.3820       1.743100       0.01750
   4     651.6        8.6925        0.0375       10.2613       10.2988       1.606297       0.01871
   3     718.7        8.7584        0.0411       10.1618       10.2028       1.444468       0.02034
   2     792.3        8.8423        0.0449       10.0439       10.0888       1.246481       0.02271
   1     891.5        0.3512        1.4608        0.0000        1.4608       1.109570       0.01165
   0    1013.0        0.3583        1.4293        0.0000        1.4293       1.071002       0.00268



 Wavenumbers:  8050. - 12850. cm-1, ATM      1
 LEVEL PRESSURE   UPWARD FLUX   DIFDOWN FLUX  DIRDOWN FLUX  DOWNWARD FLUX   NET FLUX    HEATING RATE
          mb          W/m2          W/m2          W/m2        W/m2          W/m2       degree/day
  51    .06700      108.3947        0.0000      156.5418      156.5418      48.147083       0.00000
  50    .07753      108.3947        0.0000      156.5417      156.5417      48.147083      -0.00000
  49    .09103      108.3946        0.0001      156.5417      156.5417      48.147083      -0.00000
  48    0.1069      108.3946        0.0001      156.5416      156.5417      48.147083       0.00000
  47    0.1255      108.3946        0.0002      156.5415      156.5417      48.147083      -0.00000
  46    0.1487      108.3946        0.0002      156.5414      156.5417      48.147083       0.00000
  45    0.1794      108.3946        0.0003      156.5413      156.5416      48.147083       0.00000
  44    0.2165      108.3945        0.0004      156.5412      156.5416      48.147083      -0.00000
  43    0.2613      108.3945        0.0006      156.5410      156.5416      48.147083       0.00000
  42    0.3336      108.3944        0.0008      156.5407      156.5415      48.147083       0.00000
  41    0.4307      108.3943        0.0011      156.5403      156.5414      48.147083      -0.00000
  40    0.5894      108.3941        0.0015      156.5397      156.5412      48.147083       0.00000
  39     1.339      108.3934        0.0038      156.5367      156.5405      48.147083      -0.00000
  38     1.782      108.3930        0.0051      156.5350      156.5401      48.147083      -0.00000
  37     2.292      108.3925        0.0066      156.5330      156.5395      48.147083      -0.00000
  36     2.964      108.3918        0.0085      156.5303      156.5389      48.147083       0.00000
  35     3.853      108.3909        0.0112      156.5268      156.5380      48.147083       0.00000
  34     5.035      108.3898        0.0146      156.5222      156.5368      48.147083      -0.00000
  33     6.613      108.3882        0.0193      156.5160      156.5353      48.147083      -0.00000
  32     8.786      108.3861        0.0256      156.5076      156.5332      48.147083       0.00000
  31     11.80      108.3831        0.0345      156.4957      156.5302      48.147083      -0.00000
  30     15.07      108.3799        0.0442      156.4828      156.5269      48.147083       0.00000
  29     18.79      108.3762        0.0551      156.4682      156.5233      48.147083      -0.00000
  28     23.16      108.3719        0.0678      156.4512      156.5190      48.147083       0.00000
  27     28.12      108.3670        0.0824      156.4317      156.5141      48.147083      -0.00000
  26     33.73      108.3616        0.0988      156.4099      156.5086      48.147083       0.00000
  25     40.54      108.3549        0.1186      156.3834      156.5020      48.147083       0.00000
  24     48.69      108.3469        0.1425      156.3515      156.4940      48.147083      -0.00000
  23     57.69      108.3381        0.1688      156.3164      156.4852      48.147083      -0.00000
  22     68.43      108.3276        0.2001      156.2746      156.4747      48.147083      -0.00000
  21     81.20      108.3150        0.2375      156.2246      156.4621      48.147083      -0.00000
  20     96.49      108.3001        0.2822      156.1649      156.4471      48.147083       0.00000
  19     114.6      108.2825        0.3353      156.0879      156.4233      48.140798       0.00293
  18     136.5      108.2616        0.3984      155.9962      156.3946      48.133004       0.00300
  17     162.9      108.2367        0.4738      155.8831      156.3568      48.120088       0.00413
  16     196.4      108.2046        0.5717      155.7199      156.2917      48.087048       0.00832
  15     218.7      108.1840        0.6361      155.5733      156.2094      48.025455       0.02338
  14     243.0      108.1629        0.7062      155.3367      156.0428      47.879959       0.05046
  13     269.0      108.1431        0.7819      154.9514      155.7333      47.590183       0.09400
  12     297.5      108.1279        0.8635      154.3896      155.2531      47.125203       0.13791
  11     328.5      108.1191        0.9514      153.7151      154.6665      46.547394       0.15710
  10     361.9      108.1211        1.0458      152.9087      153.9546      45.833460       0.18063
   9     398.1      108.1409        1.1469      151.8986      153.0455      44.904548       0.21642
   8     437.6      108.1907        1.2543      150.6031      151.8575      43.666831       0.26463
   7     480.5      108.2851        1.3680      149.0014      150.3694      42.084296       0.31080
   6     533.0      108.4796        1.5055      146.7375      148.2431      39.763490       0.37334
   5     589.8      108.8354        1.6496      143.8730      145.5226      36.687175       0.45663
   4     651.6      109.5340        1.7974      140.0955      141.8929      32.358944       0.59190
   3     718.7      110.8491        1.9472      135.5278      137.4750      26.625926       0.72048
   2     792.3      113.4864        2.0952      130.0690      132.1642      18.677809       0.91156
   1     891.5        4.0707       17.6599        0.0000       17.6599      13.589162       0.43302
   0    1013.0        4.2121       16.8015        0.0000       16.8015      12.589368       0.06942



 Wavenumbers: 12850. - 16000. cm-1, ATM      1
 LEVEL PRESSURE   UPWARD FLUX   DIFDOWN FLUX  DIRDOWN FLUX  DOWNWARD FLUX   NET FLUX    HEATING RATE
          mb          W/m2          W/m2          W/m2        W/m2          W/m2       degree/day
  51    .06700       77.0001        0.0000       98.0872       98.0872      21.087156       0.00000
  50    .07753       77.0001        0.0001       98.0864       98.0864      21.086364       0.63495
  49    .09103       77.0001        0.0002       98.0853       98.0854      21.085369       0.62193
  48    0.1069       77.0001        0.0003       98.0841       98.0843      21.084225       0.60868
  47    0.1255       77.0001        0.0004       98.0826       98.0830      21.082911       0.59573
  46    0.1487       77.0001        0.0005       98.0809       98.0814      21.081252       0.60465
  45    0.1794       77.0002        0.0007       98.0784       98.0792      21.078995       0.61963
  44    0.2165       77.0002        0.0010       98.0756       98.0766      21.076339       0.60415
  43    0.2613       77.0004        0.0012       98.0723       98.0736      21.073215       0.58891
  42    0.3336       77.0006        0.0017       98.0670       98.0687      21.068114       0.59476
  41    0.4307       77.0010        0.0023       98.0602       98.0625      21.061514       0.57384
  40    0.5894       77.0018        0.0033       98.0496       98.0529      21.051107       0.55342
  39     1.339       77.0086        0.0081       98.0043       98.0125      21.003841       0.53213
  38     1.782       77.0148        0.0109       97.9793       97.9902      20.975394       0.54159
  37     2.292       77.0240        0.0142       97.9498       97.9639      20.939915       0.58763
  36     2.964       77.0393        0.0184       97.9088       97.9273      20.887965       0.65212
  35     3.853       77.0639        0.0241       97.8503       97.8744      20.810547       0.73472
  34     5.035       77.1008        0.0315       97.7680       97.7995      20.698678       0.79915
  33     6.613       77.1525        0.0415       97.6562       97.6977      20.545214       0.82042
  32     8.786       77.2197        0.0549       97.5107       97.5656      20.345885       0.77412
  31     11.80       77.3073        0.0741       97.3179       97.3920      20.084688       0.73127
  30     15.07       77.3913        0.0947       97.1283       97.2231      19.831768       0.65299
  29     18.79       77.4771        0.1180       96.9300       97.0480      19.570874       0.59153
  28     23.16       77.5670        0.1451       96.7166       96.8617      19.294720       0.53399
  27     28.12       77.6575        0.1761       96.4935       96.6696      19.012095       0.48044
  26     33.73       77.7414        0.2108       96.2731       96.4839      18.742487       0.40536
  25     40.54       77.8226        0.2527       96.0408       96.2935      18.470885       0.33695
  24     48.69       77.9010        0.3033       95.7946       96.0979      18.196894       0.28354
  23     57.69       77.9681        0.3588       95.5573       95.9161      17.948008       0.23329
  22     68.43       78.0276        0.4250       95.3106       95.7356      17.708038       0.18865
  21     81.20       78.0704        0.5039       95.0643       95.5683      17.497907       0.13885
  20     96.49       78.0955        0.5981       94.8153       95.4134      17.317912       0.09934
  19     114.6       78.1224        0.7109       94.5411       95.2520      17.129607       0.08793
  18     136.5       78.1435        0.8446       94.2320       95.0767      16.933153       0.07554
  17     162.9       78.1590        1.0038       93.8753       94.8791      16.720157       0.06808
  16     196.4       78.1583        1.2103       93.4347       94.6449      16.486670       0.05877
  15     218.7       78.1506        1.3459       93.1513       94.4971      16.346554       0.05320
  14     243.0       78.1395        1.4932       92.8439       94.3371      16.197687       0.05163
  13     269.0       78.1251        1.6529       92.5111       94.1640      16.038908       0.05151
  12     297.5       78.1083        1.8254       92.1495       93.9748      15.866511       0.05113
  11     328.5       78.0915        2.0117       91.7554       93.7671      15.675657       0.05189
  10     361.9       78.0758        2.2123       91.3262       93.5385      15.462699       0.05388
   9     398.1       78.0635        2.4281       90.8575       93.2856      15.222135       0.05605
   8     437.6       78.0584        2.6596       90.3418       93.0014      14.942991       0.05968
   7     480.5       78.0647        2.9075       89.7728       92.6803      14.615612       0.06430
   6     533.0       78.0946        3.2121       89.0428       92.2550      14.160400       0.07323
   5     589.8       78.1671        3.5392       88.2038       91.7430      13.575929       0.08675
   4     651.6       78.3263        3.8881       87.1979       91.0861      12.759766       0.11161
   3     718.7       78.6080        4.2576       86.0161       90.2738      11.665795       0.13748
   2     792.3       79.1163        4.6438       84.5970       89.2408      10.124473       0.17677
   1     891.5        9.9317       18.8900        0.0000       18.8900       8.958284       0.09924
   0    1013.0       10.0493       18.5480        0.0000       18.5480       8.498714       0.03191



 Wavenumbers: 16000. - 22650. cm-1, ATM      1
 LEVEL PRESSURE   UPWARD FLUX   DIFDOWN FLUX  DIRDOWN FLUX  DOWNWARD FLUX   NET FLUX    HEATING RATE
          mb          W/m2          W/m2          W/m2        W/m2          W/m2       degree/day
  51    .06700      131.5467        0.0000      156.3892      156.3892      24.842547       0.00000
  50    .07753      131.5467        0.0004      156.3887      156.3891      24.842404       0.11506
  49    .09103      131.5466        0.0009      156.3879      156.3888      24.842195       0.13051
  48    0.1069      131.5466        0.0014      156.3871      156.3885      24.841915       0.14882
  47    0.1255      131.5466        0.0021      156.3861      156.3881      24.841541       0.16963
  46    0.1487      131.5466        0.0029      156.3847      156.3876      24.840990       0.20101
  45    0.1794      131.5467        0.0040      156.3828      156.3868      24.840128       0.23668
  44    0.2165      131.5468        0.0053      156.3805      156.3858      24.838958       0.26600
  43    0.2613      131.5471        0.0068      156.3776      156.3845      24.837372       0.29905
  42    0.3336      131.5477        0.0094      156.3726      156.3820      24.834355       0.35168
  41    0.4307      131.5487        0.0128      156.3657      156.3785      24.829809       0.39532
  40    0.5894      131.5509        0.0184      156.3537      156.3720      24.821138       0.46112
  39     1.339      131.5710        0.0446      156.2834      156.3281      24.757074       0.72124
  38     1.782      131.5899        0.0601      156.2324      156.2924      24.702501       1.03899
  37     2.292      131.6185        0.0779      156.1641      156.2420      24.623506       1.30836
  36     2.964      131.6663        0.1014      156.0605      156.1619      24.495537       1.60640
  35     3.853      131.7439        0.1323      155.9041      156.0364      24.292487       1.92698
  34     5.035      131.8612        0.1734      155.6774      155.8507      23.989567       2.16393
  33     6.613      132.0251        0.2281      155.3656      155.5938      23.568625       2.25036
  32     8.786      132.2386        0.3019      154.9577      155.2595      23.020933       2.12704
  31     11.80      132.5160        0.4072      154.4153      154.8224      22.306422       2.00040
  30     15.07      132.7813        0.5201      153.8804      154.4005      21.619179       1.77433
  29     18.79      133.0516        0.6474      153.3191      153.9665      20.914913       1.59679
  28     23.16      133.3334        0.7959      152.7126      153.5084      20.175018       1.43072
  27     28.12      133.6161        0.9654      152.0755      153.0409      19.424755       1.27540
  26     33.73      133.8757        1.1549      151.4409      152.5958      18.720140       1.05941
  25     40.54      134.1235        1.3836      150.7637      152.1473      18.023835       0.86385
  24     48.69      134.3583        1.6591      150.0338      151.6929      17.334593       0.71326
  23     57.69      134.5545        1.9612      149.3151      151.2763      16.721886       0.57432
  22     68.43      134.7214        2.3206      148.5476      150.8682      16.146807       0.45209
  21     81.20      134.8290        2.7485      147.7517      150.5001      15.671160       0.31430
  20     96.49      134.8724        3.2577      146.9127      150.1704      15.297954       0.20598
  19     114.6      134.8801        3.8605      145.9763      149.8368      14.956647       0.15937
  18     136.5      134.8599        4.5721      144.9088      149.4809      14.620950       0.12908
  17     162.9      134.8091        5.4153      143.6785      149.0939      14.284747       0.10746
  16     196.4      134.6856        6.5030      142.1651      148.6680      13.982438       0.07609
  15     218.7      134.5834        7.2135      141.2033      148.4169      13.833529       0.05654
  14     243.0      134.4626        7.9824      140.1753      148.1578      13.695223       0.04797
  13     269.0      134.3216        8.8117      139.0797      147.8914      13.569824       0.04068
  12     297.5      134.1598        9.7033      137.9141      147.6174      13.457654       0.03327
  11     328.5      133.9806       10.6614      136.6676      147.3290      13.348388       0.02971
  10     361.9      133.7838       11.6868      135.3392      147.0259      13.242124       0.02689
   9     398.1      133.5687       12.7832      133.9235      146.7067      13.137933       0.02427
   8     437.6      133.3362       13.9526      132.4163      146.3688      13.032667       0.02251
   7     480.5      133.0857       15.1969      130.8147      146.0116      12.925943       0.02096
   6     533.0      132.7778       16.7160      128.8599      145.5759      12.798109       0.02056
   5     589.8      132.4504       18.3381      126.7679      145.1060      12.655668       0.02114
   4     651.6      132.1100       20.0645      124.5274      144.5920      12.481981       0.02375
   3     718.7      131.7631       21.8966      122.1285      144.0251      12.262024       0.02764
   2     792.3      131.4272       23.8320      119.5548      143.3869      11.959625       0.03468
   1     891.5       41.7048       53.3640        0.0000       53.3640      11.659168       0.02557
   0    1013.0       41.6666       53.0987        0.0000       53.0987      11.432153       0.01576



 Wavenumbers: 22650. - 29000. cm-1, ATM      1
 LEVEL PRESSURE   UPWARD FLUX   DIFDOWN FLUX  DIRDOWN FLUX  DOWNWARD FLUX   NET FLUX    HEATING RATE
          mb          W/m2          W/m2          W/m2        W/m2          W/m2       degree/day
  51    .06700       54.4782        0.0000       59.0156       59.0156       4.537442       0.00000
  50    .07753       54.4781        0.0004       59.0151       59.0155       4.537442      -0.00000
  49    .09103       54.4779        0.0010       59.0144       59.0154       4.537442       0.00000
  48    0.1069       54.4778        0.0017       59.0136       59.0152       4.537442      -0.00000
  47    0.1255       54.4776        0.0024       59.0127       59.0151       4.537442       0.00000
  46    0.1487       54.4774        0.0034       59.0115       59.0148       4.537442      -0.00000
  45    0.1794       54.4771        0.0046       59.0099       59.0146       4.537442       0.00000
  44    0.2165       54.4768        0.0062       59.0080       59.0142       4.537442       0.00000
  43    0.2613       54.4764        0.0080       59.0058       59.0138       4.537442       0.00000
  42    0.3336       54.4757        0.0110       59.0022       59.0131       4.537442      -0.00000
  41    0.4307       54.4748        0.0149       58.9973       59.0122       4.537442       0.00000
  40    0.5894       54.4733        0.0214       58.9894       59.0107       4.537442      -0.00000
  39     1.339       54.4663        0.0520       58.9518       59.0038       4.537442       0.00000
  38     1.782       54.4622        0.0700       58.9297       58.9997       4.537442       0.00000
  37     2.292       54.4575        0.0908       58.9042       58.9949       4.537442       0.00000
  36     2.964       54.4513        0.1181       58.8706       58.9887       4.537442       0.00000
  35     3.853       54.4430        0.1541       58.8264       58.9805       4.537442      -0.00000
  34     5.035       54.4321        0.2020       58.7676       58.9696       4.537442       0.00000
  33     6.613       54.4175        0.2659       58.6891       58.9550       4.537442       0.00000
  32     8.786       54.3979        0.3519       58.5834       58.9353       4.537442      -0.00000
  31     11.80       54.3698        0.4748       58.4324       58.9073       4.537442       0.00000
  30     15.07       54.3397        0.6065       58.2706       58.8772       4.537442       0.00000
  29     18.79       54.3058        0.7550       58.0882       58.8433       4.537442       0.00000
  28     23.16       54.2663        0.9280       57.8757       58.8037       4.537442      -0.00000
  27     28.12       54.2211        1.1252       57.6333       58.7586       4.537442       0.00000
  26     33.73       54.1707        1.3451       57.3631       58.7082       4.537442       0.00000
  25     40.54       54.1101        1.6096       57.0379       58.6475       4.537442       0.00000
  24     48.69       54.0373        1.9268       56.6479       58.5747       4.537442       0.00000
  23     57.69       53.9577        2.2730       56.2221       58.4951       4.537442       0.00000
  22     68.43       53.8634        2.6823       55.7186       58.4009       4.537442      -0.00000
  21     81.20       53.7519        3.1655       55.1239       58.2894       4.537442       0.00000
  20     96.49       53.6203        3.7349       54.4228       58.1577       4.537442       0.00000
  19     114.6       53.4655        4.4020       53.6010       58.0030       4.537442      -0.00000
  18     136.5       53.2844        5.1801       52.6418       57.8219       4.537442       0.00000
  17     162.9       53.0720        6.0891       51.5203       57.6094       4.537442       0.00000
  16     196.4       52.8017        7.2397       50.0994       57.3391       4.537442      -0.00000
  15     218.7       52.6272        7.9784       49.1863       57.1647       4.537442       0.00000
  14     243.0       52.4403        8.7665       48.2113       56.9778       4.537442      -0.00000
  13     269.0       52.2409        9.6034       47.1749       56.7783       4.537442       0.00000
  12     297.5       52.0290       10.4881       46.0783       56.5664       4.537442      -0.00000
  11     328.5       51.8040       11.4219       44.9195       56.3414       4.537442       0.00000
  10     361.9       51.5663       12.4019       43.7018       56.1037       4.537442       0.00000
   9     398.1       51.3156       13.4281       42.4250       55.8531       4.537442      -0.00000
   8     437.6       51.0522       14.4980       41.0916       55.5897       4.537442      -0.00000
   7     480.5       50.7762       15.6092       39.7045       55.3137       4.537442      -0.00000
   6     533.0       50.4452       16.9284       38.0543       54.9826       4.537442       0.00000
   5     589.8       50.0984       18.2928       36.3431       54.6359       4.537442       0.00000
   4     651.6       49.7370       19.6949       34.5795       54.2745       4.537442       0.00000
   3     718.7       49.3614       21.1287       32.7702       53.8989       4.537442      -0.00000
   2     792.3       48.9730       22.5849       30.9256       53.5104       4.537442       0.00000
   1     891.5       16.6915       21.2279        0.0000       21.2279       4.536386       0.00009
   0    1013.0       16.5337       21.0701        0.0000       21.0701       4.536386       0.00000



 Wavenumbers: 29000. - 38000. cm-1, ATM      1
 LEVEL PRESSURE   UPWARD FLUX   DIFDOWN FLUX  DIRDOWN FLUX  DOWNWARD FLUX   NET FLUX    HEATING RATE
          mb          W/m2          W/m2          W/m2        W/m2          W/m2       degree/day
  51    .06700        8.2199        0.0000       20.8114       20.8114      12.591428       0.00000
  50    .07753        8.2197        0.0003       20.8070       20.8074      12.587621       3.05102
  49    .09103        8.2195        0.0007       20.8009       20.8016      12.582085       3.46024
  48    0.1069        8.2192        0.0012       20.7928       20.7939      12.574676       3.94359
  47    0.1255        8.2190        0.0017       20.7820       20.7837      12.564774       4.48952
  46    0.1487        8.2186        0.0024       20.7665       20.7688      12.550213       5.30746
  45    0.1794        8.2181        0.0032       20.7424       20.7457      12.527552       6.22087
  44    0.2165        8.2176        0.0043       20.7103       20.7146      12.497036       6.94206
  43    0.2613        8.2170        0.0056       20.6675       20.6730      12.456049       7.72579
  42    0.3336        8.2161        0.0076       20.5880       20.5956      12.379504       8.92440
  41    0.4307        8.2149        0.0103       20.4722       20.4825      12.267576       9.73190
  40    0.5894        8.2133        0.0145       20.2637       20.2782      12.064940      10.77593
  39     1.339        8.2093        0.0327       19.0984       19.1311      10.921825      12.86940
  38     1.782        8.2093        0.0422       18.4394       18.4815      10.272206      12.36769
  37     2.292        8.2114        0.0523       17.7714       17.8237       9.612295      10.92985
  36     2.964        8.2170        0.0648       17.0421       17.1069       8.889861       9.06874
  35     3.853        8.2285        0.0804       16.2678       16.3483       8.119759       7.30841
  34     5.035        8.2477        0.1002       15.4803       15.5805       7.332853       5.62133
  33     6.613        8.2757        0.1255       14.7157       14.8412       6.565459       4.10249
  32     8.786        8.3128        0.1586       13.9936       14.1522       5.839353       2.81993
  31     11.80        8.3611        0.2047       13.2835       13.4882       5.127113       1.99405
  30     15.07        8.4076        0.2525       12.7394       12.9918       4.584258       1.40155
  29     18.79        8.4554        0.3054       12.2666       12.5720       4.116570       1.06039
  28     23.16        8.5061        0.3655       11.8300       12.1955       3.689451       0.82591
  27     28.12        8.5578        0.4328       11.4279       11.8607       3.302926       0.65707
  26     33.73        8.6050        0.5070       11.0695       11.5764       2.971428       0.49842
  25     40.54        8.6491        0.5955       10.7209       11.3164       2.667322       0.37728
  24     48.69        8.6898        0.7005       10.3742       11.0747       2.384895       0.29227
  23     57.69        8.7220        0.8140       10.0549       10.8689       2.146910       0.22308
  22     68.43        8.7464        0.9471        9.7327       10.6799       1.933515       0.16776
  21     81.20        8.7541        1.1042        9.4134       10.5177       1.763549       0.11231
  20     96.49        8.7432        1.2888        9.0887       10.3775       1.634308       0.07133
  19     114.6        8.7211        1.5017        8.7388       10.2405       1.519396       0.05366
  18     136.5        8.6905        1.7449        8.3549       10.0998       1.409274       0.04234
  17     162.9        8.6512        2.0217        7.9311        9.9528       1.301601       0.03442
  16     196.4        8.5902        2.3638        7.4333        9.7972       1.206984       0.02382
  15     218.7        8.5473        2.5787        7.1295        9.7082       1.160907       0.01749
  14     243.0        8.5006        2.8029        6.8161        9.6190       1.118411       0.01474
  13     269.0        8.4497        3.0356        6.4943        9.5300       1.080303       0.01236
  12     297.5        8.3947        3.2757        6.1657        9.4414       1.046756       0.00995
  11     328.5        8.3369        3.5221        5.8295        9.3515       1.014685       0.00872
  10     361.9        8.2767        3.7723        5.4886        9.2609       0.984234       0.00770
   9     398.1        8.2141        4.0256        5.1440        9.1695       0.955426       0.00671
   8     437.6        8.1497        4.2805        4.7969        9.0774       0.927708       0.00593
   7     480.5        8.0837        4.5348        4.4504        8.9851       0.901450       0.00516
   6     533.0        8.0065        4.8231        4.0563        8.8794       0.872894       0.00459
   5     589.8        7.9285        5.1056        3.6682        8.7738       0.845321       0.00409
   4     651.6        7.8504        5.3783        3.2905        8.6688       0.818424       0.00368
   3     718.7        7.7725        5.6395        2.9252        8.5647       0.792165       0.00330
   2     792.3        7.6955        5.8857        2.5764        8.4621       0.766551       0.00294
   1     891.5        2.7193        3.4650        0.0000        3.4650       0.745699       0.00177
   0    1013.0        2.6714        3.4044        0.0000        3.4044       0.732964       0.00088



 Wavenumbers: 38000. - 50000. cm-1, ATM      1
 LEVEL PRESSURE   UPWARD FLUX   DIFDOWN FLUX  DIRDOWN FLUX  DOWNWARD FLUX   NET FLUX    HEATING RATE
          mb          W/m2          W/m2          W/m2        W/m2          W/m2       degree/day
  51    .06700        0.0061        0.0000        1.2836        1.2836       1.277518       0.00000
  50    .07753        0.0061        0.0001        1.2812        1.2812       1.275183       1.87150
  49    .09103        0.0060        0.0002        1.2777        1.2778       1.271851       2.08247
  48    0.1069        0.0059        0.0002        1.2731        1.2734       1.267473       2.33059
  47    0.1255        0.0058        0.0004        1.2672        1.2675       1.261717       2.60908
  46    0.1487        0.0057        0.0005        1.2586        1.2591       1.253391       3.03499
  45    0.1794        0.0055        0.0007        1.2455        1.2462       1.240623       3.50520
  44    0.2165        0.0054        0.0009        1.2282        1.2291       1.223697       3.85037
  43    0.2613        0.0052        0.0011        1.2054        1.2065       1.201348       4.21261
  42    0.3336        0.0049        0.0015        1.1639        1.1654       1.160524       4.75970
  41    0.4307        0.0045        0.0020        1.1051        1.1070       1.102565       5.03943
  40    0.5894        0.0039        0.0026        1.0039        1.0064       1.002524       5.32007
  39     1.339        0.0022        0.0035        0.5438        0.5473       0.545104       5.14971
  38     1.782        0.0016        0.0032        0.3635        0.3666       0.365006       3.42879
  37     2.292        0.0012        0.0027        0.2356        0.2383       0.237058       2.11916
  36     2.964        0.0009        0.0022        0.1455        0.1477       0.146786       1.13318
  35     3.853        0.0006        0.0017        0.0858        0.0875       0.086906       0.56828
  34     5.035        0.0004        0.0013        0.0488        0.0501       0.049701       0.26578
  33     6.613        0.0003        0.0010        0.0273        0.0282       0.027974       0.11615
  32     8.786        0.0002        0.0007        0.0144        0.0151       0.014928       0.05067
  31     11.80        0.0001        0.0004        0.0065        0.0070       0.006903       0.02247
  30     15.07        0.0000        0.0003        0.0031        0.0034       0.003329       0.00923
  29     18.79        0.0000        0.0002        0.0014        0.0016       0.001583       0.00396
  28     23.16        0.0000        0.0001        0.0006        0.0007       0.000720       0.00167
  27     28.12        0.0000        0.0001        0.0003        0.0003       0.000317       0.00069
  26     33.73        0.0000        0.0000        0.0001        0.0001       0.000140       0.00027
  25     40.54        0.0000        0.0000        0.0000        0.0001       0.000057       0.00010
  24     48.69        0.0000        0.0000        0.0000        0.0000       0.000021       0.00004
  23     57.69        0.0000        0.0000        0.0000        0.0000       0.000008       0.00001
  22     68.43        0.0000        0.0000        0.0000        0.0000       0.000003       0.00000
  21     81.20        0.0000        0.0000        0.0000        0.0000       0.000001       0.00000
  20     96.49        0.0000        0.0000        0.0000        0.0000       0.000000       0.00000
  19     114.6        0.0000        0.0000        0.0000        0.0000       0.000000       0.00000
  18     136.5        0.0000        0.0000        0.0000        0.0000       0.000000       0.00000
  17     162.9        0.0000        0.0000        0.0000        0.0000       0.000000       0.00000
  16     196.4        0.0000        0.0000        0.0000        0.0000       0.000000       0.00000
  15     218.7        0.0000        0.0000        0.0000        0.0000       0.000000       0.00000
  14     243.0        0.0000        0.0000        0.0000        0.0000       0.000000       0.00000
  13     269.0        0.0000        0.0000        0.0000        0.0000       0.000000       0.00000
  12     297.5        0.0000        0.0000        0.0000        0.0000       0.000000       0.00000
  11     328.5        0.0000        0.0000        0.0000        0.0000       0.000000       0.00000
  10     361.9        0.0000        0.0000        0.0000        0.0000       0.000000       0.00000
   9     398.1        0.0000        0.0000        0.0000        0.0000       0.000000       0.00000
   8     437.6        0.0000        0.0000        0.0000        0.0000       0.000000       0.00000
   7     480.5        0.0000        0.0000        0.0000        0.0000       0.000000       0.00000
   6     533.0        0.0000        0.0000        0.0000        0.0000       0.000000       0.00000
   5     589.8        0.0000        0.0000        0.0000        0.0000       0.000000       0.00000
   4     651.6        0.0000        0.0000        0.0000        0.0000       0.000000       0.00000
   3     718.7        0.0000        0.0000        0.0000        0.0000       0.000000       0.00000
   2     792.3        0.0000        0.0000        0.0000        0.0000       0.000000       0.00000
   1     891.5        0.0000        0.0000        0.0000        0.0000       0.000000       0.00000
   0    1013.0        0.0000        0.0000        0.0000        0.0000       0.000000       0.00000



 Wavenumbers:   820. -  2600. cm-1, ATM      1
 LEVEL PRESSURE   UPWARD FLUX   DIFDOWN FLUX  DIRDOWN FLUX  DOWNWARD FLUX   NET FLUX    HEATING RATE
          mb          W/m2          W/m2          W/m2        W/m2          W/m2       degree/day
  51    .06700        1.6088        0.0000        6.0047        6.0047       4.395886       0.00000
  50    .07753        1.6088        0.0000        6.0008        6.0008       4.392033       3.08825
  49    .09103        1.6088        0.0000        5.9999        5.9999       4.391147       0.55362
  48    0.1069        1.6088        0.0000        5.9989        5.9989       4.390158       0.52657
  47    0.1255        1.6088        0.0000        5.9978        5.9978       4.389041       0.50654
  46    0.1487        1.6088        0.0000        5.9964        5.9964       4.387684       0.49462
  45    0.1794        1.6088        0.0000        5.9947        5.9947       4.385964       0.47205
  44    0.2165        1.6088        0.0000        5.9929        5.9929       4.384122       0.41915
  43    0.2613        1.6088        0.0000        5.9909        5.9909       4.382162       0.36938
  42    0.3336        1.6088        0.0000        5.9880        5.9880       4.379283       0.33562
  41    0.4307        1.6088        0.0000        5.9846        5.9846       4.375813       0.30170
  40    0.5894        1.6088        0.0000        5.9791        5.9791       4.370307       0.29282
  39     1.339        1.6088        0.0000        5.9536        5.9536       4.344814       0.28700
  38     1.782        1.6088        0.0000        5.9395        5.9395       4.330673       0.26923
  37     2.292        1.6088        0.0000        5.9237        5.9237       4.314918       0.26094
  36     2.964        1.6088        0.0000        5.9039        5.9039       4.295139       0.24828
  35     3.853        1.6088        0.0000        5.8793        5.8793       4.270477       0.23405
  34     5.035        1.6088        0.0000        5.8487        5.8487       4.239906       0.21839
  33     6.613        1.6088        0.0000        5.8108        5.8108       4.201930       0.20302
  32     8.786        1.6089        0.0000        5.7631        5.7631       4.154291       0.18501
  31     11.80        1.6089        0.0000        5.7039        5.7039       4.095011       0.16596
  30     15.07        1.6089        0.0000        5.6539        5.6539       4.044948       0.12925
  29     18.79        1.6090        0.0000        5.6127        5.6127       4.003784       0.09333
  28     23.16        1.6090        0.0000        5.5794        5.5794       3.970373       0.06461
  27     28.12        1.6090        0.0000        5.5518        5.5518       3.942766       0.04693
  26     33.73        1.6091        0.0000        5.5268        5.5268       3.917667       0.03774
  25     40.54        1.6092        0.0000        5.4993        5.4993       3.890166       0.03412
  24     48.69        1.6092        0.0000        5.4678        5.4678       3.858554       0.03271
  23     57.69        1.6093        0.0000        5.4340        5.4340       3.824687       0.03175
  22     68.43        1.6094        0.0000        5.3947        5.3948       3.785316       0.03095
  21     81.20        1.6096        0.0000        5.3497        5.3497       3.740162       0.02984
  20     96.49        1.6097        0.0000        5.2982        5.2982       3.688499       0.02851
  19     114.6        1.6099        0.0000        5.2389        5.2389       3.628991       0.02779
  18     136.5        1.6102        0.0000        5.1716        5.1717       3.561500       0.02595
  17     162.9        1.6105        0.0000        5.0890        5.0891       3.478535       0.02652
  16     196.4        1.6111        0.0000        4.9668        4.9668       3.355714       0.03092
  15     218.7        1.6117        0.0000        4.8585        4.8585       3.246770       0.04136
  14     243.0        1.6127        0.0000        4.7078        4.7079       3.095214       0.05256
  13     269.0        1.6140        0.0000        4.5343        4.5343       2.920242       0.05676
  12     297.5        1.6163        0.0000        4.3419        4.3420       2.725694       0.05770
  11     328.5        1.6193        0.0000        4.1281        4.1281       2.508885       0.05895
  10     361.9        1.6232        0.0000        3.8786        3.8787       2.255454       0.06412
   9     398.1        1.6284        0.0000        3.6159        3.6160       1.987597       0.06240
   8     437.6        1.6350        0.0000        3.3759        3.3759       1.740887       0.05275
   7     480.5        1.6432        0.0000        3.1957        3.1958       1.552633       0.03697
   6     533.0        1.6555        0.0000        3.0467        3.0467       1.391172       0.02597
   5     589.8        1.6738        0.0001        2.9023        2.9023       1.228506       0.02415
   4     651.6        1.7056        0.0001        2.7183        2.7184       1.012747       0.02951
   3     718.7        1.7610        0.0001        2.5058        2.5059       0.744869       0.03366
   2     792.3        1.8694        0.0001        2.2756        2.2757       0.406297       0.03883
   1     891.5        0.0404        0.2340        0.0000        0.2340       0.193691       0.01809
   0    1013.0        0.0483        0.1925        0.0000        0.1925       0.144212       0.00344

  Modules and versions used in this calculation:

       rrtmg_sw.1col.f90:  $Revision$                    rrtmg_sw_init.f90:  $Revision$        
     rrtmgsw_cldprop.f90:  $Revision$                  rrtmgsw_cldprmc.f90:  NOT USED          
     rrtmg_sw_reftra.f90:  $Revision$                  rrtmg_sw_spcvrt.f90:  NOT USED          
     rrtmg_sw_spcvmc.f90:  NOT USED                    rrtmgsw_setcoef.f90:  NOT USED          
     rrtmg_sw_taumol.f90:  $Revision$                  rrtmg_sw_vrtqdr.f90:  NOT USED          
                rrtatm.f:  NOT USED                             util_xxx.f:  NOT USED          
                 extra.f:  NOT USED                       rrtmg_sw_k_g.f90:  $Revision$        

