

 Wavenumbers:   820. - 50000. cm-1, ATM      1
 LEVEL PRESSURE   UPWARD FLUX   DIFDOWN FLUX  DIRDOWN FLUX  DOWNWARD FLUX   NET FLUX    HEATING RATE
          mb          W/m2          W/m2          W/m2        W/m2          W/m2       degree/day
  51    .06700      291.2927        0.0000      617.8126      617.8126     326.519886       0.00000
  50    .07753      291.2922        0.0013      617.7947      617.7960     326.503767      12.91978
  49    .09103      291.2916        0.0029      617.7778      617.7806     326.488987       9.23773
  48    0.1069      291.2910        0.0047      617.7581      617.7628     326.471766       9.16720
  47    0.1255      291.2903        0.0068      617.7340      617.7408     326.450474       9.65276
  46    0.1487      291.2895        0.0095      617.7009      617.7104     326.420865      10.79263
  45    0.1794      291.2884        0.0131      617.6521      617.6652     326.376754      12.10953
  44    0.2165      291.2873        0.0174      617.5895      617.6069     326.319595      13.00277
  43    0.2613      291.2860        0.0224      617.5089      617.5313     326.245301      14.00408
  42    0.3336      291.2842        0.0308      617.3641      617.3949     326.110631      15.70121
  41    0.4307      291.2822        0.0417      617.1591      617.2008     325.918632      16.69388
  40    0.5894      291.2797        0.0594      616.8005      616.8598     325.580129      18.00113
  39     1.339      291.2830        0.1389      614.9443      615.0832     323.800255      20.03815
  38     1.782      291.2952        0.1836      613.9670      614.1506     322.855403      17.98845
  37     2.292      291.3188        0.2344      613.0059      613.2402     321.921476      15.46827
  36     2.964      291.3637        0.3003      611.9577      612.2579     320.894261      12.89465
  35     3.853      291.4425        0.3867      610.8024      611.1891     319.746593      10.89158
  34     5.035      291.5663        0.5006      609.5327      610.0333     318.466996       9.14091
  33     6.613      291.7421        0.6518      608.1464      608.7982     317.056132       7.54248
  32     8.786      291.9704        0.8545      606.6250      607.4796     315.509190       6.00776
  31     11.80      292.2626        1.1431      604.8486      605.9917     313.729067       4.98378
  30     15.07      292.5364        1.4508      603.2440      604.6947     312.158274       4.05548
  29     18.79      292.8100        1.7968      601.6511      603.4479     310.637936       3.44707
  28     23.16      293.0884        2.1987      599.9927      602.1914     309.102991       2.96809
  27     28.12      293.3585        2.6558      598.2881      600.9439     307.585392       2.57982
  26     33.73      293.5901        3.1652      596.5951      599.7603     306.170244       2.12771
  25     40.54      293.7874        3.7782      594.7727      598.5509     304.763483       1.74525
  24     48.69      293.9455        4.5133      592.7865      597.2998     303.354248       1.45834
  23     57.69      294.0418        5.3163      590.7959      596.1122     302.070411       1.20340
  22     68.43      294.0723        6.2669      588.6191      594.8860     300.813635       0.98799
  21     81.20      293.9919        7.3931      586.2690      593.6621     299.670134       0.75561
  20     96.49      293.7878        8.7253      583.6961      592.4214     298.633618       0.57208
  19     114.6      293.5009       10.2908      580.7708      591.0616     297.560703       0.50098
  18     136.5      293.1258       12.1213      577.4359      589.5572     296.431372       0.43425
  17     162.9      292.6498       14.2662      573.5624      587.8286     295.178859       0.40035
  16     196.4      291.9639       16.9963      568.5907      585.5870     293.623054       0.39161
  15     218.7      291.4911       18.7582      565.0572      583.8154     292.324375       0.49306
  14     243.0      290.9701       20.6452      560.7495      581.3947     290.424636       0.65889
  13     269.0      290.3997       22.6577      555.3947      578.0524     287.652744       0.89919
  12     297.5      289.7808       24.7956      548.9964      573.7920     284.011215       1.08004
  11     328.5      289.1181       27.0641      542.0895      569.1536     280.035511       1.08098
  10     361.9      288.4141       29.4585      534.6242      564.0827     275.668605       1.10487
   9     398.1      287.6707       31.9819      526.4204      558.4023     270.731641       1.15020
   8     437.6      286.8956       34.6319      517.3907      552.0226     265.126993       1.19831
   7     480.5      286.0959       37.4053      507.7216      545.1269     259.031025       1.19723
   6     533.0      285.1681       40.7283      495.9006      536.6289     251.460732       1.21782
   5     589.8      284.2683       44.2010      483.0788      527.2798     243.011510       1.25414
   4     651.6      283.4995       47.8088      468.6907      516.4994     232.999949       1.36911
   3     718.7      282.9912       51.5416      453.2257      504.7673     221.776164       1.41052
   2     792.3      283.0762       55.3763      436.4928      491.8692     208.792905       1.48903
   1     891.5      229.7036      155.2802      266.4413      421.7215     192.017911       1.42747
   0    1013.0      231.1337      155.2609      250.0134      405.2743     174.140615       1.24131



 Wavenumbers:  2600. -  3250. cm-1, ATM      1
 LEVEL PRESSURE   UPWARD FLUX   DIFDOWN FLUX  DIRDOWN FLUX  DOWNWARD FLUX   NET FLUX    HEATING RATE
          mb          W/m2          W/m2          W/m2        W/m2          W/m2       degree/day
  51    .06700        0.7340        0.0000        5.4450        5.4450       4.711083       0.00000
  50    .07753        0.7340        0.0000        5.4450        5.4450       4.711075       0.00640
  49    .09103        0.7340        0.0000        5.4450        5.4450       4.711065       0.00627
  48    0.1069        0.7340        0.0000        5.4450        5.4450       4.711053       0.00613
  47    0.1255        0.7340        0.0000        5.4450        5.4450       4.711040       0.00599
  46    0.1487        0.7340        0.0000        5.4450        5.4450       4.711023       0.00608
  45    0.1794        0.7340        0.0000        5.4450        5.4450       4.711001       0.00625
  44    0.2165        0.7340        0.0000        5.4449        5.4449       4.710974       0.00612
  43    0.2613        0.7340        0.0000        5.4449        5.4449       4.710942       0.00600
  42    0.3336        0.7340        0.0000        5.4448        5.4448       4.710889       0.00617
  41    0.4307        0.7340        0.0000        5.4448        5.4448       4.710818       0.00620
  40    0.5894        0.7340        0.0000        5.4446        5.4446       4.710698       0.00637
  39     1.339        0.7340        0.0000        5.4439        5.4439       4.709990       0.00797
  38     1.782        0.7340        0.0000        5.4434        5.4434       4.709447       0.01034
  37     2.292        0.7340        0.0000        5.4427        5.4427       4.708732       0.01186
  36     2.964        0.7340        0.0000        5.4416        5.4416       4.707693       0.01304
  35     3.853        0.7340        0.0000        5.4402        5.4402       4.706216       0.01402
  34     5.035        0.7339        0.0000        5.4381        5.4381       4.704160       0.01468
  33     6.613        0.7339        0.0000        5.4353        5.4353       4.701379       0.01487
  32     8.786        0.7339        0.0000        5.4317        5.4317       4.697747       0.01411
  31     11.80        0.7339        0.0000        5.4269        5.4269       4.692966       0.01338
  30     15.07        0.7339        0.0000        5.4224        5.4224       4.688439       0.01169
  29     18.79        0.7339        0.0000        5.4180        5.4180       4.684026       0.01000
  28     23.16        0.7339        0.0000        5.4135        5.4135       4.679539       0.00868
  27     28.12        0.7340        0.0000        5.4088        5.4088       4.674890       0.00790
  26     33.73        0.7340        0.0000        5.4036        5.4036       4.669647       0.00788
  25     40.54        0.7340        0.0000        5.3966        5.3967       4.662702       0.00862
  24     48.69        0.7340        0.0000        5.3872        5.3872       4.653219       0.00981
  23     57.69        0.7340        0.0000        5.3754        5.3754       4.641427       0.01105
  22     68.43        0.7340        0.0000        5.3599        5.3599       4.625928       0.01218
  21     81.20        0.7340        0.0000        5.3401        5.3401       4.606077       0.01312
  20     96.49        0.7340        0.0000        5.3155        5.3155       4.581487       0.01357
  19     114.6        0.7341        0.0000        5.2853        5.2853       4.551256       0.01412
  18     136.5        0.7342        0.0001        5.2504        5.2505       4.516300       0.01344
  17     162.9        0.7343        0.0001        5.2111        5.2111       4.476886       0.01260
  16     196.4        0.7344        0.0001        5.1640        5.1641       4.429673       0.01188
  15     218.7        0.7346        0.0001        5.1331        5.1332       4.398575       0.01181
  14     243.0        0.7349        0.0001        5.0962        5.0963       4.361388       0.01290
  13     269.0        0.7354        0.0001        5.0511        5.0512       4.315801       0.01479
  12     297.5        0.7361        0.0001        4.9956        4.9957       4.259608       0.01667
  11     328.5        0.7371        0.0001        4.9304        4.9305       4.193388       0.01801
  10     361.9        0.7385        0.0001        4.8511        4.8512       4.112758       0.02040
   9     398.1        0.7404        0.0001        4.7507        4.7508       4.010474       0.02383
   8     437.6        0.7429        0.0002        4.6220        4.6222       3.879244       0.02806
   7     480.5        0.7465        0.0002        4.4625        4.4626       3.716130       0.03204
   6     533.0        0.7523        0.0002        4.2460        4.2462       3.493934       0.03574
   5     589.8        0.7610        0.0002        3.9954        3.9956       3.234582       0.03850
   4     651.6        0.7752        0.0002        3.7089        3.7090       2.933816       0.04113
   3     718.7        0.7983        0.0002        3.4018        3.4020       2.603699       0.04149
   2     792.3        0.8391        0.0002        3.0564        3.0566       2.217552       0.04429
   1     891.5        0.4463        0.5117        1.6624        2.1740       1.727680       0.04169
   0    1013.0        0.5154        0.4235        1.3417        1.7652       1.249791       0.03318



 Wavenumbers:  3250. -  4000. cm-1, ATM      1
 LEVEL PRESSURE   UPWARD FLUX   DIFDOWN FLUX  DIRDOWN FLUX  DOWNWARD FLUX   NET FLUX    HEATING RATE
          mb          W/m2          W/m2          W/m2        W/m2          W/m2       degree/day
  51    .06700        0.0100        0.0000        9.1795        9.1795       9.169555       0.00000
  50    .07753        0.0100        0.0000        9.1747        9.1747       9.164712       3.88148
  49    .09103        0.0100        0.0000        9.1713        9.1713       9.161324       2.11747
  48    0.1069        0.0100        0.0000        9.1688        9.1688       9.158799       1.34402
  47    0.1255        0.0100        0.0000        9.1665        9.1665       9.156540       1.02422
  46    0.1487        0.0100        0.0000        9.1641        9.1641       9.154099       0.88991
  45    0.1794        0.0100        0.0000        9.1612        9.1612       9.151221       0.79008
  44    0.2165        0.0100        0.0000        9.1583        9.1583       9.148300       0.66430
  43    0.2613        0.0100        0.0000        9.1553        9.1553       9.145327       0.56041
  42    0.3336        0.0100        0.0000        9.1511        9.1511       9.141148       0.48723
  41    0.4307        0.0100        0.0000        9.1464        9.1464       9.136380       0.41459
  40    0.5894        0.0100        0.0000        9.1393        9.1394       9.129374       0.37255
  39     1.339        0.0100        0.0000        9.1127        9.1127       9.102761       0.29962
  38     1.782        0.0100        0.0000        9.1011        9.1011       9.091173       0.22062
  37     2.292        0.0100        0.0000        9.0901        9.0901       9.080106       0.18329
  36     2.964        0.0100        0.0000        9.0776        9.0776       9.067676       0.15603
  35     3.853        0.0100        0.0000        9.0629        9.0629       9.052886       0.14036
  34     5.035        0.0100        0.0000        9.0441        9.0441       9.034147       0.13386
  33     6.613        0.0100        0.0000        9.0191        9.0191       9.009145       0.13366
  32     8.786        0.0100        0.0000        8.9843        8.9843       8.974362       0.13509
  31     11.80        0.0100        0.0000        8.9327        8.9327       8.922745       0.14451
  30     15.07        0.0100        0.0000        8.8758        8.8759       8.865901       0.14676
  29     18.79        0.0100        0.0000        8.8110        8.8110       8.801073       0.14698
  28     23.16        0.0099        0.0000        8.7365        8.7366       8.726629       0.14395
  27     28.12        0.0099        0.0000        8.6554        8.6555       8.645515       0.13789
  26     33.73        0.0099        0.0000        8.5719        8.5719       8.562016       0.12554
  25     40.54        0.0099        0.0001        8.4812        8.4812       8.471292       0.11255
  24     48.69        0.0099        0.0001        8.3838        8.3839       8.373991       0.10069
  23     57.69        0.0099        0.0001        8.2861        8.2862       8.276255       0.09161
  22     68.43        0.0099        0.0001        8.1751        8.1751       8.165259       0.08726
  21     81.20        0.0099        0.0001        8.0457        8.0458       8.035901       0.08548
  20     96.49        0.0099        0.0001        7.8949        7.8950       7.885197       0.08318
  19     114.6        0.0098        0.0001        7.7162        7.7163       7.706488       0.08344
  18     136.5        0.0098        0.0002        7.5193        7.5194       7.509644       0.07569
  17     162.9        0.0098        0.0002        7.2913        7.2915       7.281753       0.07284
  16     196.4        0.0097        0.0002        6.9660        6.9662       6.956479       0.08188
  15     218.7        0.0097        0.0002        6.6648        6.6650       6.655289       0.11435
  14     243.0        0.0097        0.0002        6.2619        6.2622       6.252491       0.13970
  13     269.0        0.0097        0.0003        5.7576        5.7579       5.748182       0.16360
  12     297.5        0.0097        0.0003        5.1719        5.1722       5.162470       0.17372
  11     328.5        0.0097        0.0002        4.5757        4.5760       4.566275       0.16210
  10     361.9        0.0097        0.0002        3.9995        3.9998       3.990040       0.14579
   9     398.1        0.0098        0.0002        3.4655        3.4657       3.455885       0.12445
   8     437.6        0.0100        0.0002        2.9740        2.9742       2.964275       0.10511
   7     480.5        0.0102        0.0002        2.5307        2.5309       2.520638       0.08713
   6     533.0        0.0107        0.0002        2.0614        2.0616       2.050834       0.07558
   5     589.8        0.0116        0.0002        1.6150        1.6151       1.603475       0.06640
   4     651.6        0.0136        0.0001        1.1565        1.1566       1.142987       0.06297
   3     718.7        0.0179        0.0001        0.7390        0.7391       0.721207       0.05301
   2     792.3        0.0293        0.0001        0.3985        0.3985       0.369192       0.04037
   1     891.5        0.0002        0.0207        0.0733        0.0941       0.093810       0.02343
   0    1013.0        0.0024        0.0021        0.0060        0.0082       0.005807       0.00611



 Wavenumbers:  4000. -  4650. cm-1, ATM      1
 LEVEL PRESSURE   UPWARD FLUX   DIFDOWN FLUX  DIRDOWN FLUX  DOWNWARD FLUX   NET FLUX    HEATING RATE
          mb          W/m2          W/m2          W/m2        W/m2          W/m2       degree/day
  51    .06700        2.6607        0.0000       10.7795       10.7795       8.118864       0.00000
  50    .07753        2.6607        0.0000       10.7795       10.7795       8.118864       0.00080
  49    .09103        2.6607        0.0000       10.7795       10.7795       8.118862       0.00078
  48    0.1069        2.6607        0.0000       10.7795       10.7795       8.118861       0.00076
  47    0.1255        2.6607        0.0000       10.7795       10.7795       8.118859       0.00075
  46    0.1487        2.6607        0.0000       10.7795       10.7795       8.118857       0.00076
  45    0.1794        2.6607        0.0000       10.7795       10.7795       8.118854       0.00078
  44    0.2165        2.6607        0.0000       10.7795       10.7795       8.118851       0.00076
  43    0.2613        2.6607        0.0000       10.7795       10.7795       8.118847       0.00075
  42    0.3336        2.6607        0.0000       10.7795       10.7795       8.118840       0.00077
  41    0.4307        2.6607        0.0000       10.7795       10.7795       8.118831       0.00077
  40    0.5894        2.6607        0.0000       10.7795       10.7795       8.118816       0.00080
  39     1.339        2.6607        0.0000       10.7794       10.7794       8.118727       0.00101
  38     1.782        2.6607        0.0000       10.7793       10.7793       8.118657       0.00133
  37     2.292        2.6607        0.0000       10.7792       10.7792       8.118563       0.00156
  36     2.964        2.6607        0.0000       10.7791       10.7791       8.118423       0.00176
  35     3.853        2.6607        0.0000       10.7789       10.7789       8.118215       0.00197
  34     5.035        2.6607        0.0000       10.7786       10.7786       8.117908       0.00219
  33     6.613        2.6607        0.0000       10.7781       10.7781       8.117456       0.00241
  32     8.786        2.6607        0.0000       10.7774       10.7774       8.116790       0.00259
  31     11.80        2.6606        0.0000       10.7763       10.7764       8.115743       0.00293
  30     15.07        2.6606        0.0001       10.7751       10.7752       8.114514       0.00317
  29     18.79        2.6606        0.0001       10.7736       10.7737       8.113029       0.00337
  28     23.16        2.6606        0.0001       10.7717       10.7718       8.111185       0.00357
  27     28.12        2.6606        0.0001       10.7695       10.7696       8.108954       0.00379
  26     33.73        2.6606        0.0001       10.7667       10.7668       8.106203       0.00414
  25     40.54        2.6606        0.0002       10.7629       10.7631       8.102473       0.00463
  24     48.69        2.6606        0.0002       10.7579       10.7581       8.097504       0.00514
  23     57.69        2.6606        0.0002       10.7520       10.7522       8.091617       0.00552
  22     68.43        2.6606        0.0003       10.7446       10.7449       8.084242       0.00580
  21     81.20        2.6607        0.0003       10.7355       10.7358       8.075165       0.00600
  20     96.49        2.6607        0.0004       10.7245       10.7249       8.064129       0.00609
  19     114.6        2.6608        0.0005       10.7107       10.7112       8.050340       0.00644
  18     136.5        2.6610        0.0006       10.6942       10.6947       8.033744       0.00638
  17     162.9        2.6613        0.0007       10.6740       10.6747       8.013422       0.00650
  16     196.4        2.6617        0.0008       10.6464       10.6472       7.985441       0.00704
  15     218.7        2.6621        0.0009       10.6255       10.6263       7.964192       0.00807
  14     243.0        2.6628        0.0010       10.5980       10.5990       7.936220       0.00970
  13     269.0        2.6638        0.0011       10.5611       10.5622       7.898348       0.01229
  12     297.5        2.6653        0.0012       10.5119       10.5131       7.847797       0.01499
  11     328.5        2.6674        0.0013       10.4499       10.4512       7.783743       0.01742
  10     361.9        2.6702        0.0014       10.3702       10.3716       7.701397       0.02083
   9     398.1        2.6737        0.0016       10.2678       10.2693       7.595648       0.02464
   8     437.6        2.6781        0.0017       10.1390       10.1407       7.462580       0.02845
   7     480.5        2.6837        0.0019        9.9877        9.9896       7.305828       0.03079
   6     533.0        2.6922        0.0020        9.7937        9.7957       7.103450       0.03256
   5     589.8        2.7044        0.0022        9.5752        9.5774       6.872938       0.03422
   4     651.6        2.7236        0.0024        9.2958        9.2982       6.574536       0.04081
   3     718.7        2.7550        0.0025        8.9267        8.9292       6.174232       0.05031
   2     792.3        2.8114        0.0027        8.4542        8.4569       5.645509       0.06064
   1     891.5        1.6475        1.5882        5.0175        6.6058       4.958212       0.05849
   0    1013.0        1.7554        1.4601        4.5553        6.0154       4.259988       0.04848



 Wavenumbers:  4650. -  5150. cm-1, ATM      1
 LEVEL PRESSURE   UPWARD FLUX   DIFDOWN FLUX  DIRDOWN FLUX  DOWNWARD FLUX   NET FLUX    HEATING RATE
          mb          W/m2          W/m2          W/m2        W/m2          W/m2       degree/day
  51    .06700        1.8969        0.0000       10.2033       10.2033       8.306474       0.00000
  50    .07753        1.8969        0.0000       10.2031       10.2031       8.306238       0.18901
  49    .09103        1.8969        0.0000       10.2028       10.2028       8.305944       0.18428
  48    0.1069        1.8969        0.0000       10.2025       10.2025       8.305607       0.17931
  47    0.1255        1.8969        0.0000       10.2021       10.2021       8.305222       0.17426
  46    0.1487        1.8969        0.0000       10.2016       10.2016       8.304741       0.17536
  45    0.1794        1.8969        0.0000       10.2010       10.2010       8.304091       0.17850
  44    0.2165        1.8969        0.0000       10.2002       10.2002       8.303331       0.17277
  43    0.2613        1.8969        0.0000       10.1993       10.1993       8.302446       0.16690
  42    0.3336        1.8969        0.0000       10.1979       10.1979       8.301014       0.16702
  41    0.4307        1.8969        0.0000       10.1960       10.1960       8.299173       0.16002
  40    0.5894        1.8969        0.0000       10.1932       10.1932       8.296299       0.15283
  39     1.339        1.8969        0.0000       10.1816       10.1816       8.284708       0.13050
  38     1.782        1.8969        0.0000       10.1760       10.1760       8.279179       0.10526
  37     2.292        1.8969        0.0000       10.1706       10.1706       8.273723       0.09037
  36     2.964        1.8969        0.0000       10.1646       10.1647       8.267800       0.07435
  35     3.853        1.8969        0.0000       10.1584       10.1584       8.261586       0.05897
  34     5.035        1.8968        0.0000       10.1521       10.1521       8.255251       0.04526
  33     6.613        1.8968        0.0000       10.1456       10.1456       8.248794       0.03452
  32     8.786        1.8968        0.0001       10.1386       10.1386       8.241784       0.02722
  31     11.80        1.8968        0.0001       10.1295       10.1296       8.232745       0.02531
  30     15.07        1.8968        0.0001       10.1196       10.1197       8.222867       0.02550
  29     18.79        1.8968        0.0001       10.1076       10.1077       8.210861       0.02722
  28     23.16        1.8968        0.0001       10.0923       10.0924       8.195558       0.02959
  27     28.12        1.8969        0.0002       10.0731       10.0733       8.176465       0.03246
  26     33.73        1.8969        0.0002       10.0500       10.0502       8.153372       0.03472
  25     40.54        1.8969        0.0002       10.0201       10.0204       8.123469       0.03710
  24     48.69        1.8970        0.0003        9.9820        9.9823       8.085296       0.03950
  23     57.69        1.8970        0.0003        9.9384        9.9388       8.041754       0.04081
  22     68.43        1.8972        0.0004        9.8858        9.8862       7.989015       0.04146
  21     81.20        1.8973        0.0005        9.8234        9.8239       7.926613       0.04123
  20     96.49        1.8976        0.0006        9.7518        9.7523       7.854776       0.03965
  19     114.6        1.8979        0.0007        9.6719        9.6726       7.774694       0.03739
  18     136.5        1.8984        0.0008        9.5858        9.5866       7.688205       0.03326
  17     162.9        1.8991        0.0009        9.4940        9.4950       7.595899       0.02950
  16     196.4        1.9002        0.0011        9.3883        9.3894       7.489225       0.02685
  15     218.7        1.9011        0.0012        9.3229        9.3242       7.423108       0.02510
  14     243.0        1.9022        0.0014        9.2520        9.2534       7.351137       0.02496
  13     269.0        1.9038        0.0015        9.1717        9.1732       7.269372       0.02652
  12     297.5        1.9061        0.0017        9.0763        9.0779       7.171880       0.02892
  11     328.5        1.9090        0.0018        8.9650        8.9668       7.057758       0.03103
  10     361.9        1.9129        0.0020        8.8349        8.8369       6.924018       0.03384
   9     398.1        1.9179        0.0021        8.6820        8.6842       6.766266       0.03675
   8     437.6        1.9244        0.0023        8.5028        8.5051       6.580678       0.03968
   7     480.5        1.9330        0.0025        8.2948        8.2973       6.364344       0.04249
   6     533.0        1.9460        0.0027        8.0209        8.0236       6.077618       0.04613
   5     589.8        1.9640        0.0029        7.7063        7.7092       5.745196       0.04934
   4     651.6        1.9906        0.0030        7.3412        7.3443       5.353638       0.05355
   3     718.7        2.0306        0.0032        6.9387        6.9419       4.911265       0.05559
   2     792.3        2.0933        0.0033        6.5066        6.5099       4.416600       0.05673
   1     891.5        1.2133        1.2039        3.8207        5.0246       3.811335       0.05151
   0    1013.0        1.3145        1.0913        3.4129        4.5042       3.189710       0.04316



 Wavenumbers:  5150. -  6150. cm-1, ATM      1
 LEVEL PRESSURE   UPWARD FLUX   DIFDOWN FLUX  DIRDOWN FLUX  DOWNWARD FLUX   NET FLUX    HEATING RATE
          mb          W/m2          W/m2          W/m2        W/m2          W/m2       degree/day
  51    .06700        4.6768        0.0000       25.5798       25.5798      20.903046       0.00000
  50    .07753        4.6768        0.0000       25.5798       25.5798      20.903007       0.03158
  49    .09103        4.6768        0.0000       25.5797       25.5797      20.902956       0.03206
  48    0.1069        4.6768        0.0000       25.5797       25.5797      20.902894       0.03257
  47    0.1255        4.6768        0.0000       25.5796       25.5796      20.902821       0.03307
  46    0.1487        4.6768        0.0000       25.5795       25.5795      20.902726       0.03485
  45    0.1794        4.6768        0.0000       25.5794       25.5794      20.902591       0.03709
  44    0.2165        4.6768        0.0000       25.5792       25.5792      20.902425       0.03765
  43    0.2613        4.6768        0.0000       25.5790       25.5790      20.902222       0.03823
  42    0.3336        4.6768        0.0000       25.5786       25.5786      20.901876       0.04039
  41    0.4307        4.6768        0.0000       25.5782       25.5782      20.901405       0.04093
  40    0.5894        4.6768        0.0000       25.5774       25.5774      20.900616       0.04194
  39     1.339        4.6768        0.0000       25.5735       25.5736      20.896817       0.04277
  38     1.782        4.6767        0.0000       25.5713       25.5713      20.894606       0.04210
  37     2.292        4.6767        0.0001       25.5688       25.5688      20.892103       0.04145
  36     2.964        4.6767        0.0001       25.5656       25.5656      20.888924       0.03991
  35     3.853        4.6767        0.0001       25.5615       25.5616      20.884884       0.03834
  34     5.035        4.6767        0.0001       25.5562       25.5564      20.879682       0.03716
  33     6.613        4.6767        0.0002       25.5494       25.5496      20.872934       0.03607
  32     8.786        4.6767        0.0002       25.5406       25.5408      20.864192       0.03395
  31     11.80        4.6766        0.0003       25.5287       25.5290      20.852371       0.03309
  30     15.07        4.6766        0.0004       25.5167       25.5171      20.840520       0.03060
  29     18.79        4.6766        0.0005       25.5042       25.5047      20.828133       0.02808
  28     23.16        4.6765        0.0006       25.4907       25.4913      20.814795       0.02579
  27     28.12        4.6765        0.0008       25.4764       25.4772      20.800735       0.02390
  26     33.73        4.6765        0.0009       25.4620       25.4630      20.786494       0.02141
  25     40.54        4.6764        0.0011       25.4463       25.4474      20.770933       0.01931
  24     48.69        4.6764        0.0014       25.4294       25.4307      20.754284       0.01723
  23     57.69        4.6764        0.0016       25.4126       25.4142      20.737770       0.01548
  22     68.43        4.6765        0.0019       25.3944       25.3963      20.719854       0.01408
  21     81.20        4.6765        0.0022       25.3744       25.3767      20.700155       0.01302
  20     96.49        4.6766        0.0027       25.3519       25.3546      20.678031       0.01221
  19     114.6        4.6767        0.0032       25.3262       25.3293      20.652671       0.01184
  18     136.5        4.6768        0.0038       25.2962       25.3000      20.623162       0.01135
  17     162.9        4.6770        0.0045       25.2521       25.2566      20.579598       0.01392
  16     196.4        4.6772        0.0054       25.1593       25.1647      20.487432       0.02320
  15     218.7        4.6775        0.0060       25.0159       25.0219      20.344421       0.05430
  14     243.0        4.6778        0.0066       24.7089       24.7155      20.037681       0.10639
  13     269.0        4.6783        0.0071       24.1619       24.1690      19.490724       0.17743
  12     297.5        4.6790        0.0077       23.4544       23.4621      18.783089       0.20988
  11     328.5        4.6800        0.0083       22.7355       22.7437      18.063727       0.19559
  10     361.9        4.6814        0.0088       21.9224       21.9313      17.249844       0.20592
   9     398.1        4.6834        0.0094       20.9939       21.0033      16.319910       0.21665
   8     437.6        4.6862        0.0099       19.9833       19.9932      15.307043       0.21656
   7     480.5        4.6901        0.0104       18.9483       18.9586      14.268587       0.20395
   6     533.0        4.6967        0.0109       17.7796       17.7905      13.093760       0.18899
   5     589.8        4.7075        0.0114       16.6726       16.6840      11.976479       0.16584
   4     651.6        4.7271        0.0119       15.6343       15.6462      10.919095       0.14460
   3     718.7        4.7627        0.0125       14.7738       14.7863      10.023587       0.11254
   2     792.3        4.8321        0.0132       14.0291       14.0423       9.210167       0.09329
   1     891.5        2.8661        2.6906        8.4205       11.1111       8.244966       0.08213
   0    1013.0        2.9922        2.5085        7.7487       10.2572       7.265001       0.06804



 Wavenumbers:  6150. -  7700. cm-1, ATM      1
 LEVEL PRESSURE   UPWARD FLUX   DIFDOWN FLUX  DIRDOWN FLUX  DOWNWARD FLUX   NET FLUX    HEATING RATE
          mb          W/m2          W/m2          W/m2        W/m2          W/m2       degree/day
  51    .06700        7.1813        0.0000       47.3109       47.3109      40.129579       0.00000
  50    .07753        7.1813        0.0000       47.3108       47.3108      40.129522       0.04553
  49    .09103        7.1813        0.0000       47.3107       47.3107      40.129449       0.04583
  48    0.1069        7.1813        0.0000       47.3106       47.3106      40.129362       0.04614
  47    0.1255        7.1813        0.0000       47.3105       47.3105      40.129260       0.04645
  46    0.1487        7.1813        0.0000       47.3104       47.3104      40.129127       0.04852
  45    0.1794        7.1813        0.0000       47.3102       47.3102      40.128940       0.05127
  44    0.2165        7.1813        0.0000       47.3100       47.3100      40.128713       0.05167
  43    0.2613        7.1813        0.0000       47.3097       47.3097      40.128437       0.05210
  42    0.3336        7.1813        0.0000       47.3092       47.3092      40.127967       0.05471
  41    0.4307        7.1812        0.0000       47.3085       47.3086      40.127332       0.05521
  40    0.5894        7.1812        0.0001       47.3074       47.3075      40.126273       0.05633
  39     1.339        7.1812        0.0001       47.3022       47.3023      40.121181       0.05733
  38     1.782        7.1811        0.0002       47.2991       47.2993      40.118211       0.05655
  37     2.292        7.1811        0.0003       47.2956       47.2959      40.114835       0.05591
  36     2.964        7.1810        0.0003       47.2912       47.2915      40.110517       0.05421
  35     3.853        7.1809        0.0004       47.2855       47.2859      40.104982       0.05252
  34     5.035        7.1808        0.0006       47.2780       47.2786      40.097802       0.05129
  33     6.613        7.1807        0.0008       47.2683       47.2691      40.088414       0.05019
  32     8.786        7.1805        0.0010       47.2556       47.2566      40.076115       0.04777
  31     11.80        7.1802        0.0014       47.2380       47.2394      40.059212       0.04732
  30     15.07        7.1799        0.0017       47.2201       47.2218      40.041925       0.04463
  29     18.79        7.1795        0.0022       47.2008       47.2030      40.023446       0.04190
  28     23.16        7.1791        0.0027       47.1795       47.1822      40.003056       0.03943
  27     28.12        7.1787        0.0032       47.1565       47.1597      39.981064       0.03739
  26     33.73        7.1782        0.0039       47.1324       47.1363      39.958144       0.03446
  25     40.54        7.1775        0.0047       47.1054       47.1100      39.932510       0.03180
  24     48.69        7.1768        0.0056       47.0754       47.0810      39.904260       0.02923
  23     57.69        7.1759        0.0066       47.0449       47.0516      39.875641       0.02683
  22     68.43        7.1749        0.0079       47.0110       47.0189      39.843910       0.02495
  21     81.20        7.1738        0.0093       46.9729       46.9822      39.808423       0.02345
  20     96.49        7.1724        0.0111       46.9294       46.9405      39.768092       0.02226
  19     114.6        7.1707        0.0132       46.8790       46.8922      39.721474       0.02177
  18     136.5        7.1687        0.0156       46.8200       46.8356      39.666873       0.02100
  17     162.9        7.1664        0.0185       46.7361       46.7547      39.588293       0.02512
  16     196.4        7.1634        0.0223       46.5703       46.5926      39.429200       0.04005
  15     218.7        7.1615        0.0247       46.3473       46.3720      39.210572       0.08300
  14     243.0        7.1595        0.0273       45.9299       45.9571      38.797605       0.14323
  13     269.0        7.1577        0.0298       45.1708       45.2006      38.042862       0.24483
  12     297.5        7.1563        0.0322       44.0115       44.0437      36.887456       0.34268
  11     328.5        7.1553        0.0347       42.7242       42.7589      35.603652       0.34906
  10     361.9        7.1551        0.0372       41.3539       41.3911      34.236049       0.34602
   9     398.1        7.1561        0.0396       39.7953       39.8348      32.678726       0.36282
   8     437.6        7.1592        0.0418       37.9948       38.0365      30.877320       0.38515
   7     480.5        7.1653        0.0438       36.0647       36.1085      28.943184       0.37986
   6     533.0        7.1782        0.0459       33.7773       33.8232      26.644923       0.36972
   5     589.8        7.2024        0.0477       31.4082       31.4559      24.253429       0.35498
   4     651.6        7.2509        0.0490       28.8834       28.9324      21.681512       0.35172
   3     718.7        7.3435        0.0501       26.4104       26.4604      19.116923       0.32230
   2     792.3        7.5333        0.0508       24.0056       24.0564      16.523162       0.29748
   1     891.5        4.3010        4.3432       13.6685       18.0118      13.710769       0.23932
   0    1013.0        4.6279        3.8824       11.9823       15.8647      11.236758       0.17178



 Wavenumbers:  7700. -  8050. cm-1, ATM      1
 LEVEL PRESSURE   UPWARD FLUX   DIFDOWN FLUX  DIRDOWN FLUX  DOWNWARD FLUX   NET FLUX    HEATING RATE
          mb          W/m2          W/m2          W/m2        W/m2          W/m2       degree/day
  51    .06700        3.5835        0.0000       11.1810       11.1810       7.597490       0.00000
  50    .07753        3.5835        0.0000       11.1809       11.1809       7.597470       0.01617
  49    .09103        3.5835        0.0000       11.1809       11.1809       7.597445       0.01585
  48    0.1069        3.5835        0.0000       11.1809       11.1809       7.597416       0.01551
  47    0.1255        3.5835        0.0000       11.1809       11.1809       7.597382       0.01518
  46    0.1487        3.5835        0.0000       11.1808       11.1808       7.597340       0.01540
  45    0.1794        3.5835        0.0000       11.1808       11.1808       7.597282       0.01585
  44    0.2165        3.5835        0.0000       11.1807       11.1807       7.597214       0.01555
  43    0.2613        3.5835        0.0000       11.1806       11.1806       7.597133       0.01526
  42    0.3336        3.5835        0.0000       11.1805       11.1805       7.596999       0.01561
  41    0.4307        3.5835        0.0000       11.1803       11.1804       7.596822       0.01544
  40    0.5894        3.5836        0.0000       11.1801       11.1801       7.596531       0.01542
  39     1.339        3.5837        0.0001       11.1788       11.1789       7.595159       0.01545
  38     1.782        3.5838        0.0001       11.1781       11.1782       7.594353       0.01534
  37     2.292        3.5839        0.0001       11.1772       11.1773       7.593421       0.01545
  36     2.964        3.5840        0.0001       11.1761       11.1762       7.592196       0.01537
  35     3.853        3.5842        0.0002       11.1746       11.1748       7.590578       0.01535
  34     5.035        3.5844        0.0002       11.1726       11.1728       7.588429       0.01535
  33     6.613        3.5847        0.0003       11.1700       11.1703       7.585560       0.01534
  32     8.786        3.5851        0.0004       11.1664       11.1668       7.581695       0.01501
  31     11.80        3.5857        0.0006       11.1613       11.1619       7.576170       0.01547
  30     15.07        3.5863        0.0007       11.1558       11.1566       7.570245       0.01530
  29     18.79        3.5870        0.0009       11.1497       11.1506       7.563561       0.01516
  28     23.16        3.5879        0.0011       11.1425       11.1436       7.555767       0.01507
  27     28.12        3.5888        0.0014       11.1343       11.1357       7.546871       0.01512
  26     33.73        3.5899        0.0017       11.1252       11.1269       7.536939       0.01493
  25     40.54        3.5912        0.0020       11.1142       11.1162       7.524975       0.01484
  24     48.69        3.5928        0.0024       11.1010       11.1034       7.510601       0.01487
  23     57.69        3.5945        0.0028       11.0866       11.0894       7.494879       0.01474
  22     68.43        3.5966        0.0033       11.0695       11.0729       7.476244       0.01465
  21     81.20        3.5992        0.0040       11.0494       11.0533       7.454173       0.01458
  20     96.49        3.6022        0.0047       11.0255       11.0302       7.428057       0.01441
  19     114.6        3.6058        0.0056       10.9975       11.0031       7.397303       0.01436
  18     136.5        3.6102        0.0066       10.9648       10.9714       7.361201       0.01388
  17     162.9        3.6155        0.0079       10.9263       10.9342       7.318682       0.01359
  16     196.4        3.6225        0.0095       10.8773       10.8867       7.264265       0.01370
  15     218.7        3.6271        0.0105       10.8455       10.8560       7.228921       0.01342
  14     243.0        3.6323        0.0116       10.8114       10.8231       7.190799       0.01322
  13     269.0        3.6380        0.0129       10.7749       10.7877       7.149755       0.01331
  12     297.5        3.6443        0.0142       10.7357       10.7499       7.105597       0.01310
  11     328.5        3.6513        0.0156       10.6937       10.7094       7.058053       0.01293
  10     361.9        3.6591        0.0172       10.6489       10.6660       7.006930       0.01293
   9     398.1        3.6678        0.0188       10.6008       10.6196       6.951795       0.01285
   8     437.6        3.6775        0.0206       10.5491       10.5697       6.892111       0.01276
   7     480.5        3.6885        0.0225       10.4934       10.5159       6.827373       0.01271
   6     533.0        3.7029        0.0248       10.4243       10.4491       6.746157       0.01307
   5     589.8        3.7198        0.0273       10.3479       10.3752       6.655406       0.01347
   4     651.6        3.7401        0.0300       10.2613       10.2913       6.551179       0.01425
   3     718.7        3.7652        0.0328       10.1618       10.1946       6.429336       0.01531
   2     792.3        3.7973        0.0358       10.0439       10.0797       6.282383       0.01685
   1     891.5        2.3481        2.0784        6.3486        8.4270       6.078886       0.01732
   0    1013.0        2.3970        2.0350        6.1861        8.2212       5.824211       0.01768



 Wavenumbers:  8050. - 12850. cm-1, ATM      1
 LEVEL PRESSURE   UPWARD FLUX   DIFDOWN FLUX  DIRDOWN FLUX  DOWNWARD FLUX   NET FLUX    HEATING RATE
          mb          W/m2          W/m2          W/m2        W/m2          W/m2       degree/day
  51    .06700       45.4238        0.0000      156.5418      156.5418     111.117916       0.00000
  50    .07753       45.4238        0.0000      156.5417      156.5417     111.117916      -0.00000
  49    .09103       45.4238        0.0001      156.5417      156.5417     111.117916       0.00000
  48    0.1069       45.4238        0.0001      156.5416      156.5417     111.117916      -0.00000
  47    0.1255       45.4237        0.0001      156.5415      156.5417     111.117916       0.00000
  46    0.1487       45.4237        0.0002      156.5414      156.5416     111.117916      -0.00000
  45    0.1794       45.4237        0.0003      156.5413      156.5416     111.117916       0.00000
  44    0.2165       45.4236        0.0004      156.5412      156.5415     111.117916      -0.00000
  43    0.2613       45.4235        0.0005      156.5410      156.5414     111.117916       0.00000
  42    0.3336       45.4234        0.0006      156.5407      156.5413     111.117916       0.00000
  41    0.4307       45.4233        0.0009      156.5403      156.5412     111.117916       0.00000
  40    0.5894       45.4230        0.0013      156.5397      156.5409     111.117916       0.00000
  39     1.339       45.4219        0.0030      156.5367      156.5398     111.117916       0.00000
  38     1.782       45.4212        0.0041      156.5350      156.5391     111.117916      -0.00000
  37     2.292       45.4204        0.0053      156.5330      156.5383     111.117916       0.00000
  36     2.964       45.4193        0.0069      156.5303      156.5372     111.117916      -0.00000
  35     3.853       45.4180        0.0090      156.5268      156.5359     111.117916       0.00000
  34     5.035       45.4161        0.0118      156.5222      156.5340     111.117916       0.00000
  33     6.613       45.4137        0.0156      156.5160      156.5316     111.117916      -0.00000
  32     8.786       45.4104        0.0207      156.5076      156.5283     111.117916      -0.00000
  31     11.80       45.4057        0.0279      156.4957      156.5236     111.117916       0.00000
  30     15.07       45.4006        0.0357      156.4828      156.5185     111.117916      -0.00000
  29     18.79       45.3948        0.0445      156.4682      156.5127     111.117916       0.00000
  28     23.16       45.3881        0.0548      156.4512      156.5060     111.117916      -0.00000
  27     28.12       45.3804        0.0666      156.4317      156.4983     111.117916      -0.00000
  26     33.73       45.3718        0.0799      156.4099      156.4897     111.117916       0.00000
  25     40.54       45.3614        0.0959      156.3834      156.4793     111.117916      -0.00000
  24     48.69       45.3488        0.1152      156.3515      156.4667     111.117916       0.00000
  23     57.69       45.3349        0.1364      156.3164      156.4528     111.117916       0.00000
  22     68.43       45.3184        0.1618      156.2746      156.4363     111.117916      -0.00000
  21     81.20       45.2987        0.1920      156.2246      156.4166     111.117916       0.00000
  20     96.49       45.2751        0.2281      156.1649      156.3930     111.117916       0.00000
  19     114.6       45.2472        0.2710      156.0879      156.3590     111.111788       0.00286
  18     136.5       45.2140        0.3220      155.9962      156.3181     111.104179       0.00293
  17     162.9       45.1744        0.3828      155.8831      156.2659     111.091522       0.00405
  16     196.4       45.1229        0.4619      155.7199      156.1818     111.058956       0.00820
  15     218.7       45.0891        0.5139      155.5733      156.0872     110.998047       0.02312
  14     243.0       45.0528        0.5704      155.3367      155.9070     110.854256       0.04987
  13     269.0       45.0142        0.6314      154.9514      155.5828     110.568579       0.09267
  12     297.5       44.9742        0.6970      154.3896      155.0866     110.112387       0.13530
  11     328.5       44.9331        0.7676      153.7151      154.4827     109.549631       0.15301
  10     361.9       44.8919        0.8433      152.9087      153.7521     108.860141       0.17445
   9     398.1       44.8524        0.9241      151.8986      152.8227     107.970293       0.20731
   8     437.6       44.8178        1.0098      150.6031      151.6130     106.795195       0.25124
   7     480.5       44.7917        1.1001      149.0014      150.1015     105.309766       0.29173
   6     533.0       44.7807        1.2088      146.7375      147.9464     103.165705       0.34491
   5     589.8       44.8074        1.3219      143.8730      145.1949     100.387461       0.41238
   4     651.6       44.9184        1.4367      140.0955      141.5322      96.613763       0.51606
   3     718.7       45.1790        1.5518      135.5278      137.0796      91.900593       0.59231
   2     792.3       45.7464        1.6640      130.0690      131.7330      85.986589       0.67827
   1     891.5       27.2713       26.6196       78.6051      105.2247      77.953387       0.68359
   0    1013.0       28.4648       25.0963       72.6987       97.7951      69.330296       0.59875



 Wavenumbers: 12850. - 16000. cm-1, ATM      1
 LEVEL PRESSURE   UPWARD FLUX   DIFDOWN FLUX  DIRDOWN FLUX  DOWNWARD FLUX   NET FLUX    HEATING RATE
          mb          W/m2          W/m2          W/m2        W/m2          W/m2       degree/day
  51    .06700       51.3309        0.0000       98.0872       98.0872      46.756357       0.00000
  50    .07753       51.3309        0.0001       98.0864       98.0864      46.755571       0.62959
  49    .09103       51.3308        0.0001       98.0853       98.0854      46.754586       0.61585
  48    0.1069       51.3308        0.0002       98.0841       98.0843      46.753455       0.60175
  47    0.1255       51.3308        0.0003       98.0826       98.0830      46.752159       0.58783
  46    0.1487       51.3308        0.0005       98.0809       98.0813      46.750526       0.59528
  45    0.1794       51.3308        0.0006       98.0784       98.0791      46.748309       0.60860
  44    0.2165       51.3308        0.0008       98.0756       98.0765      46.745707       0.59175
  43    0.2613       51.3308        0.0011       98.0723       98.0734      46.742657       0.57497
  42    0.3336       51.3308        0.0015       98.0670       98.0685      46.737696       0.57836
  41    0.4307       51.3309        0.0021       98.0602       98.0622      46.731309       0.55540
  40    0.5894       51.3312        0.0029       98.0496       98.0525      46.721306       0.53191
  39     1.339       51.3345        0.0072       98.0043       98.0115      46.677031       0.49846
  38     1.782       51.3378        0.0096       97.9793       97.9889      46.651132       0.49307
  37     2.292       51.3429        0.0125       97.9498       97.9623      46.619342       0.52653
  36     2.964       51.3517        0.0163       97.9088       97.9251      46.573371       0.57707
  35     3.853       51.3661        0.0212       97.8503       97.8716      46.505447       0.64461
  34     5.035       51.3881        0.0278       97.7680       97.7958      46.407762       0.69782
  33     6.613       51.4188        0.0366       97.6562       97.6928      46.274049       0.71483
  32     8.786       51.4587        0.0485       97.5107       97.5592      46.100493       0.67403
  31     11.80       51.5102        0.0654       97.3179       97.3833      45.873055       0.63675
  30     15.07       51.5592        0.0836       97.1283       97.2119      45.652753       0.56878
  29     18.79       51.6087        0.1041       96.9300       97.0341      45.425442       0.51538
  28     23.16       51.6598        0.1280       96.7166       96.8446      45.184751       0.46542
  27     28.12       51.7105        0.1553       96.4935       96.6488      44.938280       0.41898
  26     33.73       51.7561        0.1858       96.2731       96.4589      44.702831       0.35400
  25     40.54       51.7983        0.2227       96.0408       96.2635      44.465208       0.29480
  24     48.69       51.8367        0.2672       95.7946       96.0618      44.225111       0.24846
  23     57.69       51.8667        0.3160       95.5573       95.8733      44.006642       0.20478
  22     68.43       51.8893        0.3742       95.3106       95.6848      43.795544       0.16595
  21     81.20       51.8982        0.4436       95.0643       95.5079      43.609710       0.12280
  20     96.49       51.8922        0.5263       94.8153       95.3415      43.449359       0.08850
  19     114.6       51.8851        0.6253       94.5411       95.1663      43.281221       0.07851
  18     136.5       51.8692        0.7425       94.2320       94.9746      43.105327       0.06764
  17     162.9       51.8435        0.8821       93.8753       94.7574      42.913881       0.06119
  16     196.4       51.7957        1.0629       93.4347       94.4976      42.701910       0.05336
  15     218.7       51.7591        1.1816       93.1513       94.3329      42.573826       0.04863
  14     243.0       51.7171        1.3106       92.8439       94.1545      42.437439       0.04730
  13     269.0       51.6695        1.4502       92.5111       93.9614      42.291845       0.04723
  12     297.5       51.6166        1.6010       92.1495       93.7505      42.133941       0.04683
  11     328.5       51.5593        1.7638       91.7554       93.5192      41.959929       0.04731
  10     361.9       51.4982        1.9390       91.3262       93.2652      41.766996       0.04881
   9     398.1       51.4339        2.1273       90.8575       92.9848      41.550905       0.05034
   8     437.6       51.3681        2.3291       90.3418       92.6709      41.302842       0.05304
   7     480.5       51.3024        2.5451       89.7728       92.3179      41.015488       0.05644
   6     533.0       51.2312        2.8102       89.0428       91.8531      40.621899       0.06332
   5     589.8       51.1725        3.0946       88.2038       91.2985      40.125907       0.07362
   4     651.6       51.1470        3.3977       87.1979       90.5956      39.448589       0.09263
   3     718.7       51.1691        3.7179       86.0161       89.7341      38.564942       0.11105
   2     792.3       51.2845        4.0517       84.5970       88.6488      37.364287       0.13770
   1     891.5       41.3695       23.7870       53.0737       76.8606      35.491134       0.15940
   0    1013.0       41.9267       23.6372       51.2587       74.8959      32.969183       0.17511



 Wavenumbers: 16000. - 22650. cm-1, ATM      1
 LEVEL PRESSURE   UPWARD FLUX   DIFDOWN FLUX  DIRDOWN FLUX  DOWNWARD FLUX   NET FLUX    HEATING RATE
          mb          W/m2          W/m2          W/m2        W/m2          W/m2       degree/day
  51    .06700      116.6937        0.0000      156.3892      156.3892      39.695529       0.00000
  50    .07753      116.6937        0.0004      156.3887      156.3890      39.695393       0.10930
  49    .09103      116.6936        0.0008      156.3879      156.3888      39.695194       0.12397
  48    0.1069      116.6935        0.0014      156.3871      156.3884      39.694929       0.14136
  47    0.1255      116.6935        0.0020      156.3861      156.3880      39.694573       0.16113
  46    0.1487      116.6934        0.0028      156.3847      156.3875      39.694050       0.19094
  45    0.1794      116.6934        0.0038      156.3828      156.3866      39.693231       0.22482
  44    0.2165      116.6934        0.0051      156.3805      156.3856      39.692120       0.25267
  43    0.2613      116.6936        0.0066      156.3776      156.3842      39.690613       0.28406
  42    0.3336      116.6939        0.0090      156.3726      156.3817      39.687748       0.33405
  41    0.4307      116.6946        0.0123      156.3657      156.3780      39.683429       0.37551
  40    0.5894      116.6961        0.0176      156.3537      156.3713      39.675192       0.43801
  39     1.339      116.7119        0.0428      156.2834      156.3262      39.614341       0.68508
  38     1.782      116.7275        0.0576      156.2324      156.2900      39.562505       0.98688
  37     2.292      116.7514        0.0747      156.1641      156.2388      39.487474       1.24270
  36     2.964      116.7918        0.0972      156.0605      156.1577      39.365932       1.52572
  35     3.853      116.8579        0.1269      155.9041      156.0310      39.173092       1.83009
  34     5.035      116.9582        0.1663      155.6774      155.8436      38.885431       2.05493
  33     6.613      117.0986        0.2188      155.3656      155.5844      38.485748       2.13671
  32     8.786      117.2813        0.2895      154.9577      155.2471      37.965811       2.01925
  31     11.80      117.5180        0.3904      154.4153      154.8057      37.287672       1.89858
  30     15.07      117.7434        0.4986      153.8804      154.3790      36.635589       1.68355
  29     18.79      117.9722        0.6207      153.3191      153.9398      35.967537       1.51468
  28     23.16      118.2096        0.7629      152.7126      153.4755      35.265891       1.35676
  27     28.12      118.4462        0.9253      152.0755      153.0008      34.554629       1.20910
  26     33.73      118.6609        1.1069      151.4409      152.5478      33.886847       1.00403
  25     40.54      118.8624        1.3259      150.7637      152.0896      33.227144       0.81844
  24     48.69      119.0491        1.5896      150.0338      151.6234      32.574342       0.67555
  23     57.69      119.1997        1.8788      149.3151      151.1939      31.994215       0.54378
  22     68.43      119.3205        2.2227      148.5476      150.7704      31.449887       0.42791
  21     81.20      119.3840        2.6321      147.7517      150.3838      30.999815       0.29740
  20     96.49      119.3850        3.1192      146.9127      150.0318      30.646786       0.19485
  19     114.6      119.3480        3.6955      145.9763      149.6718      30.323779       0.15082
  18     136.5      119.2783        4.3757      144.9088      149.2845      30.006188       0.12212
  17     162.9      119.1717        5.1814      143.6785      148.8599      29.688239       0.10163
  16     196.4      118.9826        6.2200      142.1651      148.3851      29.402471       0.07193
  15     218.7      118.8398        6.8982      141.2033      148.1016      29.261771       0.05342
  14     243.0      118.6760        7.6319      140.1753      147.8072      29.131149       0.04530
  13     269.0      118.4897        8.4228      139.0797      147.5025      29.012803       0.03839
  12     297.5      118.2797        9.2727      137.9141      147.1868      28.907060       0.03136
  11     328.5      118.0490       10.1856      136.6676      146.8532      28.804187       0.02797
  10     361.9      117.7969       11.1620      135.3392      146.5012      28.704302       0.02527
   9     398.1      117.5224       12.2055      133.9235      146.1290      28.606580       0.02277
   8     437.6      117.2259       13.3178      132.4163      145.7340      28.508134       0.02105
   7     480.5      116.9065       14.5005      130.8147      145.3152      28.408682       0.01953
   6     533.0      116.5129       15.9431      128.8599      144.8030      28.290120       0.01907
   5     589.8      116.0912       17.4821      126.7679      144.2500      28.158819       0.01949
   4     651.6      115.6457       19.1183      124.5274      143.6457      28.000020       0.02172
   3     718.7      115.1805       20.8527      122.1285      142.9811      27.800592       0.02506
   2     792.3      114.7086       22.6824      119.5548      142.2372      27.528598       0.03119
   1     891.5      103.4236       55.7832       74.6977      130.4809      27.057313       0.04010
   0    1013.0      103.0119       57.3835       71.9840      129.3675      26.355551       0.04873



 Wavenumbers: 22650. - 29000. cm-1, ATM      1
 LEVEL PRESSURE   UPWARD FLUX   DIFDOWN FLUX  DIRDOWN FLUX  DOWNWARD FLUX   NET FLUX    HEATING RATE
          mb          W/m2          W/m2          W/m2        W/m2          W/m2       degree/day
  51    .06700       49.0494        0.0000       59.0156       59.0156       9.966170       0.00000
  50    .07753       49.0493        0.0004       59.0151       59.0155       9.966170       0.00000
  49    .09103       49.0492        0.0010       59.0144       59.0153       9.966170       0.00000
  48    0.1069       49.0490        0.0016       59.0136       59.0152       9.966170      -0.00000
  47    0.1255       49.0488        0.0023       59.0127       59.0150       9.966170       0.00000
  46    0.1487       49.0485        0.0032       59.0115       59.0147       9.966170       0.00000
  45    0.1794       49.0482        0.0045       59.0099       59.0144       9.966170       0.00000
  44    0.2165       49.0478        0.0059       59.0080       59.0140       9.966170      -0.00000
  43    0.2613       49.0473        0.0077       59.0058       59.0135       9.966170      -0.00000
  42    0.3336       49.0465        0.0105       59.0022       59.0127       9.966170       0.00000
  41    0.4307       49.0455        0.0143       58.9973       59.0116       9.966170       0.00000
  40    0.5894       49.0438        0.0206       58.9894       59.0099       9.966170       0.00000
  39     1.339       49.0356        0.0500       58.9518       59.0018       9.966170      -0.00000
  38     1.782       49.0308        0.0673       58.9297       58.9970       9.966170       0.00000
  37     2.292       49.0253        0.0873       58.9042       58.9915       9.966170       0.00000
  36     2.964       49.0180        0.1135       58.8706       58.9842       9.966170       0.00000
  35     3.853       49.0084        0.1482       58.8264       58.9746       9.966170       0.00000
  34     5.035       48.9957        0.1943       58.7676       58.9618       9.966170      -0.00000
  33     6.613       48.9786        0.2557       58.6891       58.9448       9.966170       0.00000
  32     8.786       48.9557        0.3385       58.5834       58.9219       9.966170      -0.00000
  31     11.80       48.9229        0.4566       58.4324       58.8891       9.966170       0.00000
  30     15.07       48.8878        0.5833       58.2706       58.8539       9.966170       0.00000
  29     18.79       48.8481        0.7260       58.0882       58.8142       9.966170      -0.00000
  28     23.16       48.8018        0.8923       57.8757       58.7680       9.966170       0.00000
  27     28.12       48.7490        1.0818       57.6333       58.7151       9.966170       0.00000
  26     33.73       48.6900        1.2931       57.3631       58.6561       9.966170       0.00000
  25     40.54       48.6189        1.5472       57.0379       58.5850       9.966170       0.00000
  24     48.69       48.5334        1.8517       56.6479       58.4996       9.966170      -0.00000
  23     57.69       48.4400        2.1841       56.2221       58.4062       9.966170      -0.00000
  22     68.43       48.3292        2.5768       55.7186       58.2954       9.966170       0.00000
  21     81.20       48.1980        3.0402       55.1239       58.1641       9.966170       0.00000
  20     96.49       48.0427        3.5861       54.4228       58.0089       9.966170       0.00000
  19     114.6       47.8599        4.2251       53.6010       57.8261       9.966170       0.00000
  18     136.5       47.6454        4.9698       52.6418       57.6116       9.966170      -0.00000
  17     162.9       47.3931        5.8390       51.5203       57.3593       9.966170      -0.00000
  16     196.4       47.0709        6.9377       50.0994       57.0371       9.966170       0.00000
  15     218.7       46.8623        7.6422       49.1863       56.8285       9.966170       0.00000
  14     243.0       46.6381        8.3930       48.2113       56.6043       9.966170       0.00000
  13     269.0       46.3982        9.1894       47.1749       56.3643       9.966170      -0.00000
  12     297.5       46.1423       10.0302       46.0783       56.1084       9.966170       0.00000
  11     328.5       45.8696       10.9162       44.9195       55.8358       9.966170       0.00000
  10     361.9       45.5803       11.8447       43.7018       55.5465       9.966170      -0.00000
   9     398.1       45.2739       12.8150       42.4250       55.2401       9.966170       0.00000
   8     437.6       44.9502       13.8247       41.0916       54.9164       9.966170       0.00000
   7     480.5       44.6092       14.8709       39.7045       54.5754       9.966170       0.00000
   6     533.0       44.1976       16.1095       38.0543       54.1638       9.966170       0.00000
   5     589.8       43.7632       17.3863       36.3431       53.7294       9.966170       0.00000
   4     651.6       43.3066       18.6933       34.5795       53.2728       9.966170      -0.00000
   3     718.7       42.8278       20.0237       32.7702       52.7940       9.966170       0.00000
   2     792.3       42.3275       21.3681       30.9256       52.2937       9.966170       0.00000
   1     891.5       38.5517       30.1220       18.3959       48.5179       9.966133       0.00000
   0    1013.0       37.9382       31.1894       16.7149       47.9043       9.966133       0.00000



 Wavenumbers: 29000. - 38000. cm-1, ATM      1
 LEVEL PRESSURE   UPWARD FLUX   DIFDOWN FLUX  DIRDOWN FLUX  DOWNWARD FLUX   NET FLUX    HEATING RATE
          mb          W/m2          W/m2          W/m2        W/m2          W/m2       degree/day
  51    .06700        7.5023        0.0000       20.8114       20.8114      13.309043       0.00000
  50    .07753        7.5021        0.0003       20.8070       20.8074      13.305238       3.05023
  49    .09103        7.5019        0.0007       20.8009       20.8016      13.299703       3.45933
  48    0.1069        7.5016        0.0012       20.7928       20.7939      13.292296       3.94253
  47    0.1255        7.5013        0.0017       20.7820       20.7837      13.282396       4.48830
  46    0.1487        7.5009        0.0023       20.7665       20.7688      13.267840       5.30599
  45    0.1794        7.5004        0.0032       20.7424       20.7456      13.245186       6.21911
  44    0.2165        7.4999        0.0042       20.7103       20.7146      13.214677       6.94005
  43    0.2613        7.4993        0.0055       20.6675       20.6730      13.173703       7.72349
  42    0.3336        7.4983        0.0075       20.5880       20.5955      13.097182       8.92164
  41    0.4307        7.4971        0.0101       20.4722       20.4823      12.985290       9.72874
  40    0.5894        7.4953        0.0143       20.2637       20.2780      12.782725      10.77215
  39     1.339        7.4904        0.0322       19.0984       19.1306      11.640149      12.86333
  38     1.782        7.4898        0.0414       18.4394       18.4808      10.990986      12.35901
  37     2.292        7.4910        0.0513       17.7714       17.8228      10.331723      10.91912
  36     2.964        7.4954        0.0636       17.0421       17.1057       9.610320       9.05579
  35     3.853        7.5048        0.0788       16.2678       16.3467       8.841834       7.29307
  34     5.035        7.5211        0.0981       15.4803       15.5784       8.057318       5.60426
  33     6.613        7.5452        0.1227       14.7157       14.8384       7.293236       4.08478
  32     8.786        7.5771        0.1550       13.9936       14.1485       6.571455       2.80314
  31     11.80        7.6184        0.1998       13.2835       13.4833       5.864922       1.97807
  30     15.07        7.6579        0.2462       12.7394       12.9855       5.327668       1.38709
  29     18.79        7.6983        0.2975       12.2666       12.5641       4.865855       1.04707
  28     23.16        7.7407        0.3558       11.8300       12.1858       4.445090       0.81362
  27     28.12        7.7836        0.4210       11.4279       11.8488       4.065232       0.64573
  26     33.73        7.8219        0.4927       11.0695       11.5622       3.740230       0.48865
  25     40.54        7.8564        0.5783       10.7209       11.2992       3.442790       0.36901
  24     48.69        7.8866        0.6796       10.3742       11.0538       3.167239       0.28515
  23     57.69        7.9085        0.7892       10.0549       10.8441       2.935626       0.21710
  22     68.43        7.9217        0.9175        9.7327       10.6502       2.728465       0.16286
  21     81.20        7.9183        1.0687        9.4134       10.4821       2.563873       0.10876
  20     96.49        7.8959        1.2462        9.0887       10.3349       2.439020       0.06891
  19     114.6        7.8611        1.4506        8.7388       10.1894       2.328280       0.05171
  18     136.5        7.8161        1.6837        8.3549       10.0385       2.222445       0.04070
  17     162.9        7.7601        1.9482        7.9311        9.8794       2.119285       0.03297
  16     196.4        7.6787        2.2743        7.4333        9.7077       2.028964       0.02273
  15     218.7        7.6230        2.4786        7.1295        9.6081       1.985121       0.01665
  14     243.0        7.5624        2.6911        6.8161        9.5072       1.944791       0.01399
  13     269.0        7.4967        2.9111        6.4943        9.4055       1.908725       0.01170
  12     297.5        7.4260        3.1373        6.1657        9.3031       1.877071       0.00939
  11     328.5        7.3512        3.3687        5.8295        9.1981       1.846907       0.00820
  10     361.9        7.2728        3.6025        5.4886        9.0911       1.818366       0.00722
   9     398.1        7.1906        3.8381        5.1440        8.9821       1.791467       0.00627
   8     437.6        7.1051        4.0738        4.7969        8.8707       1.765691       0.00551
   7     480.5        7.0163        4.3073        4.4504        8.7577       1.741382       0.00477
   6     533.0        6.9111        4.5699        4.0563        8.6262       1.715082       0.00423
   5     589.8        6.8026        4.8242        3.6682        8.4924       1.689840       0.00375
   4     651.6        6.6914        5.0662        3.2905        8.3567       1.665383       0.00334
   3     718.7        6.5776        5.2940        2.9252        8.2192       1.641679       0.00298
   2     792.3        6.4617        5.5040        2.5764        8.0804       1.618743       0.00263
   1     891.5        5.9494        6.1468        1.3942        7.5410       1.591616       0.00231
   0    1013.0        5.8056        6.2404        1.1281        7.3686       1.562988       0.00199



 Wavenumbers: 38000. - 50000. cm-1, ATM      1
 LEVEL PRESSURE   UPWARD FLUX   DIFDOWN FLUX  DIRDOWN FLUX  DOWNWARD FLUX   NET FLUX    HEATING RATE
          mb          W/m2          W/m2          W/m2        W/m2          W/m2       degree/day
  51    .06700        0.0061        0.0000        1.2836        1.2836       1.277518       0.00000
  50    .07753        0.0061        0.0001        1.2812        1.2812       1.275183       1.87150
  49    .09103        0.0060        0.0002        1.2777        1.2778       1.271851       2.08247
  48    0.1069        0.0059        0.0002        1.2731        1.2734       1.267473       2.33059
  47    0.1255        0.0058        0.0004        1.2672        1.2675       1.261717       2.60908
  46    0.1487        0.0057        0.0005        1.2586        1.2591       1.253391       3.03499
  45    0.1794        0.0055        0.0007        1.2455        1.2462       1.240623       3.50520
  44    0.2165        0.0054        0.0009        1.2282        1.2291       1.223697       3.85037
  43    0.2613        0.0052        0.0011        1.2054        1.2065       1.201348       4.21261
  42    0.3336        0.0049        0.0015        1.1639        1.1654       1.160524       4.75970
  41    0.4307        0.0045        0.0020        1.1051        1.1070       1.102565       5.03943
  40    0.5894        0.0039        0.0026        1.0039        1.0064       1.002524       5.32007
  39     1.339        0.0022        0.0035        0.5438        0.5473       0.545104       5.14971
  38     1.782        0.0016        0.0032        0.3635        0.3666       0.365006       3.42879
  37     2.292        0.0012        0.0027        0.2356        0.2383       0.237058       2.11916
  36     2.964        0.0009        0.0022        0.1455        0.1477       0.146786       1.13318
  35     3.853        0.0006        0.0017        0.0858        0.0875       0.086906       0.56828
  34     5.035        0.0004        0.0013        0.0488        0.0501       0.049701       0.26578
  33     6.613        0.0003        0.0010        0.0273        0.0282       0.027974       0.11615
  32     8.786        0.0002        0.0007        0.0144        0.0151       0.014928       0.05067
  31     11.80        0.0001        0.0004        0.0065        0.0070       0.006903       0.02247
  30     15.07        0.0000        0.0003        0.0031        0.0034       0.003329       0.00923
  29     18.79        0.0000        0.0002        0.0014        0.0016       0.001583       0.00396
  28     23.16        0.0000        0.0001        0.0006        0.0007       0.000720       0.00167
  27     28.12        0.0000        0.0001        0.0003        0.0003       0.000317       0.00069
  26     33.73        0.0000        0.0000        0.0001        0.0001       0.000140       0.00027
  25     40.54        0.0000        0.0000        0.0000        0.0001       0.000057       0.00010
  24     48.69        0.0000        0.0000        0.0000        0.0000       0.000021       0.00004
  23     57.69        0.0000        0.0000        0.0000        0.0000       0.000008       0.00001
  22     68.43        0.0000        0.0000        0.0000        0.0000       0.000003       0.00000
  21     81.20        0.0000        0.0000        0.0000        0.0000       0.000001       0.00000
  20     96.49        0.0000        0.0000        0.0000        0.0000       0.000000       0.00000
  19     114.6        0.0000        0.0000        0.0000        0.0000       0.000000       0.00000
  18     136.5        0.0000        0.0000        0.0000        0.0000       0.000000       0.00000
  17     162.9        0.0000        0.0000        0.0000        0.0000       0.000000       0.00000
  16     196.4        0.0000        0.0000        0.0000        0.0000       0.000000       0.00000
  15     218.7        0.0000        0.0000        0.0000        0.0000       0.000000       0.00000
  14     243.0        0.0000        0.0000        0.0000        0.0000       0.000000       0.00000
  13     269.0        0.0000        0.0000        0.0000        0.0000       0.000000       0.00000
  12     297.5        0.0000        0.0000        0.0000        0.0000       0.000000       0.00000
  11     328.5        0.0000        0.0000        0.0000        0.0000       0.000000       0.00000
  10     361.9        0.0000        0.0000        0.0000        0.0000       0.000000       0.00000
   9     398.1        0.0000        0.0000        0.0000        0.0000       0.000000       0.00000
   8     437.6        0.0000        0.0000        0.0000        0.0000       0.000000       0.00000
   7     480.5        0.0000        0.0000        0.0000        0.0000       0.000000       0.00000
   6     533.0        0.0000        0.0000        0.0000        0.0000       0.000000       0.00000
   5     589.8        0.0000        0.0000        0.0000        0.0000       0.000000       0.00000
   4     651.6        0.0000        0.0000        0.0000        0.0000       0.000000       0.00000
   3     718.7        0.0000        0.0000        0.0000        0.0000       0.000000       0.00000
   2     792.3        0.0000        0.0000        0.0000        0.0000       0.000000       0.00000
   1     891.5        0.0000        0.0000        0.0000        0.0000       0.000000       0.00000
   0    1013.0        0.0000        0.0000        0.0000        0.0000       0.000000       0.00000



 Wavenumbers:   820. -  2600. cm-1, ATM      1
 LEVEL PRESSURE   UPWARD FLUX   DIFDOWN FLUX  DIRDOWN FLUX  DOWNWARD FLUX   NET FLUX    HEATING RATE
          mb          W/m2          W/m2          W/m2        W/m2          W/m2       degree/day
  51    .06700        0.5434        0.0000        6.0047        6.0047       5.461262       0.00000
  50    .07753        0.5434        0.0000        6.0008        6.0008       5.457409       3.08820
  49    .09103        0.5434        0.0000        5.9999        5.9999       5.456523       0.55357
  48    0.1069        0.5434        0.0000        5.9989        5.9989       5.455534       0.52652
  47    0.1255        0.5434        0.0000        5.9978        5.9978       5.454417       0.50649
  46    0.1487        0.5434        0.0000        5.9964        5.9964       5.453060       0.49456
  45    0.1794        0.5434        0.0000        5.9947        5.9947       5.451341       0.47199
  44    0.2165        0.5434        0.0000        5.9929        5.9929       5.449498       0.41909
  43    0.2613        0.5434        0.0000        5.9909        5.9909       5.447539       0.36932
  42    0.3336        0.5434        0.0000        5.9880        5.9880       5.444661       0.33555
  41    0.4307        0.5434        0.0000        5.9846        5.9846       5.441192       0.30164
  40    0.5894        0.5434        0.0000        5.9791        5.9791       5.435687       0.29275
  39     1.339        0.5434        0.0000        5.9536        5.9536       5.410200       0.28693
  38     1.782        0.5434        0.0000        5.9395        5.9395       5.396062       0.26916
  37     2.292        0.5434        0.0000        5.9237        5.9237       5.380311       0.26087
  36     2.964        0.5434        0.0000        5.9039        5.9039       5.360538       0.24822
  35     3.853        0.5434        0.0000        5.8793        5.8793       5.335882       0.23399
  34     5.035        0.5434        0.0000        5.8487        5.8487       5.305320       0.21833
  33     6.613        0.5434        0.0000        5.8108        5.8108       5.267356       0.20296
  32     8.786        0.5434        0.0000        5.7631        5.7631       5.219733       0.18495
  31     11.80        0.5434        0.0000        5.7039        5.7039       5.160477       0.16590
  30     15.07        0.5434        0.0000        5.6539        5.6539       5.110438       0.12919
  29     18.79        0.5434        0.0000        5.6127        5.6127       5.069302       0.09327
  28     23.16        0.5434        0.0000        5.5794        5.5794       5.035924       0.06454
  27     28.12        0.5435        0.0000        5.5518        5.5518       5.008354       0.04687
  26     33.73        0.5435        0.0000        5.5268        5.5268       4.983296       0.03768
  25     40.54        0.5435        0.0000        5.4993        5.4993       4.955845       0.03406
  24     48.69        0.5435        0.0000        5.4678        5.4678       4.924293       0.03265
  23     57.69        0.5435        0.0000        5.4340        5.4340       4.890491       0.03168
  22     68.43        0.5436        0.0000        5.3947        5.3948       4.851199       0.03089
  21     81.20        0.5436        0.0000        5.3497        5.3497       4.806142       0.02977
  20     96.49        0.5436        0.0000        5.2982        5.2982       4.754599       0.02845
  19     114.6        0.5437        0.0000        5.2389        5.2389       4.695238       0.02772
  18     136.5        0.5437        0.0000        5.1716        5.1717       4.627933       0.02588
  17     162.9        0.5438        0.0000        5.0890        5.0890       4.545230       0.02644
  16     196.4        0.5440        0.0000        4.9668        4.9668       4.422868       0.03080
  15     218.7        0.5441        0.0000        4.8585        4.8585       4.314362       0.04120
  14     243.0        0.5444        0.0000        4.7078        4.7079       4.163511       0.05232
  13     269.0        0.5447        0.0000        4.5343        4.5343       3.989577       0.05642
  12     297.5        0.5453        0.0000        4.3419        4.3420       3.796687       0.05721
  11     328.5        0.5460        0.0000        4.1281        4.1281       3.582092       0.05835
  10     361.9        0.5471        0.0000        3.8786        3.8787       3.331593       0.06338
   9     398.1        0.5484        0.0000        3.6159        3.6159       3.067522       0.06152
   8     437.6        0.5502        0.0000        3.3759        3.3759       2.825711       0.05170
   7     480.5        0.5523        0.0000        3.1957        3.1958       2.643453       0.03579
   6     533.0        0.5556        0.0000        3.0467        3.0467       2.491080       0.02451
   5     589.8        0.5605        0.0000        2.9023        2.9023       2.341808       0.02216
   4     651.6        0.5691        0.0000        2.7183        2.7184       2.149261       0.02633
   3     718.7        0.5839        0.0000        2.5058        2.5059       1.921940       0.02857
   2     792.3        0.6117        0.0000        2.2756        2.2757       1.663953       0.02959
   1     891.5        0.3155        0.3849        1.2633        1.6481       1.332670       0.02819
   0    1013.0        0.3817        0.3110        0.9959        1.3069       0.925198       0.02829

  Modules and versions used in this calculation:

       rrtmg_sw.1col.f90:  $Revision$                    rrtmg_sw_init.f90:  $Revision$        
     rrtmgsw_cldprop.f90:  $Revision$                  rrtmgsw_cldprmc.f90:  NOT USED          
     rrtmg_sw_reftra.f90:  $Revision$                  rrtmg_sw_spcvrt.f90:  NOT USED          
     rrtmg_sw_spcvmc.f90:  NOT USED                    rrtmgsw_setcoef.f90:  NOT USED          
     rrtmg_sw_taumol.f90:  $Revision$                  rrtmg_sw_vrtqdr.f90:  NOT USED          
                rrtatm.f:  NOT USED                             util_xxx.f:  NOT USED          
                 extra.f:  NOT USED                       rrtmg_sw_k_g.f90:  $Revision$        

