

 Wavenumbers:   820. - 50000. cm-1, ATM      1
 LEVEL PRESSURE   UPWARD FLUX   DIFDOWN FLUX  DIRDOWN FLUX  DOWNWARD FLUX   NET FLUX    HEATING RATE
          mb          W/m2          W/m2          W/m2        W/m2          W/m2       degree/day
  51    .06700      280.3032        0.0000      617.8126      617.8126     337.509363       0.00000
  50    .07753      280.3027        0.0013      617.7947      617.7960     337.493245      12.91884
  49    .09103      280.3022        0.0029      617.7778      617.7806     337.478467       9.23670
  48    0.1069      280.3015        0.0047      617.7581      617.7628     337.461247       9.16606
  47    0.1255      280.3008        0.0068      617.7340      617.7408     337.439958       9.65150
  46    0.1487      280.3000        0.0095      617.7009      617.7103     337.410354      10.79119
  45    0.1794      280.2989        0.0131      617.6521      617.6652     337.366249      12.10786
  44    0.2165      280.2977        0.0173      617.5895      617.6068     337.309097      13.00092
  43    0.2613      280.2965        0.0224      617.5089      617.5313     337.234814      14.00205
  42    0.3336      280.2946        0.0307      617.3641      617.3948     337.100164      15.69885
  41    0.4307      280.2925        0.0416      617.1591      617.2007     336.908195      16.69126
  40    0.5894      280.2900        0.0592      616.8005      616.8597     336.569750      17.99811
  39     1.339      280.2926        0.1386      614.9443      615.0829     334.790284      20.03355
  38     1.782      280.3044        0.1832      613.9670      614.1502     333.845775      17.98194
  37     2.292      280.3274        0.2338      613.0059      613.2397     332.912339      15.46013
  36     2.964      280.3713        0.2996      611.9577      612.2573     331.885915      12.88472
  35     3.853      280.4487        0.3858      610.8024      611.1882     330.739499      10.87970
  34     5.035      280.5704        0.4994      609.5327      610.0322     329.461767       9.12759
  33     6.613      280.7432        0.6502      608.1464      608.7967     328.053498       7.52861
  32     8.786      280.9676        0.8525      606.6250      607.4775     326.509947       5.99459
  31     11.80      281.2546        1.1403      604.8486      605.9889     324.734276       4.97132
  30     15.07      281.5233        1.4472      603.2440      604.6911     323.167802       4.04433
  29     18.79      281.7916        1.7924      601.6511      603.4435     321.651926       3.43696
  28     23.16      282.0642        2.1932      599.9927      602.1859     320.121715       2.95893
  27     28.12      282.3283        2.6492      598.2881      600.9372     318.608969       2.57157
  26     33.73      282.5539        3.1573      596.5951      599.7523     317.198446       2.12076
  25     40.54      282.7450        3.7686      594.7727      598.5413     315.796338       1.73947
  24     48.69      282.8964        4.5017      592.7865      597.2882     314.391808       1.45347
  23     57.69      282.9862        5.3026      590.7959      596.0985     313.112266       1.19938
  22     68.43      283.0101        6.2507      588.6191      594.8698     311.859662       0.98471
  21     81.20      282.9229        7.3738      586.2690      593.6428     310.719826       0.75319
  20     96.49      282.7120        8.7024      583.6961      592.3985     309.686475       0.57034
  19     114.6      282.4175       10.2634      580.7708      591.0342     308.616767       0.49948
  18     136.5      282.0338       12.0888      577.4359      589.5247     307.490864       0.43294
  17     162.9      281.5478       14.2275      573.5624      587.7899     306.242134       0.39914
  16     196.4      280.8496       16.9494      568.5907      585.5401     304.690556       0.39055
  15     218.7      280.3687       18.7060      565.0572      583.7632     303.394528       0.49205
  14     243.0      279.8388       20.5871      560.7495      581.3367     301.497837       0.65784
  13     269.0      279.2584       22.5933      555.3947      577.9880     298.729654       0.89799
  12     297.5      278.6278       24.7244      548.9964      573.7208     295.092963       1.07860
  11     328.5      277.9513       26.9853      542.0895      569.0749     291.123578       1.07926
  10     361.9      277.2309       29.3717      534.6242      563.9959     286.765033       1.10276
   9     398.1      276.4674       31.8864      526.4204      558.3068     281.839373       1.14757
   8     437.6      275.6671       34.5270      517.3907      551.9177     276.250508       1.19493
   7     480.5      274.8352       37.2902      507.7216      545.0118     270.176605       1.19289
   6     533.0      273.8580       40.6006      495.9006      536.5012     262.643270       1.21187
   5     589.8      272.8864       44.0598      483.0788      527.1386     254.252180       1.24551
   4     651.6      272.0012       47.6529      468.6907      516.3436     244.342366       1.35519
   3     718.7      271.2983       51.3700      453.2257      504.5957     233.297444       1.38804
   2     792.3      271.0220       55.1879      436.4928      491.6807     220.658715       1.44952
   1     891.5      242.0771      113.5148      332.1022      445.6170     203.539833       1.45673
   0    1013.0      243.5740      115.9169      311.6261      427.5431     183.969022       1.35890



 Wavenumbers:  2600. -  3250. cm-1, ATM      1
 LEVEL PRESSURE   UPWARD FLUX   DIFDOWN FLUX  DIRDOWN FLUX  DOWNWARD FLUX   NET FLUX    HEATING RATE
          mb          W/m2          W/m2          W/m2        W/m2          W/m2       degree/day
  51    .06700        0.6126        0.0000        5.4450        5.4450       4.832395       0.00000
  50    .07753        0.6126        0.0000        5.4450        5.4450       4.832387       0.00640
  49    .09103        0.6126        0.0000        5.4450        5.4450       4.832377       0.00627
  48    0.1069        0.6126        0.0000        5.4450        5.4450       4.832365       0.00613
  47    0.1255        0.6126        0.0000        5.4450        5.4450       4.832352       0.00599
  46    0.1487        0.6126        0.0000        5.4450        5.4450       4.832335       0.00608
  45    0.1794        0.6126        0.0000        5.4450        5.4450       4.832312       0.00625
  44    0.2165        0.6126        0.0000        5.4449        5.4449       4.832285       0.00612
  43    0.2613        0.6126        0.0000        5.4449        5.4449       4.832254       0.00600
  42    0.3336        0.6126        0.0000        5.4448        5.4448       4.832201       0.00617
  41    0.4307        0.6126        0.0000        5.4448        5.4448       4.832129       0.00620
  40    0.5894        0.6126        0.0000        5.4446        5.4446       4.832010       0.00637
  39     1.339        0.6126        0.0000        5.4439        5.4439       4.831302       0.00797
  38     1.782        0.6126        0.0000        5.4434        5.4434       4.830759       0.01034
  37     2.292        0.6126        0.0000        5.4427        5.4427       4.830043       0.01186
  36     2.964        0.6126        0.0000        5.4416        5.4416       4.829005       0.01304
  35     3.853        0.6126        0.0000        5.4402        5.4402       4.827527       0.01402
  34     5.035        0.6126        0.0000        5.4381        5.4381       4.825472       0.01468
  33     6.613        0.6126        0.0000        5.4353        5.4353       4.822691       0.01487
  32     8.786        0.6126        0.0000        5.4317        5.4317       4.819058       0.01411
  31     11.80        0.6126        0.0000        5.4269        5.4269       4.814278       0.01338
  30     15.07        0.6126        0.0000        5.4224        5.4224       4.809751       0.01169
  29     18.79        0.6126        0.0000        5.4180        5.4180       4.805339       0.01000
  28     23.16        0.6126        0.0000        5.4135        5.4135       4.800852       0.00868
  27     28.12        0.6126        0.0000        5.4088        5.4088       4.796204       0.00790
  26     33.73        0.6126        0.0000        5.4036        5.4036       4.790962       0.00788
  25     40.54        0.6126        0.0000        5.3966        5.3967       4.784018       0.00861
  24     48.69        0.6126        0.0000        5.3872        5.3872       4.774538       0.00981
  23     57.69        0.6127        0.0000        5.3754        5.3754       4.762749       0.01105
  22     68.43        0.6127        0.0000        5.3599        5.3599       4.747254       0.01218
  21     81.20        0.6127        0.0000        5.3401        5.3401       4.727411       0.01311
  20     96.49        0.6127        0.0000        5.3155        5.3155       4.702829       0.01357
  19     114.6        0.6127        0.0000        5.2853        5.2853       4.672612       0.01411
  18     136.5        0.6128        0.0001        5.2504        5.2505       4.637674       0.01343
  17     162.9        0.6129        0.0001        5.2111        5.2111       4.598286       0.01259
  16     196.4        0.6130        0.0001        5.1640        5.1641       4.551117       0.01187
  15     218.7        0.6131        0.0001        5.1331        5.1332       4.520060       0.01179
  14     243.0        0.6134        0.0001        5.0962        5.0963       4.482942       0.01287
  13     269.0        0.6137        0.0001        5.0511        5.0512       4.437463       0.01475
  12     297.5        0.6143        0.0001        4.9956        4.9957       4.381433       0.01662
  11     328.5        0.6151        0.0001        4.9304        4.9305       4.315440       0.01794
  10     361.9        0.6161        0.0001        4.8511        4.8512       4.235125       0.02032
   9     398.1        0.6175        0.0001        4.7507        4.7508       4.133277       0.02373
   8     437.6        0.6195        0.0002        4.6220        4.6222       4.002659       0.02793
   7     480.5        0.6222        0.0002        4.4625        4.4626       3.840399       0.03187
   6     533.0        0.6266        0.0002        4.2460        4.2462       3.619607       0.03552
   5     589.8        0.6332        0.0002        3.9954        3.9956       3.362419       0.03818
   4     651.6        0.6438        0.0002        3.7089        3.7090       3.065273       0.04064
   3     718.7        0.6608        0.0002        3.4018        3.4020       2.741248       0.04072
   2     792.3        0.6902        0.0002        3.0564        3.0566       2.366451       0.04299
   1     891.5        0.4934        0.2879        2.0723        2.3601       1.866744       0.04252
   0    1013.0        0.5698        0.2383        1.6725        1.9108       1.340923       0.03651



 Wavenumbers:  3250. -  4000. cm-1, ATM      1
 LEVEL PRESSURE   UPWARD FLUX   DIFDOWN FLUX  DIRDOWN FLUX  DOWNWARD FLUX   NET FLUX    HEATING RATE
          mb          W/m2          W/m2          W/m2        W/m2          W/m2       degree/day
  51    .06700        0.0055        0.0000        9.1795        9.1795       9.173989       0.00000
  50    .07753        0.0055        0.0000        9.1747        9.1747       9.169146       3.88148
  49    .09103        0.0055        0.0000        9.1713        9.1713       9.165758       2.11747
  48    0.1069        0.0055        0.0000        9.1688        9.1688       9.163234       1.34402
  47    0.1255        0.0055        0.0000        9.1665        9.1665       9.160974       1.02422
  46    0.1487        0.0055        0.0000        9.1641        9.1641       9.158533       0.88991
  45    0.1794        0.0055        0.0000        9.1612        9.1612       9.155655       0.79008
  44    0.2165        0.0055        0.0000        9.1583        9.1583       9.152735       0.66430
  43    0.2613        0.0055        0.0000        9.1553        9.1553       9.149762       0.56041
  42    0.3336        0.0055        0.0000        9.1511        9.1511       9.145583       0.48723
  41    0.4307        0.0055        0.0000        9.1464        9.1464       9.140814       0.41459
  40    0.5894        0.0055        0.0000        9.1393        9.1394       9.133809       0.37255
  39     1.339        0.0055        0.0000        9.1127        9.1127       9.107195       0.29962
  38     1.782        0.0055        0.0000        9.1011        9.1011       9.095607       0.22062
  37     2.292        0.0055        0.0000        9.0901        9.0901       9.084540       0.18329
  36     2.964        0.0055        0.0000        9.0776        9.0776       9.072111       0.15603
  35     3.853        0.0055        0.0000        9.0629        9.0629       9.057320       0.14036
  34     5.035        0.0055        0.0000        9.0441        9.0441       9.038582       0.13386
  33     6.613        0.0055        0.0000        9.0191        9.0191       9.013580       0.13366
  32     8.786        0.0055        0.0000        8.9843        8.9843       8.978796       0.13509
  31     11.80        0.0055        0.0000        8.9327        8.9327       8.927180       0.14451
  30     15.07        0.0055        0.0000        8.8758        8.8759       8.870335       0.14676
  29     18.79        0.0055        0.0000        8.8110        8.8110       8.805508       0.14698
  28     23.16        0.0055        0.0000        8.7365        8.7366       8.731063       0.14395
  27     28.12        0.0055        0.0000        8.6554        8.6555       8.649950       0.13789
  26     33.73        0.0055        0.0000        8.5719        8.5719       8.566450       0.12554
  25     40.54        0.0055        0.0001        8.4812        8.4812       8.475727       0.11255
  24     48.69        0.0055        0.0001        8.3838        8.3839       8.378425       0.10069
  23     57.69        0.0055        0.0001        8.2861        8.2862       8.280690       0.09161
  22     68.43        0.0055        0.0001        8.1751        8.1751       8.169694       0.08726
  21     81.20        0.0054        0.0001        8.0457        8.0458       8.040335       0.08548
  20     96.49        0.0054        0.0001        7.8949        7.8950       7.889632       0.08318
  19     114.6        0.0054        0.0001        7.7162        7.7163       7.710922       0.08344
  18     136.5        0.0054        0.0002        7.5193        7.5194       7.514079       0.07569
  17     162.9        0.0053        0.0002        7.2913        7.2915       7.286187       0.07284
  16     196.4        0.0053        0.0002        6.9660        6.9662       6.960914       0.08188
  15     218.7        0.0053        0.0002        6.6648        6.6650       6.659725       0.11435
  14     243.0        0.0053        0.0002        6.2619        6.2622       6.256928       0.13970
  13     269.0        0.0052        0.0003        5.7576        5.7579       5.752624       0.16359
  12     297.5        0.0052        0.0003        5.1719        5.1722       5.166922       0.17371
  11     328.5        0.0052        0.0002        4.5757        4.5760       4.570744       0.16210
  10     361.9        0.0052        0.0002        3.9995        3.9998       3.994537       0.14579
   9     398.1        0.0053        0.0002        3.4655        3.4657       3.460429       0.12444
   8     437.6        0.0054        0.0002        2.9740        2.9742       2.968895       0.10509
   7     480.5        0.0055        0.0002        2.5307        2.5309       2.525382       0.08710
   6     533.0        0.0057        0.0002        2.0614        2.0616       2.055816       0.07554
   5     589.8        0.0062        0.0002        1.6150        1.6151       1.608894       0.06634
   4     651.6        0.0073        0.0001        1.1565        1.1566       1.149318       0.06285
   3     718.7        0.0096        0.0001        0.7390        0.7391       0.729546       0.05275
   2     792.3        0.0157        0.0001        0.3985        0.3985       0.382866       0.03976
   1     891.5        0.0003        0.0118        0.0914        0.1031       0.102867       0.02383
   0    1013.0        0.0026        0.0012        0.0075        0.0087       0.006143       0.00672



 Wavenumbers:  4000. -  4650. cm-1, ATM      1
 LEVEL PRESSURE   UPWARD FLUX   DIFDOWN FLUX  DIRDOWN FLUX  DOWNWARD FLUX   NET FLUX    HEATING RATE
          mb          W/m2          W/m2          W/m2        W/m2          W/m2       degree/day
  51    .06700        2.3094        0.0000       10.7795       10.7795       8.470174       0.00000
  50    .07753        2.3094        0.0000       10.7795       10.7795       8.470173       0.00080
  49    .09103        2.3094        0.0000       10.7795       10.7795       8.470172       0.00078
  48    0.1069        2.3094        0.0000       10.7795       10.7795       8.470170       0.00076
  47    0.1255        2.3094        0.0000       10.7795       10.7795       8.470169       0.00075
  46    0.1487        2.3094        0.0000       10.7795       10.7795       8.470166       0.00076
  45    0.1794        2.3094        0.0000       10.7795       10.7795       8.470164       0.00078
  44    0.2165        2.3094        0.0000       10.7795       10.7795       8.470160       0.00076
  43    0.2613        2.3094        0.0000       10.7795       10.7795       8.470156       0.00075
  42    0.3336        2.3094        0.0000       10.7795       10.7795       8.470150       0.00077
  41    0.4307        2.3094        0.0000       10.7795       10.7795       8.470141       0.00077
  40    0.5894        2.3094        0.0000       10.7795       10.7795       8.470126       0.00080
  39     1.339        2.3094        0.0000       10.7794       10.7794       8.470037       0.00101
  38     1.782        2.3094        0.0000       10.7793       10.7793       8.469967       0.00133
  37     2.292        2.3094        0.0000       10.7792       10.7792       8.469873       0.00156
  36     2.964        2.3094        0.0000       10.7791       10.7791       8.469732       0.00176
  35     3.853        2.3094        0.0000       10.7789       10.7789       8.469524       0.00197
  34     5.035        2.3094        0.0000       10.7786       10.7786       8.469218       0.00219
  33     6.613        2.3093        0.0000       10.7781       10.7781       8.468766       0.00241
  32     8.786        2.3093        0.0000       10.7774       10.7774       8.468100       0.00259
  31     11.80        2.3093        0.0000       10.7763       10.7764       8.467053       0.00293
  30     15.07        2.3093        0.0001       10.7751       10.7752       8.465825       0.00317
  29     18.79        2.3093        0.0001       10.7736       10.7737       8.464341       0.00337
  28     23.16        2.3093        0.0001       10.7717       10.7718       8.462498       0.00356
  27     28.12        2.3093        0.0001       10.7695       10.7696       8.460269       0.00379
  26     33.73        2.3093        0.0001       10.7667       10.7668       8.457520       0.00413
  25     40.54        2.3093        0.0002       10.7629       10.7631       8.453794       0.00462
  24     48.69        2.3093        0.0002       10.7579       10.7581       8.448831       0.00514
  23     57.69        2.3093        0.0002       10.7520       10.7522       8.442952       0.00551
  22     68.43        2.3093        0.0003       10.7446       10.7449       8.435589       0.00579
  21     81.20        2.3093        0.0003       10.7355       10.7358       8.426529       0.00599
  20     96.49        2.3093        0.0004       10.7245       10.7249       8.415517       0.00608
  19     114.6        2.3094        0.0005       10.7107       10.7112       8.401764       0.00642
  18     136.5        2.3095        0.0005       10.6942       10.6947       8.385216       0.00636
  17     162.9        2.3097        0.0006       10.6740       10.6747       8.364965       0.00647
  16     196.4        2.3100        0.0008       10.6464       10.6471       8.337101       0.00701
  15     218.7        2.3104        0.0009       10.6255       10.6263       8.315953       0.00803
  14     243.0        2.3109        0.0010       10.5980       10.5990       8.288126       0.00965
  13     269.0        2.3117        0.0011       10.5611       10.5622       8.250466       0.01222
  12     297.5        2.3129        0.0012       10.5119       10.5131       8.200221       0.01490
  11     328.5        2.3146        0.0013       10.4499       10.4512       8.136586       0.01730
  10     361.9        2.3168        0.0014       10.3702       10.3716       8.054790       0.02070
   9     398.1        2.3196        0.0015       10.2678       10.2693       7.949734       0.02448
   8     437.6        2.3231        0.0017       10.1390       10.1407       7.817557       0.02826
   7     480.5        2.3276        0.0018        9.9877        9.9895       7.661962       0.03056
   6     533.0        2.3343        0.0020        9.7937        9.7957       7.461386       0.03227
   5     589.8        2.3438        0.0021        9.5752        9.5773       7.233518       0.03382
   4     651.6        2.3587        0.0023        9.2958        9.2981       6.939460       0.04021
   3     718.7        2.3826        0.0025        8.9267        8.9292       6.546622       0.04937
   2     792.3        2.4245        0.0026        8.4542        8.4568       6.032343       0.05898
   1     891.5        1.8187        0.8962        6.2533        7.1495       5.330810       0.05970
   0    1013.0        1.9381        0.8241        5.6771        6.5013       4.563136       0.05330



 Wavenumbers:  4650. -  5150. cm-1, ATM      1
 LEVEL PRESSURE   UPWARD FLUX   DIFDOWN FLUX  DIRDOWN FLUX  DOWNWARD FLUX   NET FLUX    HEATING RATE
          mb          W/m2          W/m2          W/m2        W/m2          W/m2       degree/day
  51    .06700        1.6392        0.0000       10.2033       10.2033       8.564136       0.00000
  50    .07753        1.6392        0.0000       10.2031       10.2031       8.563900       0.18901
  49    .09103        1.6392        0.0000       10.2028       10.2028       8.563605       0.18428
  48    0.1069        1.6392        0.0000       10.2025       10.2025       8.563268       0.17931
  47    0.1255        1.6392        0.0000       10.2021       10.2021       8.562884       0.17426
  46    0.1487        1.6392        0.0000       10.2016       10.2016       8.562403       0.17536
  45    0.1794        1.6392        0.0000       10.2010       10.2010       8.561752       0.17850
  44    0.2165        1.6392        0.0000       10.2002       10.2002       8.560993       0.17277
  43    0.2613        1.6392        0.0000       10.1993       10.1993       8.560108       0.16690
  42    0.3336        1.6392        0.0000       10.1979       10.1979       8.558675       0.16702
  41    0.4307        1.6392        0.0000       10.1960       10.1960       8.556835       0.16002
  40    0.5894        1.6392        0.0000       10.1932       10.1932       8.553961       0.15283
  39     1.339        1.6392        0.0000       10.1816       10.1816       8.542369       0.13050
  38     1.782        1.6392        0.0000       10.1760       10.1760       8.536841       0.10526
  37     2.292        1.6392        0.0000       10.1706       10.1706       8.531385       0.09037
  36     2.964        1.6392        0.0000       10.1646       10.1647       8.525462       0.07435
  35     3.853        1.6392        0.0000       10.1584       10.1584       8.519248       0.05897
  34     5.035        1.6392        0.0000       10.1521       10.1521       8.512913       0.04525
  33     6.613        1.6392        0.0000       10.1456       10.1456       8.506457       0.03451
  32     8.786        1.6392        0.0001       10.1386       10.1386       8.499449       0.02722
  31     11.80        1.6392        0.0001       10.1295       10.1296       8.490412       0.02530
  30     15.07        1.6392        0.0001       10.1196       10.1197       8.480537       0.02549
  29     18.79        1.6392        0.0001       10.1076       10.1077       8.468535       0.02721
  28     23.16        1.6392        0.0001       10.0923       10.0924       8.453238       0.02958
  27     28.12        1.6392        0.0002       10.0731       10.0733       8.434153       0.03244
  26     33.73        1.6392        0.0002       10.0500       10.0502       8.411071       0.03471
  25     40.54        1.6392        0.0002       10.0201       10.0204       8.381183       0.03708
  24     48.69        1.6392        0.0003        9.9820        9.9823       8.343032       0.03948
  23     57.69        1.6393        0.0003        9.9384        9.9388       8.299517       0.04079
  22     68.43        1.6393        0.0004        9.8858        9.8862       8.246816       0.04143
  21     81.20        1.6395        0.0005        9.8234        9.8239       8.184465       0.04120
  20     96.49        1.6396        0.0006        9.7518        9.7523       8.112700       0.03961
  19     114.6        1.6399        0.0007        9.6719        9.6726       8.032716       0.03735
  18     136.5        1.6402        0.0008        9.5858        9.5866       7.946362       0.03321
  17     162.9        1.6407        0.0009        9.4940        9.4950       7.854241       0.02945
  16     196.4        1.6415        0.0011        9.3883        9.3894       7.747852       0.02678
  15     218.7        1.6422        0.0012        9.3229        9.3241       7.681956       0.02502
  14     243.0        1.6431        0.0014        9.2520        9.2533       7.610270       0.02486
  13     269.0        1.6443        0.0015        9.1717        9.1732       7.528884       0.02640
  12     297.5        1.6460        0.0016        9.0763        9.0779       7.431914       0.02876
  11     328.5        1.6483        0.0018        8.9650        8.9668       7.318470       0.03085
  10     361.9        1.6513        0.0019        8.8349        8.8369       7.185604       0.03362
   9     398.1        1.6551        0.0021        8.6820        8.6841       7.028986       0.03649
   8     437.6        1.6602        0.0023        8.5028        8.5051       6.844874       0.03936
   7     480.5        1.6668        0.0024        8.2948        8.2973       6.630464       0.04211
   6     533.0        1.6768        0.0026        8.0209        8.0235       6.346683       0.04565
   5     589.8        1.6908        0.0028        7.7063        7.7091       6.018372       0.04873
   4     651.6        1.7113        0.0030        7.3412        7.3442       5.632936       0.05271
   3     718.7        1.7419        0.0031        6.9387        6.9418       5.199913       0.05442
   2     792.3        1.7895        0.0033        6.5066        6.5099       4.720396       0.05500
   1     891.5        1.3399        0.6792        4.7628        5.4420       4.102083       0.05262
   0    1013.0        1.4520        0.6159        4.2544        4.8704       3.418353       0.04747



 Wavenumbers:  5150. -  6150. cm-1, ATM      1
 LEVEL PRESSURE   UPWARD FLUX   DIFDOWN FLUX  DIRDOWN FLUX  DOWNWARD FLUX   NET FLUX    HEATING RATE
          mb          W/m2          W/m2          W/m2        W/m2          W/m2       degree/day
  51    .06700        4.0968        0.0000       25.5798       25.5798      21.483055       0.00000
  50    .07753        4.0968        0.0000       25.5798       25.5798      21.483015       0.03157
  49    .09103        4.0968        0.0000       25.5797       25.5797      21.482964       0.03206
  48    0.1069        4.0968        0.0000       25.5797       25.5797      21.482903       0.03257
  47    0.1255        4.0968        0.0000       25.5796       25.5796      21.482830       0.03307
  46    0.1487        4.0968        0.0000       25.5795       25.5795      21.482734       0.03484
  45    0.1794        4.0968        0.0000       25.5794       25.5794      21.482599       0.03708
  44    0.2165        4.0968        0.0000       25.5792       25.5792      21.482434       0.03765
  43    0.2613        4.0968        0.0000       25.5790       25.5790      21.482231       0.03822
  42    0.3336        4.0968        0.0000       25.5786       25.5786      21.481885       0.04039
  41    0.4307        4.0968        0.0000       25.5782       25.5782      21.481414       0.04093
  40    0.5894        4.0968        0.0000       25.5774       25.5774      21.480625       0.04194
  39     1.339        4.0967        0.0000       25.5735       25.5736      21.476827       0.04277
  38     1.782        4.0967        0.0000       25.5713       25.5713      21.474615       0.04210
  37     2.292        4.0967        0.0001       25.5688       25.5688      21.472113       0.04144
  36     2.964        4.0967        0.0001       25.5656       25.5656      21.468935       0.03990
  35     3.853        4.0967        0.0001       25.5615       25.5616      21.464896       0.03833
  34     5.035        4.0967        0.0001       25.5562       25.5564      21.459696       0.03715
  33     6.613        4.0967        0.0002       25.5494       25.5496      21.452951       0.03606
  32     8.786        4.0966        0.0002       25.5406       25.5408      21.444212       0.03394
  31     11.80        4.0966        0.0003       25.5287       25.5290      21.432397       0.03308
  30     15.07        4.0966        0.0004       25.5167       25.5171      21.420553       0.03058
  29     18.79        4.0965        0.0005       25.5042       25.5047      21.408175       0.02806
  28     23.16        4.0965        0.0006       25.4907       25.4913      21.394847       0.02577
  27     28.12        4.0964        0.0008       25.4764       25.4772      21.380800       0.02388
  26     33.73        4.0964        0.0009       25.4620       25.4629      21.366575       0.02139
  25     40.54        4.0963        0.0011       25.4463       25.4474      21.351035       0.01928
  24     48.69        4.0963        0.0013       25.4294       25.4307      21.334416       0.01720
  23     57.69        4.0963        0.0016       25.4126       25.4142      21.317936       0.01545
  22     68.43        4.0962        0.0019       25.3944       25.3963      21.300065       0.01405
  21     81.20        4.0962        0.0022       25.3744       25.3766      21.280422       0.01298
  20     96.49        4.0962        0.0026       25.3519       25.3546      21.258366       0.01217
  19     114.6        4.0962        0.0031       25.3262       25.3293      21.233091       0.01180
  18     136.5        4.0962        0.0037       25.2962       25.2999      21.203685       0.01131
  17     162.9        4.0963        0.0044       25.2521       25.2565      21.160249       0.01388
  16     196.4        4.0963        0.0053       25.1593       25.1646      21.068256       0.02316
  15     218.7        4.0964        0.0059       25.0159       25.0218      20.925369       0.05425
  14     243.0        4.0966        0.0065       24.7089       24.7154      20.618779       0.10634
  13     269.0        4.0969        0.0070       24.1619       24.1689      20.072010       0.17737
  12     297.5        4.0973        0.0076       23.4544       23.4620      19.364627       0.20980
  11     328.5        4.0980        0.0081       22.7355       22.7436      18.645593       0.19550
  10     361.9        4.0990        0.0087       21.9224       21.9311      17.832140       0.20581
   9     398.1        4.1004        0.0092       20.9939       21.0031      16.902785       0.21652
   8     437.6        4.1023        0.0097       19.9833       19.9930      15.890725       0.21638
   7     480.5        4.1051        0.0102       18.9483       18.9585      14.853394       0.20373
   6     533.0        4.1098        0.0107       17.7796       17.7903      13.680492       0.18868
   5     589.8        4.1174        0.0112       16.6726       16.6837      12.566357       0.16537
   4     651.6        4.1312        0.0117       15.6343       15.6460      11.514792       0.14380
   3     718.7        4.1560        0.0123       14.7738       14.7860      10.630073       0.11118
   2     792.3        4.2036        0.0129       14.0291       14.0420       9.838420       0.09079
   1     891.5        3.1621        1.5220       10.4952       12.0172       8.855136       0.08367
   0    1013.0        3.3016        1.4200        9.6579       11.0778       7.776192       0.07492



 Wavenumbers:  6150. -  7700. cm-1, ATM      1
 LEVEL PRESSURE   UPWARD FLUX   DIFDOWN FLUX  DIRDOWN FLUX  DOWNWARD FLUX   NET FLUX    HEATING RATE
          mb          W/m2          W/m2          W/m2        W/m2          W/m2       degree/day
  51    .06700        6.2043        0.0000       47.3109       47.3109      41.106556       0.00000
  50    .07753        6.2043        0.0000       47.3108       47.3108      41.106499       0.04553
  49    .09103        6.2043        0.0000       47.3107       47.3107      41.106426       0.04583
  48    0.1069        6.2043        0.0000       47.3106       47.3106      41.106339       0.04614
  47    0.1255        6.2043        0.0000       47.3105       47.3105      41.106237       0.04645
  46    0.1487        6.2043        0.0000       47.3104       47.3104      41.106104       0.04852
  45    0.1794        6.2043        0.0000       47.3102       47.3102      41.105917       0.05127
  44    0.2165        6.2043        0.0000       47.3100       47.3100      41.105690       0.05167
  43    0.2613        6.2043        0.0000       47.3097       47.3097      41.105414       0.05210
  42    0.3336        6.2043        0.0000       47.3092       47.3092      41.104944       0.05471
  41    0.4307        6.2043        0.0000       47.3085       47.3086      41.104309       0.05521
  40    0.5894        6.2043        0.0001       47.3074       47.3075      41.103250       0.05633
  39     1.339        6.2042        0.0001       47.3022       47.3023      41.098158       0.05733
  38     1.782        6.2041        0.0002       47.2991       47.2993      41.095188       0.05655
  37     2.292        6.2041        0.0003       47.2956       47.2959      41.091812       0.05591
  36     2.964        6.2040        0.0003       47.2912       47.2915      41.087494       0.05421
  35     3.853        6.2039        0.0004       47.2855       47.2859      41.081959       0.05252
  34     5.035        6.2038        0.0006       47.2780       47.2786      41.074779       0.05129
  33     6.613        6.2037        0.0008       47.2683       47.2691      41.065391       0.05019
  32     8.786        6.2035        0.0010       47.2556       47.2566      41.053092       0.04777
  31     11.80        6.2032        0.0013       47.2380       47.2394      41.036189       0.04732
  30     15.07        6.2029        0.0017       47.2201       47.2218      41.018902       0.04463
  29     18.79        6.2025        0.0021       47.2008       47.2030      41.000423       0.04190
  28     23.16        6.2021        0.0026       47.1795       47.1822      40.980034       0.03943
  27     28.12        6.2016        0.0032       47.1565       47.1597      40.958042       0.03739
  26     33.73        6.2011        0.0038       47.1324       47.1362      40.935123       0.03446
  25     40.54        6.2005        0.0046       47.1054       47.1100      40.909489       0.03180
  24     48.69        6.1997        0.0055       47.0754       47.0810      40.881239       0.02923
  23     57.69        6.1989        0.0065       47.0449       47.0515      40.852622       0.02682
  22     68.43        6.1979        0.0078       47.0110       47.0188      40.820891       0.02494
  21     81.20        6.1967        0.0092       46.9729       46.9821      40.785406       0.02345
  20     96.49        6.1952        0.0109       46.9294       46.9403      40.745077       0.02226
  19     114.6        6.1935        0.0130       46.8790       46.8920      40.698462       0.02177
  18     136.5        6.1915        0.0154       46.8200       46.8354      40.643866       0.02099
  17     162.9        6.1891        0.0183       46.7361       46.7544      40.565295       0.02511
  16     196.4        6.1861        0.0220       46.5703       46.5923      40.406224       0.04004
  15     218.7        6.1841        0.0244       46.3473       46.3717      40.187624       0.08299
  14     243.0        6.1821        0.0269       45.9299       45.9568      39.774713       0.14321
  13     269.0        6.1801        0.0294       45.1708       45.2002      39.020089       0.24480
  12     297.5        6.1784        0.0318       44.0115       44.0433      37.864919       0.34261
  11     328.5        6.1769        0.0342       42.7242       42.7584      36.581511       0.34896
  10     361.9        6.1760        0.0366       41.3539       41.3906      35.214541       0.34586
   9     398.1        6.1760        0.0390       39.7953       39.8342      33.658221       0.36259
   8     437.6        6.1775        0.0411       37.9948       38.0359      31.858415       0.38481
   7     480.5        6.1810        0.0431       36.0647       36.1078      29.926756       0.37937
   6     533.0        6.1893        0.0451       33.7773       33.8224      27.633052       0.36898
   5     589.8        6.2056        0.0468       31.4082       31.4550      25.249385       0.35381
   4     651.6        6.2390        0.0481       28.8834       28.9314      22.692445       0.34967
   3     718.7        6.3030        0.0490       26.4104       26.4594      20.156393       0.31871
   2     792.3        6.4323        0.0497       24.0056       24.0553      17.623048       0.29055
   1     891.5        4.7471        2.4689       17.0359       19.5048      14.757654       0.24383
   0    1013.0        5.1089        2.2094       14.9344       17.1438      12.034925       0.18905



 Wavenumbers:  7700. -  8050. cm-1, ATM      1
 LEVEL PRESSURE   UPWARD FLUX   DIFDOWN FLUX  DIRDOWN FLUX  DOWNWARD FLUX   NET FLUX    HEATING RATE
          mb          W/m2          W/m2          W/m2        W/m2          W/m2       degree/day
  51    .06700        3.1770        0.0000       11.1810       11.1810       8.003949       0.00000
  50    .07753        3.1770        0.0000       11.1809       11.1809       8.003930       0.01592
  49    .09103        3.1770        0.0000       11.1809       11.1809       8.003905       0.01561
  48    0.1069        3.1770        0.0000       11.1809       11.1809       8.003876       0.01528
  47    0.1255        3.1770        0.0000       11.1809       11.1809       8.003843       0.01495
  46    0.1487        3.1770        0.0000       11.1808       11.1808       8.003801       0.01517
  45    0.1794        3.1770        0.0000       11.1808       11.1808       8.003744       0.01561
  44    0.2165        3.1770        0.0000       11.1807       11.1807       8.003677       0.01531
  43    0.2613        3.1770        0.0000       11.1806       11.1806       8.003597       0.01503
  42    0.3336        3.1771        0.0000       11.1805       11.1805       8.003466       0.01538
  41    0.4307        3.1771        0.0000       11.1803       11.1804       8.003291       0.01521
  40    0.5894        3.1771        0.0000       11.1801       11.1801       8.003005       0.01519
  39     1.339        3.1772        0.0001       11.1788       11.1789       8.001654       0.01521
  38     1.782        3.1773        0.0001       11.1781       11.1782       8.000860       0.01511
  37     2.292        3.1774        0.0001       11.1772       11.1773       7.999941       0.01522
  36     2.964        3.1775        0.0001       11.1761       11.1762       7.998735       0.01514
  35     3.853        3.1776        0.0002       11.1746       11.1748       7.997142       0.01512
  34     5.035        3.1778        0.0002       11.1726       11.1728       7.995026       0.01512
  33     6.613        3.1781        0.0003       11.1700       11.1703       7.992200       0.01511
  32     8.786        3.1784        0.0004       11.1664       11.1668       7.988394       0.01478
  31     11.80        3.1789        0.0006       11.1613       11.1619       7.982954       0.01523
  30     15.07        3.1794        0.0007       11.1558       11.1566       7.977120       0.01506
  29     18.79        3.1801        0.0009       11.1497       11.1506       7.970539       0.01492
  28     23.16        3.1808        0.0011       11.1425       11.1436       7.962865       0.01484
  27     28.12        3.1816        0.0014       11.1343       11.1357       7.954108       0.01489
  26     33.73        3.1825        0.0016       11.1252       11.1268       7.944333       0.01470
  25     40.54        3.1836        0.0019       11.1142       11.1161       7.932557       0.01461
  24     48.69        3.1849        0.0023       11.1010       11.1033       7.918413       0.01464
  23     57.69        3.1864        0.0028       11.0866       11.0894       7.902945       0.01450
  22     68.43        3.1882        0.0033       11.0695       11.0728       7.884614       0.01441
  21     81.20        3.1903        0.0039       11.0494       11.0533       7.862908       0.01434
  20     96.49        3.1929        0.0046       11.0255       11.0301       7.837231       0.01417
  19     114.6        3.1960        0.0055       10.9975       11.0030       7.807005       0.01411
  18     136.5        3.1997        0.0065       10.9648       10.9713       7.771535       0.01364
  17     162.9        3.2042        0.0077       10.9263       10.9340       7.729782       0.01335
  16     196.4        3.2101        0.0093       10.8773       10.8865       7.676376       0.01344
  15     218.7        3.2141        0.0103       10.8455       10.8558       7.641709       0.01316
  14     243.0        3.2185        0.0114       10.8114       10.8228       7.604334       0.01296
  13     269.0        3.2234        0.0126       10.7749       10.7875       7.564116       0.01305
  12     297.5        3.2287        0.0139       10.7357       10.7496       7.520871       0.01283
  11     328.5        3.2347        0.0153       10.6937       10.7090       7.474338       0.01265
  10     361.9        3.2413        0.0168       10.6489       10.6657       7.424337       0.01265
   9     398.1        3.2487        0.0184       10.6008       10.6192       7.370451       0.01255
   8     437.6        3.2571        0.0202       10.5491       10.5692       7.312167       0.01246
   7     480.5        3.2664        0.0220       10.4934       10.5154       7.249001       0.01241
   6     533.0        3.2787        0.0243       10.4243       10.4486       7.169836       0.01274
   5     589.8        3.2931        0.0267       10.3479       10.3746       7.081477       0.01312
   4     651.6        3.3105        0.0293       10.2613       10.2907       6.980123       0.01386
   3     718.7        3.3320        0.0321       10.1618       10.1938       6.861808       0.01487
   2     792.3        3.3595        0.0350       10.0439       10.0789       6.719366       0.01634
   1     891.5        2.5897        1.1880        7.9120        9.1001       6.510329       0.01779
   0    1013.0        2.6436        1.1655        7.7096        8.8751       6.231457       0.01936



 Wavenumbers:  8050. - 12850. cm-1, ATM      1
 LEVEL PRESSURE   UPWARD FLUX   DIFDOWN FLUX  DIRDOWN FLUX  DOWNWARD FLUX   NET FLUX    HEATING RATE
          mb          W/m2          W/m2          W/m2        W/m2          W/m2       degree/day
  51    .06700       39.9318        0.0000      156.5418      156.5418     116.609902       0.00000
  50    .07753       39.9318        0.0000      156.5417      156.5417     116.609902      -0.00000
  49    .09103       39.9318        0.0001      156.5417      156.5417     116.609902       0.00000
  48    0.1069       39.9318        0.0001      156.5416      156.5417     116.609902      -0.00000
  47    0.1255       39.9318        0.0001      156.5415      156.5417     116.609902       0.00000
  46    0.1487       39.9317        0.0002      156.5414      156.5416     116.609902      -0.00000
  45    0.1794       39.9317        0.0003      156.5413      156.5416     116.609902       0.00000
  44    0.2165       39.9316        0.0004      156.5412      156.5415     116.609902       0.00000
  43    0.2613       39.9315        0.0005      156.5410      156.5414     116.609902       0.00000
  42    0.3336       39.9314        0.0006      156.5407      156.5413     116.609902      -0.00000
  41    0.4307       39.9313        0.0009      156.5403      156.5412     116.609902       0.00000
  40    0.5894       39.9310        0.0012      156.5397      156.5409     116.609902       0.00000
  39     1.339       39.9298        0.0030      156.5367      156.5397     116.609902      -0.00000
  38     1.782       39.9291        0.0040      156.5350      156.5390     116.609902      -0.00000
  37     2.292       39.9283        0.0052      156.5330      156.5382     116.609902       0.00000
  36     2.964       39.9272        0.0068      156.5303      156.5371     116.609902       0.00000
  35     3.853       39.9258        0.0088      156.5268      156.5357     116.609902      -0.00000
  34     5.035       39.9239        0.0116      156.5222      156.5338     116.609902      -0.00000
  33     6.613       39.9214        0.0153      156.5160      156.5313     116.609902      -0.00000
  32     8.786       39.9180        0.0202      156.5076      156.5279     116.609902       0.00000
  31     11.80       39.9131        0.0273      156.4957      156.5230     116.609902       0.00000
  30     15.07       39.9079        0.0350      156.4828      156.5178     116.609902       0.00000
  29     18.79       39.9019        0.0436      156.4682      156.5118     116.609902      -0.00000
  28     23.16       39.8950        0.0537      156.4512      156.5049     116.609902       0.00000
  27     28.12       39.8871        0.0653      156.4317      156.4970     116.609902      -0.00000
  26     33.73       39.8782        0.0782      156.4099      156.4881     116.609902       0.00000
  25     40.54       39.8674        0.0939      156.3834      156.4773     116.609902       0.00000
  24     48.69       39.8544        0.1128      156.3515      156.4643     116.609902       0.00000
  23     57.69       39.8401        0.1336      156.3164      156.4500     116.609902       0.00000
  22     68.43       39.8231        0.1584      156.2746      156.4330     116.609902      -0.00000
  21     81.20       39.8027        0.1880      156.2246      156.4126     116.609902       0.00000
  20     96.49       39.7784        0.2234      156.1649      156.3883     116.609902       0.00000
  19     114.6       39.7496        0.2654      156.0879      156.3534     116.603789       0.00285
  18     136.5       39.7153        0.3153      155.9962      156.3115     116.596197       0.00292
  17     162.9       39.6744        0.3749      155.8831      156.2580     116.583562       0.00404
  16     196.4       39.6212        0.4523      155.7199      156.1723     116.551038       0.00819
  15     218.7       39.5864        0.5033      155.5733      156.0765     116.490190       0.02310
  14     243.0       39.5487        0.5585      155.3367      155.8952     116.346548       0.04982
  13     269.0       39.5085        0.6183      154.9514      155.5697     116.061231       0.09256
  12     297.5       39.4663        0.6825      154.3896      155.0721     115.605814       0.13507
  11     328.5       39.4223        0.7516      153.7151      154.4667     115.044386       0.15265
  10     361.9       39.3774        0.8257      152.9087      153.7345     114.357051       0.17390
   9     398.1       39.3327        0.9048      151.8986      152.8034     113.470651       0.20651
   8     437.6       39.2906        0.9886      150.6031      151.5917     112.301079       0.25006
   7     480.5       39.2540        1.0768      149.0014      150.0782     110.824218       0.29005
   6     533.0       39.2248        1.1830      146.7375      147.9206     108.695743       0.34240
   5     589.8       39.2226        1.2934      143.8730      145.1664     105.943741       0.40849
   4     651.6       39.2821        1.4053      140.0955      141.5008     102.218721       0.50941
   3     718.7       39.4507        1.5174      135.5278      137.0452      97.594506       0.58114
   2     792.3       39.8403        1.6265      130.0690      131.6956      91.855306       0.65822
   1     891.5       30.0695       15.7420       97.9892      113.7311      83.661655       0.69724
   0    1013.0       31.3869       14.9411       90.6268      105.5679      74.181021       0.65829



 Wavenumbers: 12850. - 16000. cm-1, ATM      1
 LEVEL PRESSURE   UPWARD FLUX   DIFDOWN FLUX  DIRDOWN FLUX  DOWNWARD FLUX   NET FLUX    HEATING RATE
          mb          W/m2          W/m2          W/m2        W/m2          W/m2       degree/day
  51    .06700       49.5202        0.0000       98.0872       98.0872      48.567003       0.00000
  50    .07753       49.5202        0.0001       98.0864       98.0864      48.566218       0.62920
  49    .09103       49.5202        0.0001       98.0853       98.0854      48.565234       0.61541
  48    0.1069       49.5202        0.0002       98.0841       98.0843      48.564104       0.60124
  47    0.1255       49.5202        0.0003       98.0826       98.0830      48.562809       0.58725
  46    0.1487       49.5201        0.0005       98.0809       98.0813      48.561178       0.59460
  45    0.1794       49.5201        0.0006       98.0784       98.0791      48.558964       0.60779
  44    0.2165       49.5201        0.0008       98.0756       98.0765      48.556366       0.59085
  43    0.2613       49.5201        0.0011       98.0723       98.0734      48.553321       0.57395
  42    0.3336       49.5201        0.0015       98.0670       98.0685      48.548371       0.57716
  41    0.4307       49.5202        0.0020       98.0602       98.0622      48.541999       0.55406
  40    0.5894       49.5205        0.0029       98.0496       98.0525      48.532026       0.53034
  39     1.339       49.5235        0.0071       98.0043       98.0114      48.487969       0.49600
  38     1.782       49.5266        0.0096       97.9793       97.9888      48.462256       0.48953
  37     2.292       49.5314        0.0124       97.9498       97.9622      48.430736       0.52206
  36     2.964       49.5397        0.0161       97.9088       97.9249      48.385202       0.57158
  35     3.853       49.5534        0.0210       97.8503       97.8714      48.317972       0.63803
  34     5.035       49.5742        0.0276       97.7680       97.7956      48.221323       0.69042
  33     6.613       49.6034        0.0363       97.6562       97.6925      48.089053       0.70711
  32     8.786       49.6413        0.0480       97.5107       97.5587      47.917381       0.66671
  31     11.80       49.6903        0.0648       97.3179       97.3827      47.692410       0.62985
  30     15.07       49.7366        0.0828       97.1283       97.2111      47.474492       0.56262
  29     18.79       49.7835        0.1031       96.9300       97.0331      47.249635       0.50982
  28     23.16       49.8318        0.1268       96.7166       96.8433      47.011536       0.46041
  27     28.12       49.8796        0.1538       96.4935       96.6473      46.767707       0.41449
  26     33.73       49.9224        0.1841       96.2731       96.4572      46.534754       0.35025
  25     40.54       49.9618        0.2206       96.0408       96.2614      46.299615       0.29172
  24     48.69       49.9972        0.2646       95.7946       96.0592      46.061996       0.24590
  23     57.69       50.0245        0.3130       95.5573       95.8703      45.845753       0.20270
  22     68.43       50.0444        0.3706       95.3106       95.6812      45.636771       0.16429
  21     81.20       50.0509        0.4393       95.0643       95.5036      45.452721       0.12162
  20     96.49       50.0426        0.5212       94.8153       95.3364      45.293820       0.08770
  19     114.6       50.0331        0.6192       94.5411       95.1602      45.127116       0.07784
  18     136.5       50.0146        0.7353       94.2320       94.9673      44.952694       0.06707
  17     162.9       49.9859        0.8734       93.8753       94.7488      44.762806       0.06070
  16     196.4       49.9347        1.0525       93.4347       94.4871      44.552419       0.05296
  15     218.7       49.8960        1.1700       93.1513       94.3213      44.425240       0.04829
  14     243.0       49.8518        1.2976       92.8439       94.1416      44.289804       0.04697
  13     269.0       49.8017        1.4358       92.5111       93.9470      44.145232       0.04690
  12     297.5       49.7461        1.5851       92.1495       93.7346      43.988469       0.04649
  11     328.5       49.6858        1.7463       91.7554       93.5016      43.815798       0.04695
  10     361.9       49.6213        1.9196       91.3262       93.2458      43.624475       0.04841
   9     398.1       49.5531        2.1059       90.8575       92.9635      43.410365       0.04988
   8     437.6       49.4827        2.3057       90.3418       92.6475      43.164832       0.05250
   7     480.5       49.4115        2.5194       89.7728       92.2922      42.880746       0.05579
   6     533.0       49.3324        2.7818       89.0428       91.8246      42.492200       0.06250
   5     589.8       49.2635        3.0631       88.2038       91.2670      42.003451       0.07255
   4     651.6       49.2234        3.3630       87.1979       90.5609      41.337488       0.09107
   3     718.7       49.2249        3.6798       86.0161       89.6959      40.471059       0.10889
   2     792.3       49.3087        4.0099       84.5970       88.6070      39.298326       0.13450
   1     891.5       44.0652       15.3047       66.1393       81.4440      37.378823       0.16334
   0    1013.0       44.6498       15.4319       63.8774       79.3094      34.659576       0.18881



 Wavenumbers: 16000. - 22650. cm-1, ATM      1
 LEVEL PRESSURE   UPWARD FLUX   DIFDOWN FLUX  DIRDOWN FLUX  DOWNWARD FLUX   NET FLUX    HEATING RATE
          mb          W/m2          W/m2          W/m2        W/m2          W/m2       degree/day
  51    .06700      116.0280        0.0000      156.3892      156.3892      40.361206       0.00000
  50    .07753      116.0280        0.0004      156.3887      156.3890      40.361070       0.10903
  49    .09103      116.0279        0.0008      156.3879      156.3888      40.360872       0.12366
  48    0.1069      116.0278        0.0014      156.3871      156.3884      40.360607       0.14101
  47    0.1255      116.0278        0.0020      156.3861      156.3880      40.360253       0.16073
  46    0.1487      116.0277        0.0028      156.3847      156.3875      40.359730       0.19047
  45    0.1794      116.0277        0.0038      156.3828      156.3866      40.358913       0.22426
  44    0.2165      116.0278        0.0051      156.3805      156.3856      40.357805       0.25204
  43    0.2613      116.0279        0.0065      156.3776      156.3842      40.356302       0.28336
  42    0.3336      116.0282        0.0090      156.3726      156.3816      40.353444       0.33322
  41    0.4307      116.0288        0.0123      156.3657      156.3780      40.349136       0.37458
  40    0.5894      116.0303        0.0176      156.3537      156.3713      40.340920       0.43693
  39     1.339      116.0459        0.0427      156.2834      156.3262      40.280219       0.68338
  38     1.782      116.0613        0.0575      156.2324      156.2899      40.228512       0.98443
  37     2.292      116.0850        0.0746      156.1641      156.2387      40.153668       1.23961
  36     2.964      116.1251        0.0970      156.0605      156.1575      40.032428       1.52193
  35     3.853      116.1906        0.1266      155.9041      156.0307      39.840068       1.82553
  34     5.035      116.2902        0.1659      155.6774      155.8433      39.553126       2.04980
  33     6.613      116.4295        0.2184      155.3656      155.5840      39.154443       2.13136
  32     8.786      116.6108        0.2889      154.9577      155.2466      38.635813       2.01417
  31     11.80      116.8456        0.3897      154.4153      154.8050      37.959385       1.89378
  30     15.07      117.0691        0.4977      153.8804      154.3781      37.308957       1.67928
  29     18.79      117.2960        0.6195      153.3191      153.9386      36.642610       1.51081
  28     23.16      117.5313        0.7615      152.7126      153.4740      35.942764       1.35328
  27     28.12      117.7657        0.9236      152.0755      152.9991      35.233338       1.20598
  26     33.73      117.9784        1.1047      151.4409      152.5457      34.567291       1.00142
  25     40.54      118.1777        1.3234      150.7637      152.0870      33.909310       0.81630
  24     48.69      118.3622        1.5865      150.0338      151.6204      33.258225       0.67377
  23     57.69      118.5107        1.8752      149.3151      151.1903      32.679632       0.54234
  22     68.43      118.6293        2.2185      148.5476      150.7661      32.136752       0.42678
  21     81.20      118.6908        2.6270      147.7517      150.3787      31.687885       0.29660
  20     96.49      118.6899        3.1131      146.9127      150.0257      31.335806       0.19432
  19     114.6      118.6509        3.6883      145.9763      149.6646      31.013652       0.15042
  18     136.5      118.5789        4.3671      144.9088      149.2758      30.696904       0.12180
  17     162.9      118.4698        5.1711      143.6785      148.8496      30.379805       0.10136
  16     196.4      118.2778        6.2076      142.1651      148.3726      30.094808       0.07174
  15     218.7      118.1332        6.8844      141.2033      148.0877      29.954491       0.05327
  14     243.0      117.9676        7.6164      140.1753      147.7918      29.824228       0.04518
  13     269.0      117.7791        8.4057      139.0797      147.4854      29.706212       0.03828
  12     297.5      117.5671        9.2538      137.9141      147.1679      29.600775       0.03127
  11     328.5      117.3341       10.1647      136.6676      146.8323      29.498208       0.02789
  10     361.9      117.0795       11.1390      135.3392      146.4781      29.398635       0.02519
   9     398.1      116.8024       12.1802      133.9235      146.1036      29.301236       0.02269
   8     437.6      116.5030       13.2899      132.4163      145.7061      29.203137       0.02097
   7     480.5      116.1805       14.4699      130.8147      145.2846      29.104067       0.01946
   6     533.0      115.7830       15.9091      128.8599      144.7690      28.986008       0.01899
   5     589.8      115.3571       17.4444      126.7679      144.2124      28.855335       0.01940
   4     651.6      114.9067       19.0767      124.5274      143.6041      28.697406       0.02160
   3     718.7      114.4360       20.8068      122.1285      142.9352      28.499212       0.02491
   2     792.3      113.9576       22.6319      119.5548      142.1867      28.229082       0.03098
   1     891.5      107.6039       42.2397       93.1106      135.3504      27.746484       0.04107
   0    1013.0      107.1021       44.3814       89.7281      134.1095      27.007437       0.05132



 Wavenumbers: 22650. - 29000. cm-1, ATM      1
 LEVEL PRESSURE   UPWARD FLUX   DIFDOWN FLUX  DIRDOWN FLUX  DOWNWARD FLUX   NET FLUX    HEATING RATE
          mb          W/m2          W/m2          W/m2        W/m2          W/m2       degree/day
  51    .06700       48.8482        0.0000       59.0156       59.0156      10.167386       0.00000
  50    .07753       48.8481        0.0004       59.0151       59.0155      10.167386      -0.00000
  49    .09103       48.8480        0.0010       59.0144       59.0153      10.167386       0.00000
  48    0.1069       48.8478        0.0016       59.0136       59.0152      10.167386       0.00000
  47    0.1255       48.8476        0.0023       59.0127       59.0150      10.167386       0.00000
  46    0.1487       48.8473        0.0032       59.0115       59.0147      10.167386       0.00000
  45    0.1794       48.8470        0.0045       59.0099       59.0144      10.167386      -0.00000
  44    0.2165       48.8466        0.0059       59.0080       59.0140      10.167386       0.00000
  43    0.2613       48.8461        0.0077       59.0058       59.0135      10.167386      -0.00000
  42    0.3336       48.8453        0.0105       59.0022       59.0127      10.167386       0.00000
  41    0.4307       48.8442        0.0143       58.9973       59.0116      10.167386       0.00000
  40    0.5894       48.8425        0.0205       58.9894       59.0099      10.167386      -0.00000
  39     1.339       48.8343        0.0499       58.9518       59.0017      10.167386       0.00000
  38     1.782       48.8295        0.0672       58.9297       58.9969      10.167386      -0.00000
  37     2.292       48.8239        0.0872       58.9042       58.9913      10.167386       0.00000
  36     2.964       48.8166        0.1134       58.8706       58.9840      10.167386       0.00000
  35     3.853       48.8070        0.1480       58.8264       58.9744      10.167386       0.00000
  34     5.035       48.7942        0.1940       58.7676       58.9616      10.167386       0.00000
  33     6.613       48.7771        0.2554       58.6891       58.9444      10.167386      -0.00000
  32     8.786       48.7540        0.3380       58.5834       58.9214      10.167386       0.00000
  31     11.80       48.7210        0.4560       58.4324       58.8884      10.167386       0.00000
  30     15.07       48.6857        0.5824       58.2706       58.8531      10.167386      -0.00000
  29     18.79       48.6458        0.7250       58.0882       58.8132      10.167386      -0.00000
  28     23.16       48.5993        0.8910       57.8757       58.7667      10.167386       0.00000
  27     28.12       48.5462        1.0802       57.6333       58.7135      10.167386      -0.00000
  26     33.73       48.4868        1.2912       57.3631       58.6542      10.167386       0.00000
  25     40.54       48.4154        1.5449       57.0379       58.5828      10.167386       0.00000
  24     48.69       48.3295        1.8490       56.6479       58.4969      10.167386       0.00000
  23     57.69       48.2355        2.1808       56.2221       58.4029      10.167386       0.00000
  22     68.43       48.1241        2.5730       55.7186       58.2915      10.167386      -0.00000
  21     81.20       47.9922        3.0357       55.1239       58.1596      10.167386       0.00000
  20     96.49       47.8361        3.5806       54.4228       58.0034      10.167386      -0.00000
  19     114.6       47.6522        4.2186       53.6010       57.8196      10.167386       0.00000
  18     136.5       47.4366        4.9622       52.6418       57.6039      10.167386       0.00000
  17     162.9       47.1828        5.8299       51.5203       57.3502      10.167386       0.00000
  16     196.4       46.8587        6.9267       50.0994       57.0261      10.167386      -0.00000
  15     218.7       46.6488        7.6300       49.1863       56.8162      10.167386      -0.00000
  14     243.0       46.4233        8.3794       48.2113       56.5907      10.167386       0.00000
  13     269.0       46.1819        9.1743       47.1749       56.3493      10.167386       0.00000
  12     297.5       45.9244       10.0135       46.0783       56.0918      10.167386      -0.00000
  11     328.5       45.6500       10.8978       44.9195       55.8173      10.167386       0.00000
  10     361.9       45.3588       11.8244       43.7018       55.5262      10.167386       0.00000
   9     398.1       45.0503       12.7927       42.4250       55.2177      10.167386       0.00000
   8     437.6       44.7245       13.8002       41.0916       54.8918      10.167386       0.00000
   7     480.5       44.3811       14.8441       39.7045       54.5485      10.167386      -0.00000
   6     533.0       43.9666       16.0797       38.0543       54.1339      10.167386       0.00000
   5     589.8       43.5290       17.3533       36.3431       53.6964      10.167386       0.00000
   4     651.6       43.0689       18.6568       34.5795       53.2363      10.167386       0.00000
   3     718.7       42.5863       19.9835       32.7702       52.7537      10.167386      -0.00000
   2     792.3       42.0819       21.3238       30.9256       52.2493      10.167386       0.00000
   1     891.5       39.7559       26.9951       22.9282       49.9233      10.167367       0.00000
   0    1013.0       39.0695       28.4038       20.8330       49.2369      10.167367       0.00000



 Wavenumbers: 29000. - 38000. cm-1, ATM      1
 LEVEL PRESSURE   UPWARD FLUX   DIFDOWN FLUX  DIRDOWN FLUX  DOWNWARD FLUX   NET FLUX    HEATING RATE
          mb          W/m2          W/m2          W/m2        W/m2          W/m2       degree/day
  51    .06700        7.4798        0.0000       20.8114       20.8114      13.331548       0.00000
  50    .07753        7.4796        0.0003       20.8070       20.8074      13.327742       3.05020
  49    .09103        7.4794        0.0007       20.8009       20.8016      13.322208       3.45930
  48    0.1069        7.4791        0.0012       20.7928       20.7939      13.314801       3.94250
  47    0.1255        7.4788        0.0017       20.7820       20.7837      13.304901       4.48827
  46    0.1487        7.4784        0.0023       20.7665       20.7688      13.290345       5.30594
  45    0.1794        7.4779        0.0032       20.7424       20.7456      13.267691       6.21905
  44    0.2165        7.4774        0.0042       20.7103       20.7146      13.237183       6.93999
  43    0.2613        7.4767        0.0055       20.6675       20.6730      13.196209       7.72341
  42    0.3336        7.4758        0.0075       20.5880       20.5954      13.119688       8.92156
  41    0.4307        7.4745        0.0101       20.4722       20.4823      13.007798       9.72864
  40    0.5894        7.4727        0.0143       20.2637       20.2780      12.805235      10.77203
  39     1.339        7.4679        0.0322       19.0984       19.1305      11.662676      12.86314
  38     1.782        7.4673        0.0414       18.4394       18.4808      11.013527      12.35874
  37     2.292        7.4684        0.0513       17.7714       17.8227      10.354284      10.91879
  36     2.964        7.4727        0.0635       17.0421       17.1056       9.632913       9.05539
  35     3.853        7.4821        0.0788       16.2678       16.3466       8.864478       7.29259
  34     5.035        7.4983        0.0981       15.4803       15.5784       8.080037       5.60372
  33     6.613        7.5223        0.1227       14.7157       14.8384       7.316058       4.08423
  32     8.786        7.5540        0.1549       13.9936       14.1484       6.594412       2.80261
  31     11.80        7.5951        0.1996       13.2835       13.4832       5.888058       1.97757
  30     15.07        7.6343        0.2460       12.7394       12.9853       5.350979       1.38663
  29     18.79        7.6745        0.2973       12.2666       12.5639       4.889350       1.04666
  28     23.16        7.7167        0.3555       11.8300       12.1855       4.468784       0.81324
  27     28.12        7.7593        0.4206       11.4279       11.8485       4.089135       0.64538
  26     33.73        7.7974        0.4922       11.0695       11.5617       3.764336       0.48834
  25     40.54        7.8315        0.5777       10.7209       11.2986       3.467105       0.36875
  24     48.69        7.8614        0.6790       10.3742       11.0532       3.191771       0.28493
  23     57.69        7.8830        0.7884       10.0549       10.8433       2.960358       0.21691
  22     68.43        7.8959        0.9165        9.7327       10.6493       2.753394       0.16270
  21     81.20        7.8920        1.0676        9.4134       10.4810       2.588971       0.10865
  20     96.49        7.8693        1.2448        9.0887       10.3335       2.464256       0.06883
  19     114.6        7.8342        1.4490        8.7388       10.1878       2.353648       0.05165
  18     136.5        7.7887        1.6817        8.3549       10.0366       2.247948       0.04064
  17     162.9        7.7321        1.9459        7.9311        9.8771       2.144930       0.03293
  16     196.4        7.6501        2.2715        7.4333        9.7049       2.054745       0.02270
  15     218.7        7.5940        2.4754        7.1295        9.6050       2.010973       0.01662
  14     243.0        7.5330        2.6876        6.8161        9.5037       1.970712       0.01396
  13     269.0        7.4668        2.9072        6.4943        9.4016       1.934711       0.01168
  12     297.5        7.3956        3.1330        6.1657        9.2987       1.903116       0.00937
  11     328.5        7.3203        3.3639        5.8295        9.1933       1.873012       0.00819
  10     361.9        7.2413        3.5972        5.4886        9.0858       1.844531       0.00721
   9     398.1        7.1585        3.8322        5.1440        8.9762       1.817693       0.00625
   8     437.6        7.0723        4.0673        4.7969        8.8643       1.791979       0.00550
   7     480.5        6.9828        4.3002        4.4504        8.7506       1.767731       0.00476
   6     533.0        6.8767        4.5620        4.0563        8.6182       1.741502       0.00422
   5     589.8        6.7673        4.8154        3.6682        8.4836       1.716335       0.00374
   4     651.6        6.6550        5.0564        3.2905        8.3470       1.691954       0.00333
   3     718.7        6.5401        5.2832        2.9252        8.2084       1.668332       0.00297
   2     792.3        6.4230        5.4920        2.5764        8.0684       1.645480       0.00262
   1     891.5        6.0824        5.9629        1.7376        7.7005       1.618095       0.00233
   0    1013.0        5.9266        6.1094        1.4060        7.5154       1.588825       0.00203



 Wavenumbers: 38000. - 50000. cm-1, ATM      1
 LEVEL PRESSURE   UPWARD FLUX   DIFDOWN FLUX  DIRDOWN FLUX  DOWNWARD FLUX   NET FLUX    HEATING RATE
          mb          W/m2          W/m2          W/m2        W/m2          W/m2       degree/day
  51    .06700        0.0061        0.0000        1.2836        1.2836       1.277518       0.00000
  50    .07753        0.0061        0.0001        1.2812        1.2812       1.275183       1.87150
  49    .09103        0.0060        0.0002        1.2777        1.2778       1.271851       2.08247
  48    0.1069        0.0059        0.0002        1.2731        1.2734       1.267473       2.33059
  47    0.1255        0.0058        0.0004        1.2672        1.2675       1.261717       2.60908
  46    0.1487        0.0057        0.0005        1.2586        1.2591       1.253391       3.03499
  45    0.1794        0.0055        0.0007        1.2455        1.2462       1.240623       3.50520
  44    0.2165        0.0054        0.0009        1.2282        1.2291       1.223697       3.85037
  43    0.2613        0.0052        0.0011        1.2054        1.2065       1.201348       4.21261
  42    0.3336        0.0049        0.0015        1.1639        1.1654       1.160524       4.75970
  41    0.4307        0.0045        0.0020        1.1051        1.1070       1.102565       5.03943
  40    0.5894        0.0039        0.0026        1.0039        1.0064       1.002524       5.32007
  39     1.339        0.0022        0.0035        0.5438        0.5473       0.545104       5.14971
  38     1.782        0.0016        0.0032        0.3635        0.3666       0.365006       3.42879
  37     2.292        0.0012        0.0027        0.2356        0.2383       0.237058       2.11916
  36     2.964        0.0009        0.0022        0.1455        0.1477       0.146786       1.13318
  35     3.853        0.0006        0.0017        0.0858        0.0875       0.086906       0.56828
  34     5.035        0.0004        0.0013        0.0488        0.0501       0.049701       0.26578
  33     6.613        0.0003        0.0010        0.0273        0.0282       0.027974       0.11615
  32     8.786        0.0002        0.0007        0.0144        0.0151       0.014928       0.05067
  31     11.80        0.0001        0.0004        0.0065        0.0070       0.006903       0.02247
  30     15.07        0.0000        0.0003        0.0031        0.0034       0.003329       0.00923
  29     18.79        0.0000        0.0002        0.0014        0.0016       0.001583       0.00396
  28     23.16        0.0000        0.0001        0.0006        0.0007       0.000720       0.00167
  27     28.12        0.0000        0.0001        0.0003        0.0003       0.000317       0.00069
  26     33.73        0.0000        0.0000        0.0001        0.0001       0.000140       0.00027
  25     40.54        0.0000        0.0000        0.0000        0.0001       0.000057       0.00010
  24     48.69        0.0000        0.0000        0.0000        0.0000       0.000021       0.00004
  23     57.69        0.0000        0.0000        0.0000        0.0000       0.000008       0.00001
  22     68.43        0.0000        0.0000        0.0000        0.0000       0.000003       0.00000
  21     81.20        0.0000        0.0000        0.0000        0.0000       0.000001       0.00000
  20     96.49        0.0000        0.0000        0.0000        0.0000       0.000000       0.00000
  19     114.6        0.0000        0.0000        0.0000        0.0000       0.000000       0.00000
  18     136.5        0.0000        0.0000        0.0000        0.0000       0.000000       0.00000
  17     162.9        0.0000        0.0000        0.0000        0.0000       0.000000       0.00000
  16     196.4        0.0000        0.0000        0.0000        0.0000       0.000000       0.00000
  15     218.7        0.0000        0.0000        0.0000        0.0000       0.000000       0.00000
  14     243.0        0.0000        0.0000        0.0000        0.0000       0.000000       0.00000
  13     269.0        0.0000        0.0000        0.0000        0.0000       0.000000       0.00000
  12     297.5        0.0000        0.0000        0.0000        0.0000       0.000000       0.00000
  11     328.5        0.0000        0.0000        0.0000        0.0000       0.000000       0.00000
  10     361.9        0.0000        0.0000        0.0000        0.0000       0.000000       0.00000
   9     398.1        0.0000        0.0000        0.0000        0.0000       0.000000       0.00000
   8     437.6        0.0000        0.0000        0.0000        0.0000       0.000000       0.00000
   7     480.5        0.0000        0.0000        0.0000        0.0000       0.000000       0.00000
   6     533.0        0.0000        0.0000        0.0000        0.0000       0.000000       0.00000
   5     589.8        0.0000        0.0000        0.0000        0.0000       0.000000       0.00000
   4     651.6        0.0000        0.0000        0.0000        0.0000       0.000000       0.00000
   3     718.7        0.0000        0.0000        0.0000        0.0000       0.000000       0.00000
   2     792.3        0.0000        0.0000        0.0000        0.0000       0.000000       0.00000
   1     891.5        0.0000        0.0000        0.0000        0.0000       0.000000       0.00000
   0    1013.0        0.0000        0.0000        0.0000        0.0000       0.000000       0.00000



 Wavenumbers:   820. -  2600. cm-1, ATM      1
 LEVEL PRESSURE   UPWARD FLUX   DIFDOWN FLUX  DIRDOWN FLUX  DOWNWARD FLUX   NET FLUX    HEATING RATE
          mb          W/m2          W/m2          W/m2        W/m2          W/m2       degree/day
  51    .06700        0.4441        0.0000        6.0047        6.0047       5.560547       0.00000
  50    .07753        0.4441        0.0000        6.0008        6.0008       5.556694       3.08820
  49    .09103        0.4441        0.0000        5.9999        5.9999       5.555808       0.55357
  48    0.1069        0.4441        0.0000        5.9989        5.9989       5.554819       0.52651
  47    0.1255        0.4441        0.0000        5.9978        5.9978       5.553702       0.50649
  46    0.1487        0.4441        0.0000        5.9964        5.9964       5.552345       0.49456
  45    0.1794        0.4441        0.0000        5.9947        5.9947       5.550626       0.47199
  44    0.2165        0.4441        0.0000        5.9929        5.9929       5.548784       0.41909
  43    0.2613        0.4441        0.0000        5.9909        5.9909       5.546824       0.36932
  42    0.3336        0.4441        0.0000        5.9880        5.9880       5.543946       0.33555
  41    0.4307        0.4441        0.0000        5.9846        5.9846       5.540477       0.30163
  40    0.5894        0.4441        0.0000        5.9791        5.9791       5.534972       0.29275
  39     1.339        0.4441        0.0000        5.9536        5.9536       5.509486       0.28693
  38     1.782        0.4441        0.0000        5.9395        5.9395       5.495348       0.26916
  37     2.292        0.4441        0.0000        5.9237        5.9237       5.479598       0.26087
  36     2.964        0.4441        0.0000        5.9039        5.9039       5.459825       0.24821
  35     3.853        0.4441        0.0000        5.8793        5.8793       5.435170       0.23398
  34     5.035        0.4441        0.0000        5.8487        5.8487       5.404608       0.21832
  33     6.613        0.4441        0.0000        5.8108        5.8108       5.366645       0.20295
  32     8.786        0.4441        0.0000        5.7631        5.7631       5.319024       0.18494
  31     11.80        0.4441        0.0000        5.7039        5.7039       5.259770       0.16589
  30     15.07        0.4441        0.0000        5.6539        5.6539       5.209734       0.12918
  29     18.79        0.4441        0.0000        5.6127        5.6127       5.168600       0.09326
  28     23.16        0.4441        0.0000        5.5794        5.5794       5.135225       0.06454
  27     28.12        0.4442        0.0000        5.5518        5.5518       5.107659       0.04686
  26     33.73        0.4442        0.0000        5.5268        5.5268       5.082605       0.03767
  25     40.54        0.4442        0.0000        5.4993        5.4993       5.055159       0.03405
  24     48.69        0.4442        0.0000        5.4678        5.4678       5.023612       0.03265
  23     57.69        0.4442        0.0000        5.4340        5.4340       4.989816       0.03168
  22     68.43        0.4442        0.0000        5.3947        5.3948       4.950531       0.03088
  21     81.20        0.4442        0.0000        5.3497        5.3497       4.905483       0.02977
  20     96.49        0.4443        0.0000        5.2982        5.2982       4.853951       0.02844
  19     114.6        0.4443        0.0000        5.2389        5.2389       4.794605       0.02771
  18     136.5        0.4443        0.0000        5.1716        5.1717       4.727317       0.02587
  17     162.9        0.4444        0.0000        5.0890        5.0890       4.644639       0.02643
  16     196.4        0.4445        0.0000        4.9668        4.9668       4.522319       0.03079
  15     218.7        0.4446        0.0000        4.8585        4.8585       4.413853       0.04118
  14     243.0        0.4448        0.0000        4.7078        4.7079       4.263068       0.05230
  13     269.0        0.4451        0.0000        4.5343        4.5343       4.089231       0.05639
  12     297.5        0.4455        0.0000        4.3419        4.3420       3.896496       0.05716
  11     328.5        0.4460        0.0000        4.1281        4.1281       3.682107       0.05829
  10     361.9        0.4468        0.0000        3.8786        3.8787       3.431881       0.06331
   9     398.1        0.4478        0.0000        3.6159        3.6159       3.168160       0.06144
   8     437.6        0.4491        0.0000        3.3759        3.3759       2.926803       0.05160
   7     480.5        0.4507        0.0000        3.1957        3.1958       2.745098       0.03569
   6     533.0        0.4531        0.0000        3.0467        3.0467       2.593560       0.02438
   5     589.8        0.4568        0.0000        2.9023        2.9023       2.445511       0.02198
   4     651.6        0.4633        0.0000        2.7183        2.7184       2.255064       0.02604
   3     718.7        0.4745        0.0000        2.5058        2.5059       2.031345       0.02812
   2     792.3        0.4954        0.0000        2.2756        2.2757       1.780245       0.02880
   1     891.5        0.3491        0.2164        1.5745        1.7908       1.441787       0.02880
   0    1013.0        0.4224        0.1748        1.2413        1.4161       0.993668       0.03112

  Modules and versions used in this calculation:

       rrtmg_sw.1col.f90:  $Revision$                    rrtmg_sw_init.f90:  $Revision$        
     rrtmgsw_cldprop.f90:  $Revision$                  rrtmgsw_cldprmc.f90:  NOT USED          
     rrtmg_sw_reftra.f90:  $Revision$                  rrtmg_sw_spcvrt.f90:  NOT USED          
     rrtmg_sw_spcvmc.f90:  NOT USED                    rrtmgsw_setcoef.f90:  NOT USED          
     rrtmg_sw_taumol.f90:  $Revision$                  rrtmg_sw_vrtqdr.f90:  NOT USED          
                rrtatm.f:  NOT USED                             util_xxx.f:  NOT USED          
                 extra.f:  NOT USED                       rrtmg_sw_k_g.f90:  $Revision$        

