

 Wavenumbers:   820. - 50000. cm-1, ATM      1
 LEVEL PRESSURE   UPWARD FLUX   DIFDOWN FLUX  DIRDOWN FLUX  DOWNWARD FLUX   NET FLUX    HEATING RATE
          mb          W/m2          W/m2          W/m2        W/m2          W/m2       degree/day
  51    .06700      374.6238        0.0000      617.8126      617.8126     243.188768       0.00000
  50    .07753      374.6234        0.0013      617.7947      617.7960     243.172639      12.92758
  49    .09103      374.6228        0.0029      617.7778      617.7807     243.157845       9.24630
  48    0.1069      374.6223        0.0048      617.7581      617.7629     243.140606       9.17669
  47    0.1255      374.6216        0.0069      617.7340      617.7409     243.119291       9.66330
  46    0.1487      374.6209        0.0097      617.7009      617.7105     243.089649      10.80485
  45    0.1794      374.6200        0.0133      617.6521      617.6654     243.045486      12.12366
  44    0.2165      374.6189        0.0177      617.5895      617.6072     242.988258      13.01842
  43    0.2613      374.6179        0.0229      617.5089      617.5318     242.913872      14.02145
  42    0.3336      374.6164        0.0314      617.3641      617.3955     242.779029      15.72139
  41    0.4307      374.6149        0.0425      617.1591      617.2016     242.586771      16.71636
  40    0.5894      374.6132        0.0605      616.8005      616.8610     242.247780      18.02709
  39     1.339      374.6217        0.1418      614.9443      615.0861     240.464378      20.07787
  38     1.782      374.6379        0.1874      613.9670      614.1545     239.516562      18.04489
  37     2.292      374.6668        0.2393      613.0059      613.2452     238.578374      15.53884
  36     2.964      374.7201        0.3068      611.9577      612.2644     237.544293      12.98085
  35     3.853      374.8118        0.3951      610.8024      611.1975     236.385766      10.99464
  34     5.035      374.9544        0.5117      609.5327      610.0444     235.089981       9.25655
  33     6.613      375.1563        0.6664      608.1464      608.8128     233.656589       7.66292
  32     8.786      375.4187        0.8739      606.6250      607.4989     232.080220       6.12204
  31     11.80      375.7564        1.1692      604.8486      606.0178     230.261460       5.09196
  30     15.07      376.0750        1.4842      603.2440      604.7282     228.653204       4.15220
  29     18.79      376.3955        1.8385      601.6511      603.4897     227.094155       3.53484
  28     23.16      376.7246        2.2501      599.9927      602.2428     225.518154       3.04748
  27     28.12      377.0479        2.7183      598.2881      601.0064     223.958468       2.65136
  26     33.73      377.3320        3.2402      596.5951      599.8353     222.503241       2.18797
  25     40.54      377.5848        3.8683      594.7727      598.6410     221.056202       1.79521
  24     48.69      377.8018        4.6216      592.7865      597.4081     219.606308       1.50041
  23     57.69      377.9552        5.4447      590.7959      596.2406     218.285446       1.23811
  22     68.43      378.0457        6.4194      588.6191      595.0385     216.992846       1.01616
  21     81.20      378.0253        7.5744      586.2690      593.8434     215.818112       0.77625
  20     96.49      377.8823        8.9411      583.6961      592.6373     214.754979       0.58677
  19     114.6      377.6634       10.5477      580.7708      591.3185     213.655160       0.51354
  18     136.5      377.3658       12.4272      577.4359      589.8631     212.497368       0.44520
  17     162.9      376.9793       14.6306      573.5624      588.1931     211.213807       0.41028
  16     196.4      376.4036       17.4370      568.5907      586.0277     209.624126       0.40014
  15     218.7      376.0018       19.2493      565.0572      584.3065     208.304669       0.50095
  14     243.0      375.5592       21.1911      560.7495      581.9407     206.381434       0.66704
  13     269.0      375.0766       23.2634      555.3947      578.6581     203.581485       0.90829
  12     297.5      374.5585       25.4661      548.9964      574.4625     199.903987       1.09071
  11     328.5      374.0127       27.8049      542.0895      569.8944     195.881770       1.09363
  10     361.9      373.4458       30.2754      534.6242      564.8996     191.453776       1.12033
   9     398.1      372.8668       32.8811      526.4204      559.3015     186.434697       1.16933
   8     437.6      372.2947       35.6199      517.3907      553.0105     180.715860       1.22272
   7     480.5      371.7499       38.4889      507.7216      546.2105     174.460655       1.22850
   6     533.0      371.2069       41.9303      495.9006      537.8310     166.624080       1.26066
   5     589.8      370.8542       45.5316      483.0788      528.6104     157.756220       1.31628
   4     651.6      370.9576       49.2781      468.6907      517.9688     147.011200       1.46941
   3     718.7      371.8927       53.1604      453.2257      506.3861     134.493357       1.57315
   2     792.3      374.6567       57.1550      436.4928      493.6479     118.991206       1.77792
   1     891.5      144.2293      244.7633        5.0542      249.8176     105.588313       1.14052
   0    1013.0      144.9093      238.3930        4.7426      243.1357      98.226404       0.51118



 Wavenumbers:  2600. -  3250. cm-1, ATM      1
 LEVEL PRESSURE   UPWARD FLUX   DIFDOWN FLUX  DIRDOWN FLUX  DOWNWARD FLUX   NET FLUX    HEATING RATE
          mb          W/m2          W/m2          W/m2        W/m2          W/m2       degree/day
  51    .06700        1.5880        0.0000        5.4450        5.4450       3.857062       0.00000
  50    .07753        1.5880        0.0000        5.4450        5.4450       3.857054       0.00640
  49    .09103        1.5880        0.0000        5.4450        5.4450       3.857044       0.00627
  48    0.1069        1.5880        0.0000        5.4450        5.4450       3.857032       0.00613
  47    0.1255        1.5880        0.0000        5.4450        5.4450       3.857019       0.00599
  46    0.1487        1.5880        0.0000        5.4450        5.4450       3.857002       0.00608
  45    0.1794        1.5880        0.0000        5.4450        5.4450       3.856979       0.00625
  44    0.2165        1.5880        0.0000        5.4449        5.4449       3.856952       0.00612
  43    0.2613        1.5880        0.0000        5.4449        5.4449       3.856921       0.00600
  42    0.3336        1.5880        0.0000        5.4448        5.4448       3.856868       0.00617
  41    0.4307        1.5880        0.0000        5.4448        5.4448       3.856796       0.00620
  40    0.5894        1.5880        0.0000        5.4446        5.4446       3.856677       0.00637
  39     1.339        1.5880        0.0000        5.4439        5.4439       3.855969       0.00797
  38     1.782        1.5880        0.0000        5.4434        5.4434       3.855426       0.01034
  37     2.292        1.5880        0.0000        5.4427        5.4427       3.854710       0.01186
  36     2.964        1.5880        0.0000        5.4416        5.4416       3.853672       0.01304
  35     3.853        1.5880        0.0000        5.4402        5.4402       3.852194       0.01402
  34     5.035        1.5880        0.0000        5.4381        5.4381       3.850138       0.01469
  33     6.613        1.5880        0.0000        5.4353        5.4353       3.847357       0.01487
  32     8.786        1.5880        0.0000        5.4317        5.4317       3.843724       0.01411
  31     11.80        1.5880        0.0000        5.4269        5.4269       3.838942       0.01339
  30     15.07        1.5880        0.0000        5.4224        5.4224       3.834414       0.01169
  29     18.79        1.5880        0.0000        5.4180        5.4180       3.829999       0.01001
  28     23.16        1.5880        0.0000        5.4135        5.4135       3.825508       0.00868
  27     28.12        1.5880        0.0000        5.4088        5.4088       3.820854       0.00791
  26     33.73        1.5880        0.0000        5.4036        5.4036       3.815604       0.00789
  25     40.54        1.5880        0.0000        5.3966        5.3967       3.808647       0.00863
  24     48.69        1.5880        0.0000        5.3872        5.3872       3.799148       0.00983
  23     57.69        1.5881        0.0000        5.3754        5.3754       3.787333       0.01108
  22     68.43        1.5881        0.0000        5.3599        5.3599       3.771800       0.01221
  21     81.20        1.5882        0.0000        5.3401        5.3401       3.751902       0.01315
  20     96.49        1.5883        0.0000        5.3155        5.3155       3.727244       0.01361
  19     114.6        1.5884        0.0001        5.2853        5.2854       3.696921       0.01416
  18     136.5        1.5886        0.0001        5.2504        5.2505       3.661836       0.01349
  17     162.9        1.5889        0.0001        5.2111        5.2112       3.622236       0.01266
  16     196.4        1.5894        0.0001        5.1640        5.1641       3.574717       0.01196
  15     218.7        1.5899        0.0001        5.1331        5.1332       3.543321       0.01192
  14     243.0        1.5907        0.0001        5.0962        5.0963       3.505641       0.01307
  13     269.0        1.5919        0.0001        5.0511        5.0512       3.459295       0.01503
  12     297.5        1.5938        0.0001        4.9956        4.9957       3.401950       0.01701
  11     328.5        1.5964        0.0001        4.9304        4.9305       3.334111       0.01844
  10     361.9        1.6000        0.0001        4.8511        4.8512       3.251246       0.02097
   9     398.1        1.6050        0.0002        4.7507        4.7508       3.145856       0.02455
   8     437.6        1.6119        0.0002        4.6220        4.6222       3.010278       0.02899
   7     480.5        1.6216        0.0002        4.4625        4.4627       2.841076       0.03323
   6     533.0        1.6374        0.0002        4.2460        4.2462       2.608864       0.03736
   5     589.8        1.6616        0.0002        3.9954        3.9956       2.334047       0.04079
   4     651.6        1.7017        0.0002        3.7089        3.7091       2.007330       0.04468
   3     718.7        1.7687        0.0002        3.4018        3.4020       1.633341       0.04700
   2     792.3        1.8918        0.0002        3.0564        3.0566       1.164824       0.05373
   1     891.5        0.1731        0.9148        0.0315        0.9463       0.773177       0.03333
   0    1013.0        0.1990        0.7626        0.0255        0.7881       0.589134       0.01278



 Wavenumbers:  3250. -  4000. cm-1, ATM      1
 LEVEL PRESSURE   UPWARD FLUX   DIFDOWN FLUX  DIRDOWN FLUX  DOWNWARD FLUX   NET FLUX    HEATING RATE
          mb          W/m2          W/m2          W/m2        W/m2          W/m2       degree/day
  51    .06700        0.0475        0.0000        9.1795        9.1795       9.131992       0.00000
  50    .07753        0.0475        0.0000        9.1747        9.1747       9.127150       3.88148
  49    .09103        0.0475        0.0000        9.1713        9.1713       9.123762       2.11747
  48    0.1069        0.0475        0.0000        9.1688        9.1688       9.121237       1.34402
  47    0.1255        0.0475        0.0000        9.1665        9.1665       9.118978       1.02422
  46    0.1487        0.0475        0.0000        9.1641        9.1641       9.116536       0.88991
  45    0.1794        0.0475        0.0000        9.1612        9.1612       9.113658       0.79008
  44    0.2165        0.0475        0.0000        9.1583        9.1583       9.110738       0.66430
  43    0.2613        0.0475        0.0000        9.1553        9.1553       9.107765       0.56041
  42    0.3336        0.0475        0.0000        9.1511        9.1511       9.103586       0.48723
  41    0.4307        0.0475        0.0000        9.1464        9.1464       9.098818       0.41459
  40    0.5894        0.0475        0.0000        9.1393        9.1394       9.091812       0.37255
  39     1.339        0.0475        0.0000        9.1127        9.1127       9.065199       0.29962
  38     1.782        0.0475        0.0000        9.1011        9.1011       9.053610       0.22062
  37     2.292        0.0475        0.0000        9.0901        9.0901       9.042544       0.18329
  36     2.964        0.0475        0.0000        9.0776        9.0776       9.030114       0.15603
  35     3.853        0.0475        0.0000        9.0629        9.0629       9.015324       0.14036
  34     5.035        0.0475        0.0000        9.0441        9.0441       8.996585       0.13386
  33     6.613        0.0475        0.0000        9.0191        9.0191       8.971583       0.13366
  32     8.786        0.0475        0.0000        8.9843        8.9843       8.936800       0.13509
  31     11.80        0.0475        0.0000        8.9327        8.9327       8.885183       0.14451
  30     15.07        0.0475        0.0000        8.8758        8.8759       8.828338       0.14676
  29     18.79        0.0475        0.0000        8.8110        8.8110       8.763511       0.14698
  28     23.16        0.0475        0.0000        8.7365        8.7366       8.689066       0.14395
  27     28.12        0.0475        0.0000        8.6554        8.6555       8.607953       0.13789
  26     33.73        0.0475        0.0000        8.5719        8.5719       8.524453       0.12554
  25     40.54        0.0475        0.0001        8.4812        8.4812       8.433730       0.11255
  24     48.69        0.0475        0.0001        8.3838        8.3839       8.336428       0.10069
  23     57.69        0.0475        0.0001        8.2861        8.2862       8.238693       0.09161
  22     68.43        0.0474        0.0001        8.1751        8.1751       8.127696       0.08726
  21     81.20        0.0474        0.0001        8.0457        8.0458       7.998338       0.08548
  20     96.49        0.0474        0.0001        7.8949        7.8951       7.847634       0.08318
  19     114.6        0.0474        0.0001        7.7162        7.7163       7.668925       0.08344
  18     136.5        0.0474        0.0002        7.5193        7.5195       7.472080       0.07569
  17     162.9        0.0473        0.0002        7.2913        7.2915       7.244188       0.07284
  16     196.4        0.0473        0.0002        6.9660        6.9662       6.918912       0.08188
  15     218.7        0.0473        0.0002        6.6648        6.6650       6.617715       0.11435
  14     243.0        0.0473        0.0002        6.2619        6.2622       6.214900       0.13971
  13     269.0        0.0473        0.0003        5.7576        5.7579       5.710553       0.16361
  12     297.5        0.0474        0.0003        5.1719        5.1722       5.124759       0.17374
  11     328.5        0.0476        0.0002        4.5757        4.5760       4.528420       0.16214
  10     361.9        0.0478        0.0002        3.9995        3.9998       3.951947       0.14585
   9     398.1        0.0483        0.0002        3.4655        3.4657       3.417403       0.12454
   8     437.6        0.0491        0.0002        2.9740        2.9743       2.925144       0.10525
   7     480.5        0.0504        0.0002        2.5307        2.5309       2.480458       0.08733
   6     533.0        0.0529        0.0002        2.0614        2.0616       2.008628       0.07590
   5     589.8        0.0576        0.0002        1.6150        1.6151       1.557569       0.06695
   4     651.6        0.0672        0.0001        1.1565        1.1566       1.089352       0.06403
   3     718.7        0.0886        0.0001        0.7390        0.7391       0.650536       0.05515
   2     792.3        0.1455        0.0001        0.3985        0.3985       0.253062       0.04559
   1     891.5        0.0001        0.0314        0.0014        0.0328       0.032739       0.01875
   0    1013.0        0.0009        0.0033        0.0001        0.0034       0.002522       0.00210



 Wavenumbers:  4000. -  4650. cm-1, ATM      1
 LEVEL PRESSURE   UPWARD FLUX   DIFDOWN FLUX  DIRDOWN FLUX  DOWNWARD FLUX   NET FLUX    HEATING RATE
          mb          W/m2          W/m2          W/m2        W/m2          W/m2       degree/day
  51    .06700        5.1724        0.0000       10.7795       10.7795       5.607134       0.00000
  50    .07753        5.1724        0.0000       10.7795       10.7795       5.607133       0.00080
  49    .09103        5.1724        0.0000       10.7795       10.7795       5.607132       0.00078
  48    0.1069        5.1724        0.0000       10.7795       10.7795       5.607131       0.00077
  47    0.1255        5.1724        0.0000       10.7795       10.7795       5.607129       0.00075
  46    0.1487        5.1724        0.0000       10.7795       10.7795       5.607127       0.00076
  45    0.1794        5.1724        0.0000       10.7795       10.7795       5.607124       0.00078
  44    0.2165        5.1724        0.0000       10.7795       10.7795       5.607121       0.00076
  43    0.2613        5.1724        0.0000       10.7795       10.7795       5.607117       0.00075
  42    0.3336        5.1724        0.0000       10.7795       10.7795       5.607110       0.00077
  41    0.4307        5.1724        0.0000       10.7795       10.7795       5.607101       0.00077
  40    0.5894        5.1724        0.0000       10.7795       10.7795       5.607086       0.00080
  39     1.339        5.1724        0.0000       10.7794       10.7794       5.606997       0.00101
  38     1.782        5.1724        0.0000       10.7793       10.7793       5.606927       0.00133
  37     2.292        5.1724        0.0000       10.7792       10.7792       5.606833       0.00156
  36     2.964        5.1724        0.0000       10.7791       10.7791       5.606692       0.00176
  35     3.853        5.1724        0.0000       10.7789       10.7789       5.606484       0.00198
  34     5.035        5.1724        0.0000       10.7786       10.7786       5.606176       0.00220
  33     6.613        5.1724        0.0000       10.7781       10.7781       5.605724       0.00242
  32     8.786        5.1724        0.0000       10.7774       10.7774       5.605055       0.00260
  31     11.80        5.1724        0.0001       10.7763       10.7764       5.604005       0.00294
  30     15.07        5.1724        0.0001       10.7751       10.7752       5.602772       0.00318
  29     18.79        5.1724        0.0001       10.7736       10.7737       5.601281       0.00338
  28     23.16        5.1724        0.0001       10.7717       10.7718       5.599428       0.00358
  27     28.12        5.1724        0.0001       10.7695       10.7696       5.597184       0.00381
  26     33.73        5.1724        0.0002       10.7667       10.7668       5.594415       0.00416
  25     40.54        5.1724        0.0002       10.7629       10.7631       5.590657       0.00466
  24     48.69        5.1725        0.0002       10.7579       10.7581       5.585645       0.00519
  23     57.69        5.1726        0.0003       10.7520       10.7523       5.579698       0.00557
  22     68.43        5.1727        0.0003       10.7446       10.7449       5.572237       0.00587
  21     81.20        5.1729        0.0004       10.7355       10.7359       5.563037       0.00608
  20     96.49        5.1731        0.0004       10.7245       10.7249       5.551826       0.00619
  19     114.6        5.1735        0.0005       10.7107       10.7112       5.537785       0.00656
  18     136.5        5.1740        0.0006       10.6942       10.6948       5.520837       0.00652
  17     162.9        5.1748        0.0008       10.6740       10.6748       5.500013       0.00666
  16     196.4        5.1761        0.0009       10.6464       10.6473       5.471202       0.00725
  15     218.7        5.1772        0.0010       10.6255       10.6265       5.449231       0.00834
  14     243.0        5.1789        0.0011       10.5980       10.5992       5.420227       0.01006
  13     269.0        5.1815        0.0012       10.5611       10.5623       5.380853       0.01277
  12     297.5        5.1852        0.0014       10.5119       10.5133       5.328124       0.01564
  11     328.5        5.1903        0.0015       10.4499       10.4514       5.261098       0.01822
  10     361.9        5.1970        0.0016       10.3702       10.3718       5.174857       0.02182
   9     398.1        5.2054        0.0018       10.2678       10.2696       5.064187       0.02578
   8     437.6        5.2162        0.0020       10.1390       10.1409       4.924771       0.02981
   7     480.5        5.2300        0.0021        9.9877        9.9898       4.759779       0.03240
   6     533.0        5.2515        0.0023        9.7937        9.7960       4.544520       0.03463
   5     589.8        5.2827        0.0025        9.5752        9.5777       4.295028       0.03703
   4     651.6        5.3333        0.0027        9.2958        9.2985       3.965253       0.04510
   3     718.7        5.4191        0.0029        8.9267        8.9296       3.510518       0.05715
   2     792.3        5.5825        0.0031        8.4542        8.4573       2.874764       0.07291
   1     891.5        0.6526        2.8839        0.0952        2.9791       2.326481       0.04666
   0    1013.0        0.6934        2.6606        0.0864        2.7470       2.053639       0.01894



 Wavenumbers:  4650. -  5150. cm-1, ATM      1
 LEVEL PRESSURE   UPWARD FLUX   DIFDOWN FLUX  DIRDOWN FLUX  DOWNWARD FLUX   NET FLUX    HEATING RATE
          mb          W/m2          W/m2          W/m2        W/m2          W/m2       degree/day
  51    .06700        3.7355        0.0000       10.2033       10.2033       6.467809       0.00000
  50    .07753        3.7355        0.0000       10.2031       10.2031       6.467573       0.18901
  49    .09103        3.7355        0.0000       10.2028       10.2028       6.467278       0.18428
  48    0.1069        3.7355        0.0000       10.2025       10.2025       6.466941       0.17931
  47    0.1255        3.7355        0.0000       10.2021       10.2021       6.466557       0.17426
  46    0.1487        3.7355        0.0000       10.2016       10.2016       6.466076       0.17536
  45    0.1794        3.7355        0.0000       10.2010       10.2010       6.465426       0.17850
  44    0.2165        3.7355        0.0000       10.2002       10.2002       6.464666       0.17277
  43    0.2613        3.7355        0.0000       10.1993       10.1993       6.463781       0.16690
  42    0.3336        3.7355        0.0000       10.1979       10.1979       6.462348       0.16702
  41    0.4307        3.7355        0.0000       10.1960       10.1960       6.460508       0.16002
  40    0.5894        3.7355        0.0000       10.1932       10.1932       6.457634       0.15283
  39     1.339        3.7355        0.0000       10.1816       10.1816       6.446042       0.13050
  38     1.782        3.7355        0.0000       10.1760       10.1760       6.440513       0.10527
  37     2.292        3.7355        0.0000       10.1706       10.1706       6.435056       0.09038
  36     2.964        3.7355        0.0000       10.1646       10.1647       6.429132       0.07436
  35     3.853        3.7355        0.0000       10.1584       10.1584       6.422916       0.05899
  34     5.035        3.7355        0.0000       10.1521       10.1521       6.416578       0.04528
  33     6.613        3.7355        0.0000       10.1456       10.1456       6.410116       0.03454
  32     8.786        3.7355        0.0001       10.1386       10.1386       6.403098       0.02726
  31     11.80        3.7355        0.0001       10.1295       10.1296       6.394043       0.02535
  30     15.07        3.7356        0.0001       10.1196       10.1197       6.384144       0.02556
  29     18.79        3.7356        0.0001       10.1076       10.1077       6.372109       0.02729
  28     23.16        3.7356        0.0002       10.0923       10.0924       6.356764       0.02967
  27     28.12        3.7357        0.0002       10.0731       10.0733       6.337615       0.03255
  26     33.73        3.7358        0.0002       10.0500       10.0503       6.314446       0.03483
  25     40.54        3.7360        0.0003       10.0201       10.0204       6.284437       0.03723
  24     48.69        3.7362        0.0003        9.9820        9.9823       6.246114       0.03966
  23     57.69        3.7364        0.0004        9.9384        9.9388       6.202381       0.04099
  22     68.43        3.7368        0.0005        9.8858        9.8862       6.149379       0.04167
  21     81.20        3.7374        0.0005        9.8234        9.8240       6.086613       0.04147
  20     96.49        3.7381        0.0006        9.7518        9.7524       6.014276       0.03992
  19     114.6        3.7392        0.0008        9.6719        9.6727       5.933509       0.03771
  18     136.5        3.7406        0.0009        9.5858        9.5867       5.846081       0.03362
  17     162.9        3.7426        0.0011        9.4940        9.4951       5.752475       0.02992
  16     196.4        3.7457        0.0013        9.3883        9.3895       5.643818       0.02735
  15     218.7        3.7482        0.0014        9.3229        9.3243       5.576152       0.02569
  14     243.0        3.7513        0.0015        9.2520        9.2535       5.502192       0.02565
  13     269.0        3.7556        0.0017        9.1717        9.1734       5.417785       0.02738
  12     297.5        3.7615        0.0019        9.0763        9.0781       5.316639       0.03000
  11     328.5        3.7692        0.0020        8.9650        8.9670       5.197775       0.03232
  10     361.9        3.7792        0.0022        8.8349        8.8371       5.057927       0.03538
   9     398.1        3.7922        0.0024        8.6820        8.6844       4.892244       0.03860
   8     437.6        3.8091        0.0026        8.5028        8.5054       4.696332       0.04189
   7     480.5        3.8311        0.0028        8.2948        8.2976       4.466537       0.04513
   6     533.0        3.8647        0.0030        8.0209        8.0239       4.159198       0.04944
   5     589.8        3.9116        0.0033        7.7063        7.7096       3.797966       0.05362
   4     651.6        3.9813        0.0035        7.3412        7.3447       3.363429       0.05942
   3     718.7        4.0872        0.0037        6.9387        6.9423       2.855170       0.06387
   2     792.3        4.2576        0.0038        6.5066        6.5104       2.252809       0.06908
   1     891.5        0.4778        2.1757        0.0725        2.2481       1.770338       0.04106
   0    1013.0        0.5157        1.9785        0.0647        2.0432       1.527455       0.01686



 Wavenumbers:  5150. -  6150. cm-1, ATM      1
 LEVEL PRESSURE   UPWARD FLUX   DIFDOWN FLUX  DIRDOWN FLUX  DOWNWARD FLUX   NET FLUX    HEATING RATE
          mb          W/m2          W/m2          W/m2        W/m2          W/m2       degree/day
  51    .06700        8.8635        0.0000       25.5798       25.5798      16.716284       0.00000
  50    .07753        8.8635        0.0000       25.5798       25.5798      16.716244       0.03161
  49    .09103        8.8635        0.0000       25.5797       25.5797      16.716193       0.03209
  48    0.1069        8.8635        0.0000       25.5797       25.5797      16.716132       0.03260
  47    0.1255        8.8635        0.0000       25.5796       25.5796      16.716059       0.03310
  46    0.1487        8.8635        0.0000       25.5795       25.5795      16.715963       0.03487
  45    0.1794        8.8635        0.0000       25.5794       25.5794      16.715828       0.03712
  44    0.2165        8.8635        0.0000       25.5792       25.5792      16.715662       0.03768
  43    0.2613        8.8635        0.0000       25.5790       25.5790      16.715459       0.03826
  42    0.3336        8.8635        0.0000       25.5786       25.5786      16.715112       0.04042
  41    0.4307        8.8635        0.0000       25.5782       25.5782      16.714641       0.04096
  40    0.5894        8.8635        0.0000       25.5774       25.5774      16.713852       0.04197
  39     1.339        8.8635        0.0000       25.5735       25.5736      16.710049       0.04281
  38     1.782        8.8635        0.0001       25.5713       25.5714      16.707835       0.04216
  37     2.292        8.8635        0.0001       25.5688       25.5688      16.705328       0.04151
  36     2.964        8.8635        0.0001       25.5656       25.5657      16.702143       0.03998
  35     3.853        8.8635        0.0001       25.5615       25.5616      16.698095       0.03842
  34     5.035        8.8635        0.0002       25.5562       25.5564      16.692881       0.03725
  33     6.613        8.8635        0.0002       25.5494       25.5496      16.686116       0.03617
  32     8.786        8.8635        0.0003       25.5406       25.5409      16.677347       0.03406
  31     11.80        8.8635        0.0004       25.5287       25.5290      16.665484       0.03321
  30     15.07        8.8636        0.0005       25.5167       25.5172      16.653584       0.03072
  29     18.79        8.8636        0.0006       25.5042       25.5047      16.641137       0.02822
  28     23.16        8.8637        0.0007       25.4907       25.4914      16.627724       0.02594
  27     28.12        8.8637        0.0009       25.4764       25.4773      16.613573       0.02406
  26     33.73        8.8638        0.0010       25.4620       25.4630      16.599220       0.02158
  25     40.54        8.8640        0.0012       25.4463       25.4475      16.583504       0.01950
  24     48.69        8.8642        0.0015       25.4294       25.4309      16.566648       0.01744
  23     57.69        8.8645        0.0018       25.4126       25.4144      16.549884       0.01571
  22     68.43        8.8649        0.0021       25.3944       25.3965      16.531651       0.01433
  21     81.20        8.8653        0.0025       25.3744       25.3769      16.511557       0.01328
  20     96.49        8.8659        0.0029       25.3519       25.3549      16.488944       0.01248
  19     114.6        8.8667        0.0035       25.3262       25.3297      16.462984       0.01212
  18     136.5        8.8676        0.0041       25.2962       25.3003      16.432742       0.01163
  17     162.9        8.8687        0.0049       25.2521       25.2570      16.388274       0.01421
  16     196.4        8.8703        0.0059       25.1593       25.1652      16.294875       0.02351
  15     218.7        8.8715        0.0066       25.0159       25.0225      16.150990       0.05463
  14     243.0        8.8730        0.0072       24.7089       24.7161      15.843188       0.10676
  13     269.0        8.8748        0.0079       24.1619       24.1697      15.294895       0.17786
  12     297.5        8.8774        0.0085       23.4544       23.4629      14.585475       0.21041
  11     328.5        8.8808        0.0092       22.7355       22.7446      13.863799       0.19622
  10     361.9        8.8854        0.0098       21.9224       21.9323      13.046871       0.20669
   9     398.1        8.8915        0.0105       20.9939       21.0044      12.112843       0.21761
   8     437.6        8.9001        0.0111       19.9833       19.9944      11.094274       0.21778
   7     480.5        8.9121        0.0117       18.9483       18.9600      10.047882       0.20551
   6     533.0        8.9324        0.0123       17.7796       17.7919       8.859487       0.19117
   5     589.8        8.9656        0.0130       16.6726       16.6856       7.720024       0.16913
   4     651.6        9.0264        0.0137       15.6343       15.6480       6.621612       0.15021
   3     718.7        9.1383        0.0145       14.7738       14.7882       5.649932       0.12211
   2     792.3        9.3630        0.0153       14.0291       14.0444       4.681408       0.11108
   1     891.5        1.1448        4.8883        0.1597        5.0480       3.903137       0.06623
   0    1013.0        1.1918        4.5751        0.1470        4.7221       3.530274       0.02589



 Wavenumbers:  6150. -  7700. cm-1, ATM      1
 LEVEL PRESSURE   UPWARD FLUX   DIFDOWN FLUX  DIRDOWN FLUX  DOWNWARD FLUX   NET FLUX    HEATING RATE
          mb          W/m2          W/m2          W/m2        W/m2          W/m2       degree/day
  51    .06700       14.1783        0.0000       47.3109       47.3109      33.132534       0.00000
  50    .07753       14.1783        0.0000       47.3108       47.3108      33.132478       0.04553
  49    .09103       14.1783        0.0000       47.3107       47.3107      33.132404       0.04583
  48    0.1069       14.1783        0.0000       47.3106       47.3106      33.132318       0.04614
  47    0.1255       14.1783        0.0000       47.3105       47.3105      33.132215       0.04645
  46    0.1487       14.1783        0.0000       47.3104       47.3104      33.132082       0.04852
  45    0.1794       14.1783        0.0000       47.3102       47.3102      33.131895       0.05127
  44    0.2165       14.1783        0.0000       47.3100       47.3100      33.131668       0.05167
  43    0.2613       14.1783        0.0000       47.3097       47.3097      33.131392       0.05210
  42    0.3336       14.1783        0.0000       47.3092       47.3092      33.130923       0.05471
  41    0.4307       14.1783        0.0000       47.3085       47.3086      33.130288       0.05521
  40    0.5894       14.1783        0.0001       47.3074       47.3075      33.129228       0.05633
  39     1.339       14.1782        0.0002       47.3022       47.3024      33.124136       0.05733
  38     1.782       14.1782        0.0002       47.2991       47.2993      33.121166       0.05655
  37     2.292       14.1781        0.0003       47.2956       47.2959      33.117790       0.05591
  36     2.964       14.1781        0.0004       47.2912       47.2916      33.113472       0.05421
  35     3.853       14.1780        0.0005       47.2855       47.2859      33.107937       0.05252
  34     5.035       14.1779        0.0006       47.2780       47.2787      33.100757       0.05129
  33     6.613       14.1778        0.0008       47.2683       47.2692      33.091369       0.05019
  32     8.786       14.1776        0.0011       47.2556       47.2567      33.079069       0.04777
  31     11.80       14.1774        0.0015       47.2380       47.2395      33.062165       0.04733
  30     15.07       14.1771        0.0019       47.2201       47.2220      33.044878       0.04463
  29     18.79       14.1768        0.0024       47.2008       47.2032      33.026398       0.04190
  28     23.16       14.1764        0.0029       47.1795       47.1824      33.006007       0.03943
  27     28.12       14.1760        0.0035       47.1565       47.1600      32.984012       0.03739
  26     33.73       14.1756        0.0042       47.1324       47.1367      32.961090       0.03446
  25     40.54       14.1750        0.0051       47.1054       47.1105      32.935452       0.03181
  24     48.69       14.1743        0.0061       47.0754       47.0815      32.907196       0.02924
  23     57.69       14.1736        0.0072       47.0449       47.0522      32.878572       0.02683
  22     68.43       14.1727        0.0086       47.0110       47.0196      32.846832       0.02495
  21     81.20       14.1717        0.0102       46.9729       46.9830      32.811334       0.02346
  20     96.49       14.1705        0.0121       46.9294       46.9415      32.770987       0.02227
  19     114.6       14.1690        0.0144       46.8790       46.8934      32.724345       0.02178
  18     136.5       14.1673        0.0171       46.8200       46.8370      32.669710       0.02101
  17     162.9       14.1653        0.0203       46.7361       46.7564      32.591068       0.02514
  16     196.4       14.1628        0.0244       46.5703       46.5946      32.431818       0.04009
  15     218.7       14.1614        0.0270       46.3473       46.3743      32.212991       0.08308
  14     243.0       14.1601        0.0298       45.9299       45.9597      31.799622       0.14337
  13     269.0       14.1594        0.0326       45.1708       45.2034      31.044032       0.24511
  12     297.5       14.1599        0.0354       44.0115       44.0468      29.886924       0.34319
  11     328.5       14.1621        0.0382       42.7242       42.7624      28.600277       0.34984
  10     361.9       14.1668        0.0410       41.3539       41.3949      27.228116       0.34717
   9     398.1       14.1754        0.0437       39.7953       39.8390      25.663574       0.36450
   8     437.6       14.1905        0.0463       37.9948       38.0411      23.850641       0.38762
   7     480.5       14.2149        0.0488       36.0647       36.1135      21.898646       0.38336
   6     533.0       14.2612        0.0514       33.7773       33.8287      19.567477       0.37501
   5     589.8       14.3427        0.0538       31.4082       31.4620      17.119327       0.36339
   4     651.6       14.5005        0.0557       28.8834       28.9391      14.438550       0.36660
   3     718.7       14.8032        0.0574       26.4104       26.4677      11.664590       0.34861
   2     792.3       15.4465        0.0587       24.0056       24.0643       8.617829       0.34943
   1     891.5        1.7063        7.8060        0.2592        8.0652       6.358879       0.19223
   0    1013.0        1.8283        7.0162        0.2272        7.2435       5.415185       0.06553



 Wavenumbers:  7700. -  8050. cm-1, ATM      1
 LEVEL PRESSURE   UPWARD FLUX   DIFDOWN FLUX  DIRDOWN FLUX  DOWNWARD FLUX   NET FLUX    HEATING RATE
          mb          W/m2          W/m2          W/m2        W/m2          W/m2       degree/day
  51    .06700        6.5400        0.0000       11.1810       11.1810       4.640956       0.00000
  50    .07753        6.5400        0.0000       11.1809       11.1809       4.640934       0.01793
  49    .09103        6.5400        0.0000       11.1809       11.1809       4.640906       0.01757
  48    0.1069        6.5400        0.0000       11.1809       11.1809       4.640873       0.01720
  47    0.1255        6.5400        0.0000       11.1809       11.1809       4.640836       0.01683
  46    0.1487        6.5400        0.0000       11.1808       11.1808       4.640789       0.01708
  45    0.1794        6.5401        0.0000       11.1808       11.1808       4.640725       0.01758
  44    0.2165        6.5401        0.0000       11.1807       11.1807       4.640649       0.01724
  43    0.2613        6.5401        0.0000       11.1806       11.1806       4.640560       0.01692
  42    0.3336        6.5401        0.0000       11.1805       11.1805       4.640411       0.01731
  41    0.4307        6.5402        0.0000       11.1803       11.1804       4.640214       0.01712
  40    0.5894        6.5402        0.0000       11.1801       11.1801       4.639893       0.01710
  39     1.339        6.5405        0.0001       11.1788       11.1789       4.638371       0.01713
  38     1.782        6.5407        0.0001       11.1781       11.1782       4.637477       0.01702
  37     2.292        6.5409        0.0001       11.1772       11.1773       4.636442       0.01714
  36     2.964        6.5412        0.0002       11.1761       11.1762       4.635084       0.01705
  35     3.853        6.5415        0.0002       11.1746       11.1748       4.633289       0.01703
  34     5.035        6.5420        0.0003       11.1726       11.1729       4.630905       0.01703
  33     6.613        6.5426        0.0004       11.1700       11.1703       4.627721       0.01702
  32     8.786        6.5435        0.0005       11.1664       11.1669       4.623431       0.01666
  31     11.80        6.5447        0.0007       11.1613       11.1620       4.617297       0.01717
  30     15.07        6.5460        0.0009       11.1558       11.1567       4.610716       0.01699
  29     18.79        6.5475        0.0011       11.1497       11.1507       4.603288       0.01684
  28     23.16        6.5492        0.0013       11.1425       11.1438       4.594623       0.01676
  27     28.12        6.5512        0.0016       11.1343       11.1359       4.584727       0.01682
  26     33.73        6.5534        0.0019       11.1252       11.1271       4.573672       0.01662
  25     40.54        6.5561        0.0023       11.1142       11.1165       4.560344       0.01654
  24     48.69        6.5594        0.0027       11.1010       11.1038       4.544317       0.01658
  23     57.69        6.5631        0.0032       11.0866       11.0898       4.526768       0.01645
  22     68.43        6.5674        0.0038       11.0695       11.0734       4.505943       0.01637
  21     81.20        6.5727        0.0046       11.0494       11.0539       4.481241       0.01632
  20     96.49        6.5790        0.0054       11.0255       11.0310       4.451961       0.01616
  19     114.6        6.5866        0.0064       10.9975       11.0040       4.417409       0.01613
  18     136.5        6.5956        0.0076       10.9648       10.9724       4.376748       0.01564
  17     162.9        6.6066        0.0090       10.9263       10.9353       4.328717       0.01535
  16     196.4        6.6211        0.0109       10.8773       10.8882       4.267019       0.01553
  15     218.7        6.6308        0.0121       10.8455       10.8576       4.226806       0.01527
  14     243.0        6.6415        0.0134       10.8114       10.8249       4.183304       0.01509
  13     269.0        6.6534        0.0148       10.7749       10.7897       4.136321       0.01524
  12     297.5        6.6665        0.0164       10.7357       10.7521       4.085596       0.01504
  11     328.5        6.6810        0.0180       10.6937       10.7118       4.030773       0.01491
  10     361.9        6.6971        0.0198       10.6489       10.6687       3.971581       0.01498
   9     398.1        6.7150        0.0217       10.6008       10.6225       3.907458       0.01494
   8     437.6        6.7351        0.0238       10.5491       10.5728       3.837706       0.01491
   7     480.5        6.7577        0.0260       10.4934       10.5194       3.761664       0.01493
   6     533.0        6.7873        0.0287       10.4243       10.4530       3.665705       0.01544
   5     589.8        6.8217        0.0316       10.3479       10.3795       3.557766       0.01602
   4     651.6        6.8632        0.0347       10.2613       10.2960       3.432896       0.01708
   3     718.7        6.9141        0.0380       10.1618       10.1998       3.285709       0.01850
   2     792.3        6.9790        0.0415       10.0439       10.0854       3.106398       0.02056
   1     891.5        0.9392        3.7653        0.1205        3.8858       2.946576       0.01360
   0    1013.0        0.9587        3.6815        0.1174        3.7989       2.840105       0.00739



 Wavenumbers:  8050. - 12850. cm-1, ATM      1
 LEVEL PRESSURE   UPWARD FLUX   DIFDOWN FLUX  DIRDOWN FLUX  DOWNWARD FLUX   NET FLUX    HEATING RATE
          mb          W/m2          W/m2          W/m2        W/m2          W/m2       degree/day
  51    .06700       85.1455        0.0000      156.5418      156.5418      71.396225       0.00000
  50    .07753       85.1455        0.0000      156.5417      156.5417      71.396225      -0.00000
  49    .09103       85.1455        0.0001      156.5417      156.5417      71.396225      -0.00000
  48    0.1069       85.1455        0.0001      156.5416      156.5417      71.396225       0.00000
  47    0.1255       85.1455        0.0002      156.5415      156.5417      71.396225      -0.00000
  46    0.1487       85.1454        0.0002      156.5414      156.5417      71.396225       0.00000
  45    0.1794       85.1454        0.0003      156.5413      156.5416      71.396225       0.00000
  44    0.2165       85.1453        0.0004      156.5412      156.5416      71.396225      -0.00000
  43    0.2613       85.1453        0.0005      156.5410      156.5415      71.396225       0.00000
  42    0.3336       85.1452        0.0007      156.5407      156.5414      71.396225      -0.00000
  41    0.4307       85.1451        0.0010      156.5403      156.5413      71.396225       0.00000
  40    0.5894       85.1449        0.0014      156.5397      156.5411      71.396225       0.00000
  39     1.339       85.1440        0.0035      156.5367      156.5402      71.396225      -0.00000
  38     1.782       85.1435        0.0047      156.5350      156.5397      71.396225       0.00000
  37     2.292       85.1429        0.0061      156.5330      156.5391      71.396225       0.00000
  36     2.964       85.1421        0.0079      156.5303      156.5383      71.396225       0.00000
  35     3.853       85.1410        0.0104      156.5268      156.5372      71.396225      -0.00000
  34     5.035       85.1396        0.0136      156.5222      156.5358      71.396225      -0.00000
  33     6.613       85.1377        0.0179      156.5160      156.5339      71.396225       0.00000
  32     8.786       85.1352        0.0237      156.5076      156.5314      71.396225       0.00000
  31     11.80       85.1315        0.0321      156.4957      156.5277      71.396225       0.00000
  30     15.07       85.1276        0.0410      156.4828      156.5238      71.396225      -0.00000
  29     18.79       85.1232        0.0512      156.4682      156.5194      71.396225       0.00000
  28     23.16       85.1180        0.0630      156.4512      156.5142      71.396225      -0.00000
  27     28.12       85.1121        0.0766      156.4317      156.5083      71.396225      -0.00000
  26     33.73       85.1054        0.0918      156.4099      156.5016      71.396225       0.00000
  25     40.54       85.0974        0.1102      156.3834      156.4936      71.396225       0.00000
  24     48.69       85.0877        0.1324      156.3515      156.4839      71.396225      -0.00000
  23     57.69       85.0770        0.1568      156.3164      156.4732      71.396225       0.00000
  22     68.43       85.0643        0.1859      156.2746      156.4605      71.396225      -0.00000
  21     81.20       85.0491        0.2207      156.2246      156.4453      71.396225      -0.00000
  20     96.49       85.0309        0.2622      156.1649      156.4271      71.396225      -0.00000
  19     114.6       85.0095        0.3116      156.0879      156.3995      71.389997       0.00291
  18     136.5       84.9841        0.3702      155.9962      156.3663      71.382271       0.00297
  17     162.9       84.9538        0.4402      155.8831      156.3232      71.369449       0.00410
  16     196.4       84.9145        0.5311      155.7199      156.2511      71.336584       0.00827
  15     218.7       84.8890        0.5909      155.5733      156.1642      71.275246       0.02329
  14     243.0       84.8623        0.6560      155.3367      155.9926      71.130386       0.05024
  13     269.0       84.8355        0.7263      154.9514      155.6777      70.842135       0.09351
  12     297.5       84.8111        0.8019      154.3896      155.1915      70.380422       0.13694
  11     328.5       84.7904        0.8835      153.7151      154.5986      69.808207       0.15558
  10     361.9       84.7764        0.9710      152.9087      153.8797      69.103353       0.17833
   9     398.1       84.7742        1.0645      151.8986      152.9631      68.188951       0.21304
   8     437.6       84.7926        1.1640      150.6031      151.7671      66.974494       0.25966
   7     480.5       84.8424        1.2690      149.0014      150.2704      65.428034       0.30372
   6     533.0       84.9605        1.3959      146.7375      148.1334      63.172920       0.36278
   5     589.8       85.1940        1.5285      143.8730      145.4015      60.207521       0.44016
   4     651.6       85.6735        1.6641      140.0955      141.7596      56.086111       0.56361
   3     718.7       86.5935        1.8010      135.5278      137.3288      50.735326       0.67245
   2     792.3       88.4464        1.9358      130.0690      132.0048      43.558345       0.82312
   1     891.5       10.9349       46.5646        1.4906       48.0552      37.120339       0.54784
   0    1013.0       11.3923       43.7646        1.3786       45.1432      33.750926       0.23396



 Wavenumbers: 12850. - 16000. cm-1, ATM      1
 LEVEL PRESSURE   UPWARD FLUX   DIFDOWN FLUX  DIRDOWN FLUX  DOWNWARD FLUX   NET FLUX    HEATING RATE
          mb          W/m2          W/m2          W/m2        W/m2          W/m2       degree/day
  51    .06700       65.7966        0.0000       98.0872       98.0872      32.290651       0.00000
  50    .07753       65.7966        0.0001       98.0864       98.0864      32.289862       0.63266
  49    .09103       65.7966        0.0002       98.0853       98.0854      32.288871       0.61934
  48    0.1069       65.7966        0.0002       98.0841       98.0843      32.287733       0.60572
  47    0.1255       65.7966        0.0004       98.0826       98.0830      32.286426       0.59236
  46    0.1487       65.7966        0.0005       98.0809       98.0813      32.284778       0.60065
  45    0.1794       65.7966        0.0007       98.0784       98.0791      32.282539       0.61492
  44    0.2165       65.7966        0.0009       98.0756       98.0765      32.279906       0.59886
  43    0.2613       65.7967        0.0012       98.0723       98.0735      32.276813       0.58296
  42    0.3336       65.7969        0.0016       98.0670       98.0686      32.271772       0.58776
  41    0.4307       65.7971        0.0022       98.0602       98.0624      32.265263       0.56597
  40    0.5894       65.7977        0.0032       98.0496       98.0528      32.255029       0.54424
  39     1.339       65.8030        0.0077       98.0043       98.0121      32.209039       0.51776
  38     1.782       65.8080        0.0104       97.9793       97.9897      32.181679       0.52088
  37     2.292       65.8155        0.0135       97.9498       97.9632      32.147775       0.56155
  36     2.964       65.8279        0.0175       97.9088       97.9263      32.098377       0.62009
  35     3.853       65.8482        0.0228       97.8503       97.8732      32.025010       0.69626
  34     5.035       65.8787        0.0299       97.7680       97.7979      31.919195       0.75590
  33     6.613       65.9214        0.0394       97.6562       97.6956      31.774161       0.77535
  32     8.786       65.9770        0.0521       97.5107       97.5628      31.585831       0.73140
  31     11.80       66.0492        0.0704       97.3179       97.3882      31.339042       0.69093
  30     15.07       66.1182        0.0899       97.1283       97.2182      31.100043       0.61705
  29     18.79       66.1885        0.1120       96.9300       97.0420      30.853481       0.55903
  28     23.16       66.2618        0.1377       96.7166       96.8542      30.592461       0.50473
  27     28.12       66.3353        0.1671       96.4935       96.6606      30.325265       0.45422
  26     33.73       66.4028        0.2000       96.2731       96.4731      30.070233       0.38345
  25     40.54       66.4674        0.2397       96.0408       96.2805      29.813131       0.31896
  24     48.69       66.5286        0.2876       95.7946       96.0822      29.553601       0.26857
  23     57.69       66.5798        0.3402       95.5573       95.8975      29.317685       0.22114
  22     68.43       66.6235        0.4030       95.3106       95.7136      29.090018       0.17898
  21     81.20       66.6519        0.4777       95.0643       95.5421      28.890224       0.13202
  20     96.49       66.6637        0.5670       94.8153       95.3822      28.718561       0.09475
  19     114.6       66.6758        0.6737       94.5411       95.2148      28.539017       0.08383
  18     136.5       66.6809        0.8003       94.2320       95.0323      28.351455       0.07212
  17     162.9       66.6785        0.9509       93.8753       94.8263      28.147729       0.06512
  16     196.4       66.6575        1.1463       93.4347       94.5809      27.923386       0.05647
  15     218.7       66.6375        1.2745       93.1513       94.4258      27.788320       0.05128
  14     243.0       66.6131        1.4138       92.8439       94.2578      27.644639       0.04983
  13     269.0       66.5846        1.5648       92.5111       94.0759      27.491281       0.04975
  12     297.5       66.5525        1.7278       92.1495       93.8773      27.324770       0.04939
  11     328.5       66.5186        1.9040       91.7554       93.6593      27.140704       0.05005
  10     361.9       66.4839        2.0935       91.3262       93.4197      26.935761       0.05185
   9     398.1       66.4499        2.2973       90.8575       93.1548      26.704937       0.05378
   8     437.6       66.4195        2.5159       90.3418       92.8577      26.438117       0.05705
   7     480.5       66.3961        2.7498       89.7728       92.5226      26.126566       0.06119
   6     533.0       66.3844        3.0372       89.0428       92.0801      25.695683       0.06932
   5     589.8       66.4033        3.3456       88.2038       91.5495      25.146129       0.08157
   4     651.6       66.4876        3.6745       87.1979       90.8724      24.384794       0.10411
   3     718.7       66.6647        4.0224       86.0161       90.0385      23.373813       0.12705
   2     792.3       67.0158        4.3856       84.5970       88.9826      21.966786       0.16137
   1     891.5       22.5523       42.0511        1.0068       43.0579      20.505582       0.12434
   0    1013.0       22.8648       41.1819        0.9724       42.1543      19.289530       0.08444



 Wavenumbers: 16000. - 22650. cm-1, ATM      1
 LEVEL PRESSURE   UPWARD FLUX   DIFDOWN FLUX  DIRDOWN FLUX  DOWNWARD FLUX   NET FLUX    HEATING RATE
          mb          W/m2          W/m2          W/m2        W/m2          W/m2       degree/day
  51    .06700      123.2308        0.0000      156.3892      156.3892      33.158408       0.00000
  50    .07753      123.2308        0.0004      156.3887      156.3891      33.158268       0.11188
  49    .09103      123.2307        0.0009      156.3879      156.3888      33.158065       0.12690
  48    0.1069      123.2307        0.0014      156.3871      156.3885      33.157793       0.14471
  47    0.1255      123.2306        0.0020      156.3861      156.3881      33.157430       0.16495
  46    0.1487      123.2306        0.0028      156.3847      156.3875      33.156893       0.19546
  45    0.1794      123.2307        0.0039      156.3828      156.3867      33.156055       0.23014
  44    0.2165      123.2307        0.0052      156.3805      156.3857      33.154918       0.25865
  43    0.2613      123.2309        0.0067      156.3776      156.3843      33.153375       0.29079
  42    0.3336      123.2314        0.0092      156.3726      156.3818      33.150442       0.34196
  41    0.4307      123.2322        0.0125      156.3657      156.3782      33.146021       0.38440
  40    0.5894      123.2340        0.0179      156.3537      156.3716      33.137590       0.44838
  39     1.339      123.2517        0.0436      156.2834      156.3270      33.075297       0.70130
  38     1.782      123.2688        0.0587      156.2324      156.2910      33.022232       1.01026
  37     2.292      123.2948        0.0761      156.1641      156.2402      32.945423       1.27216
  36     2.964      123.3385        0.0990      156.0605      156.1595      32.820996       1.56193
  35     3.853      123.4097        0.1292      155.9041      156.0333      32.623575       1.87357
  34     5.035      123.5177        0.1694      155.6774      155.8467      32.329066       2.10385
  33     6.613      123.6686        0.2229      155.3656      155.5885      31.919842       2.18771
  32     8.786      123.8651        0.2949      154.9577      155.2525      31.387450       2.06762
  31     11.80      124.1200        0.3978      154.4153      154.8130      30.692987       1.94428
  30     15.07      124.3633        0.5080      153.8804      154.3884      30.025123       1.72429
  29     18.79      124.6106        0.6323      153.3191      153.9514      29.340817       1.55153
  28     23.16      124.8679        0.7773      152.7126      153.4899      28.622003       1.38995
  27     28.12      125.1251        0.9428      152.0755      153.0183      27.893235       1.23886
  26     33.73      125.3599        1.1278      151.4409      152.5688      27.208919       1.02889
  25     40.54      125.5820        1.3511      150.7637      152.1148      26.532785       0.83882
  24     48.69      125.7902        1.6199      150.0338      151.6538      25.863625       0.69248
  23     57.69      125.9611        1.9148      149.3151      151.2299      25.268872       0.55749
  22     68.43      126.1024        2.2655      148.5476      150.8131      24.710739       0.43877
  21     81.20      126.1854        2.6829      147.7517      150.4346      24.249185       0.30499
  20     96.49      126.2052        3.1797      146.9127      150.0923      23.887098       0.19985
  19     114.6      126.1880        3.7676      145.9763      149.7439      23.555916       0.15464
  18     136.5      126.1400        4.4615      144.9088      149.3703      23.230237       0.12523
  17     162.9      126.0580        5.2836      143.6785      148.9621      22.904133       0.10424
  16     196.4      125.8977        6.3437      142.1651      148.5087      22.610976       0.07379
  15     218.7      125.7728        7.0360      141.2033      148.2394      22.466608       0.05481
  14     243.0      125.6278        7.7851      140.1753      147.9604      22.332548       0.04650
  13     269.0      125.4614        8.5928      139.0797      147.6724      22.211038       0.03942
  12     297.5      125.2726        9.4609      137.9141      147.3750      22.102397       0.03222
  11     328.5      125.0645       10.3935      136.6676      147.0611      21.996624       0.02876
  10     361.9      124.8367       11.3913      135.3392      146.7305      21.893824       0.02601
   9     398.1      124.5883       12.4580      133.9235      146.3815      21.793115       0.02346
   8     437.6      124.3200       13.5952      132.4163      146.0115      21.691479       0.02173
   7     480.5      124.0310       14.8049      130.8147      145.6195      21.588575       0.02021
   6     533.0      123.6753       16.2809      128.8599      145.1408      21.465538       0.01979
   5     589.8      123.2954       17.8562      126.7679      144.6241      21.328756       0.02030
   4     651.6      122.8968       19.5318      124.5274      144.0592      21.162480       0.02274
   3     718.7      122.4847       21.3089      122.1285      143.4373      20.952578       0.02638
   2     792.3      122.0746       23.1847      119.5548      142.7395      20.664914       0.03299
   1     891.5       72.5305       91.4036        1.4176       92.8211      20.290616       0.03185
   0    1013.0       72.4764       90.9597        1.3661       92.3257      19.849314       0.03064



 Wavenumbers: 22650. - 29000. cm-1, ATM      1
 LEVEL PRESSURE   UPWARD FLUX   DIFDOWN FLUX  DIRDOWN FLUX  DOWNWARD FLUX   NET FLUX    HEATING RATE
          mb          W/m2          W/m2          W/m2        W/m2          W/m2       degree/day
  51    .06700       51.3020        0.0000       59.0156       59.0156       7.713629       0.00000
  50    .07753       51.3019        0.0004       59.0151       59.0155       7.713629      -0.00000
  49    .09103       51.3017        0.0010       59.0144       59.0154       7.713629       0.00000
  48    0.1069       51.3016        0.0016       59.0136       59.0152       7.713629      -0.00000
  47    0.1255       51.3014        0.0024       59.0127       59.0150       7.713629       0.00000
  46    0.1487       51.3011        0.0033       59.0115       59.0148       7.713629       0.00000
  45    0.1794       51.3008        0.0045       59.0099       59.0144       7.713629      -0.00000
  44    0.2165       51.3004        0.0060       59.0080       59.0141       7.713629      -0.00000
  43    0.2613       51.3000        0.0078       59.0058       59.0136       7.713629       0.00000
  42    0.3336       51.2992        0.0107       59.0022       59.0129       7.713629       0.00000
  41    0.4307       51.2982        0.0146       58.9973       59.0119       7.713629       0.00000
  40    0.5894       51.2966        0.0209       58.9894       59.0103       7.713629       0.00000
  39     1.339       51.2890        0.0508       58.9518       59.0026       7.713629      -0.00000
  38     1.782       51.2845        0.0684       58.9297       58.9981       7.713629       0.00000
  37     2.292       51.2793        0.0887       58.9042       58.9929       7.713629       0.00000
  36     2.964       51.2724        0.1154       58.8706       58.9861       7.713629       0.00000
  35     3.853       51.2634        0.1506       58.8264       58.9770       7.713629      -0.00000
  34     5.035       51.2514        0.1974       58.7676       58.9650       7.713629       0.00000
  33     6.613       51.2354        0.2599       58.6891       58.9490       7.713629      -0.00000
  32     8.786       51.2138        0.3440       58.5834       58.9274       7.713629       0.00000
  31     11.80       51.1830        0.4642       58.4324       58.8966       7.713629       0.00000
  30     15.07       51.1499        0.5929       58.2706       58.8635       7.713629      -0.00000
  29     18.79       51.1126        0.7380       58.0882       58.8262       7.713629      -0.00000
  28     23.16       51.0691        0.9070       57.8757       58.7827       7.713629       0.00000
  27     28.12       51.0194        1.0997       57.6333       58.7331       7.713629      -0.00000
  26     33.73       50.9640        1.3146       57.3631       58.6776       7.713629       0.00000
  25     40.54       50.8972        1.5730       57.0379       58.6108       7.713629       0.00000
  24     48.69       50.8170        1.8827       56.6479       58.5306       7.713629      -0.00000
  23     57.69       50.7293        2.2208       56.2221       58.4429       7.713629       0.00000
  22     68.43       50.6253        2.6204       55.7186       58.3389       7.713629      -0.00000
  21     81.20       50.5022        3.0919       55.1239       58.2159       7.713629      -0.00000
  20     96.49       50.3567        3.6475       54.4228       58.0703       7.713629       0.00000
  19     114.6       50.1855        4.2981       53.6010       57.8991       7.713629       0.00000
  18     136.5       49.9848        5.0567       52.6418       57.6984       7.713629       0.00000
  17     162.9       49.7490        5.9423       51.5203       57.4626       7.713629      -0.00000
  16     196.4       49.4482        7.0624       50.0994       57.1618       7.713629       0.00000
  15     218.7       49.2537        7.7810       49.1863       56.9673       7.713629       0.00000
  14     243.0       49.0449        8.5472       48.2113       56.7585       7.713629      -0.00000
  13     269.0       48.8217        9.3603       47.1749       56.5353       7.713629       0.00000
  12     297.5       48.5839       10.2193       46.0783       56.2975       7.713629       0.00000
  11     328.5       48.3309       11.1250       44.9195       56.0445       7.713629      -0.00000
  10     361.9       48.0630       12.0747       43.7018       55.7766       7.713629      -0.00000
   9     398.1       47.7796       13.0682       42.4250       55.4932       7.713629       0.00000
   8     437.6       47.4808       14.1027       41.0916       55.1944       7.713629      -0.00000
   7     480.5       47.1666       15.1758       39.7045       54.8803       7.713629       0.00000
   6     533.0       46.7882       16.4476       38.0543       54.5019       7.713629       0.00000
   5     589.8       46.3901       17.7606       36.3431       54.1037       7.713629       0.00000
   4     651.6       45.9728       19.1068       34.5795       53.6864       7.713629       0.00000
   3     718.7       45.5366       20.4800       32.7702       53.2502       7.713629       0.00000
   2     792.3       45.0824       21.8705       30.9256       52.7961       7.713629       0.00000
   1     891.5       28.4163       35.7807        0.3489       36.1296       7.713312       0.00003
   0    1013.0       28.1432       35.5395        0.3170       35.8565       7.713312       0.00000



 Wavenumbers: 29000. - 38000. cm-1, ATM      1
 LEVEL PRESSURE   UPWARD FLUX   DIFDOWN FLUX  DIRDOWN FLUX  DOWNWARD FLUX   NET FLUX    HEATING RATE
          mb          W/m2          W/m2          W/m2        W/m2          W/m2       degree/day
  51    .06700        7.7871        0.0000       20.8114       20.8114      13.024243       0.00000
  50    .07753        7.7869        0.0003       20.8070       20.8074      13.020437       3.05054
  49    .09103        7.7867        0.0007       20.8009       20.8016      13.014902       3.45969
  48    0.1069        7.7864        0.0012       20.7928       20.7939      13.007495       3.94295
  47    0.1255        7.7861        0.0017       20.7820       20.7837      12.997593       4.48879
  46    0.1487        7.7858        0.0023       20.7665       20.7688      12.983035       5.30657
  45    0.1794        7.7853        0.0032       20.7424       20.7456      12.960379       6.21981
  44    0.2165        7.7847        0.0043       20.7103       20.7146      12.929867       6.94085
  43    0.2613        7.7841        0.0055       20.6675       20.6730      12.888888       7.72440
  42    0.3336        7.7831        0.0075       20.5880       20.5955      12.812357       8.92274
  41    0.4307        7.7820        0.0102       20.4722       20.4824      12.700451       9.73000
  40    0.5894        7.7802        0.0144       20.2637       20.2781      12.497858      10.77366
  39     1.339        7.7757        0.0324       19.0984       19.1308      11.355067      12.86575
  38     1.782        7.7754        0.0417       18.4394       18.4811      10.705723      12.36247
  37     2.292        7.7769        0.0517       17.7714       17.8231      10.046201      10.92340
  36     2.964        7.7818        0.0640       17.0421       17.1062       9.324387       9.06095
  35     3.853        7.7920        0.0795       16.2678       16.3473       8.555258       7.29918
  34     5.035        7.8095        0.0989       15.4803       15.5793       7.769789       5.61106
  33     6.613        7.8351        0.1238       14.7157       14.8395       7.004388       4.09184
  32     8.786        7.8691        0.1564       13.9936       14.1500       6.280882       2.80983
  31     11.80        7.9132        0.2017       13.2835       13.4853       5.572073       1.98444
  30     15.07        7.9554        0.2487       12.7394       12.9880       5.032584       1.39286
  29     18.79        7.9988        0.3006       12.2666       12.5672       4.568425       1.05239
  28     23.16        8.0446        0.3597       11.8300       12.1897       4.145122       0.81853
  27     28.12        8.0910        0.4257       11.4279       11.8536       3.762600       0.65026
  26     33.73        8.1328        0.4984       11.0695       11.5678       3.434999       0.49256
  25     40.54        8.1711        0.5851       10.7209       11.3060       3.134892       0.37232
  24     48.69        8.2055        0.6879       10.3742       11.0621       2.856588       0.28800
  23     57.69        8.2315        0.7991       10.0549       10.8540       2.622421       0.21950
  22     68.43        8.2492        0.9293        9.7327       10.6620       2.412761       0.16482
  21     81.20        8.2502        1.0828        9.4134       10.4962       2.246013       0.11018
  20     96.49        8.2324        1.2631        9.0887       10.3518       2.119398       0.06988
  19     114.6        8.2027        1.4709        8.7388       10.2097       2.006983       0.05249
  18     136.5        8.1635        1.7080        8.3549       10.0629       1.899425       0.04136
  17     162.9        8.1141        1.9774        7.9311        9.9085       1.794451       0.03355
  16     196.4        8.0408        2.3099        7.4333        9.7432       1.702403       0.02317
  15     218.7        7.9902        2.5183        7.1295        9.6479       1.657662       0.01699
  14     243.0        7.9351        2.7355        6.8161        9.5516       1.616461       0.01429
  13     269.0        7.8753        2.9606        6.4943        9.4549       1.579573       0.01197
  12     297.5        7.8109        3.1923        6.1657        9.3580       1.547157       0.00961
  11     328.5        7.7428        3.4296        5.8295        9.2591       1.516226       0.00841
  10     361.9        7.6717        3.6699        5.4886        9.1586       1.486916       0.00742
   9     398.1        7.5973        3.9126        5.1440        9.0565       1.459249       0.00645
   8     437.6        7.5202        4.1559        4.7969        8.9529       1.432691       0.00568
   7     480.5        7.4405        4.3977        4.4504        8.8481       1.407597       0.00493
   6     533.0        7.3464        4.6705        4.0563        8.7268       1.380389       0.00438
   5     589.8        7.2500        4.9360        3.6682        8.6042       1.354209       0.00389
   4     651.6        7.1520        5.1902        3.2905        8.4808       1.328769       0.00348
   3     718.7        7.0525        5.4313        2.9252        8.3565       1.304036       0.00311
   2     792.3        6.9521        5.6557        2.5764        8.2321       1.280021       0.00275
   1     891.5        4.5806        5.8099        0.0265        5.8364       1.255782       0.00206
   0    1013.0        4.4993        5.7118        0.0214        5.7332       1.233907       0.00152



 Wavenumbers: 38000. - 50000. cm-1, ATM      1
 LEVEL PRESSURE   UPWARD FLUX   DIFDOWN FLUX  DIRDOWN FLUX  DOWNWARD FLUX   NET FLUX    HEATING RATE
          mb          W/m2          W/m2          W/m2        W/m2          W/m2       degree/day
  51    .06700        0.0061        0.0000        1.2836        1.2836       1.277518       0.00000
  50    .07753        0.0061        0.0001        1.2812        1.2812       1.275183       1.87150
  49    .09103        0.0060        0.0002        1.2777        1.2778       1.271851       2.08247
  48    0.1069        0.0059        0.0002        1.2731        1.2734       1.267473       2.33059
  47    0.1255        0.0058        0.0004        1.2672        1.2675       1.261717       2.60908
  46    0.1487        0.0057        0.0005        1.2586        1.2591       1.253391       3.03499
  45    0.1794        0.0055        0.0007        1.2455        1.2462       1.240623       3.50520
  44    0.2165        0.0054        0.0009        1.2282        1.2291       1.223697       3.85037
  43    0.2613        0.0052        0.0011        1.2054        1.2065       1.201348       4.21261
  42    0.3336        0.0049        0.0015        1.1639        1.1654       1.160524       4.75970
  41    0.4307        0.0045        0.0020        1.1051        1.1070       1.102565       5.03943
  40    0.5894        0.0039        0.0026        1.0039        1.0064       1.002524       5.32007
  39     1.339        0.0022        0.0035        0.5438        0.5473       0.545104       5.14971
  38     1.782        0.0016        0.0032        0.3635        0.3666       0.365006       3.42879
  37     2.292        0.0012        0.0027        0.2356        0.2383       0.237058       2.11916
  36     2.964        0.0009        0.0022        0.1455        0.1477       0.146786       1.13318
  35     3.853        0.0006        0.0017        0.0858        0.0875       0.086906       0.56828
  34     5.035        0.0004        0.0013        0.0488        0.0501       0.049701       0.26578
  33     6.613        0.0003        0.0010        0.0273        0.0282       0.027974       0.11615
  32     8.786        0.0002        0.0007        0.0144        0.0151       0.014928       0.05067
  31     11.80        0.0001        0.0004        0.0065        0.0070       0.006903       0.02247
  30     15.07        0.0000        0.0003        0.0031        0.0034       0.003329       0.00923
  29     18.79        0.0000        0.0002        0.0014        0.0016       0.001583       0.00396
  28     23.16        0.0000        0.0001        0.0006        0.0007       0.000720       0.00167
  27     28.12        0.0000        0.0001        0.0003        0.0003       0.000317       0.00069
  26     33.73        0.0000        0.0000        0.0001        0.0001       0.000140       0.00027
  25     40.54        0.0000        0.0000        0.0000        0.0001       0.000057       0.00010
  24     48.69        0.0000        0.0000        0.0000        0.0000       0.000021       0.00004
  23     57.69        0.0000        0.0000        0.0000        0.0000       0.000008       0.00001
  22     68.43        0.0000        0.0000        0.0000        0.0000       0.000003       0.00000
  21     81.20        0.0000        0.0000        0.0000        0.0000       0.000001       0.00000
  20     96.49        0.0000        0.0000        0.0000        0.0000       0.000000       0.00000
  19     114.6        0.0000        0.0000        0.0000        0.0000       0.000000       0.00000
  18     136.5        0.0000        0.0000        0.0000        0.0000       0.000000       0.00000
  17     162.9        0.0000        0.0000        0.0000        0.0000       0.000000       0.00000
  16     196.4        0.0000        0.0000        0.0000        0.0000       0.000000       0.00000
  15     218.7        0.0000        0.0000        0.0000        0.0000       0.000000       0.00000
  14     243.0        0.0000        0.0000        0.0000        0.0000       0.000000       0.00000
  13     269.0        0.0000        0.0000        0.0000        0.0000       0.000000       0.00000
  12     297.5        0.0000        0.0000        0.0000        0.0000       0.000000       0.00000
  11     328.5        0.0000        0.0000        0.0000        0.0000       0.000000       0.00000
  10     361.9        0.0000        0.0000        0.0000        0.0000       0.000000       0.00000
   9     398.1        0.0000        0.0000        0.0000        0.0000       0.000000       0.00000
   8     437.6        0.0000        0.0000        0.0000        0.0000       0.000000       0.00000
   7     480.5        0.0000        0.0000        0.0000        0.0000       0.000000       0.00000
   6     533.0        0.0000        0.0000        0.0000        0.0000       0.000000       0.00000
   5     589.8        0.0000        0.0000        0.0000        0.0000       0.000000       0.00000
   4     651.6        0.0000        0.0000        0.0000        0.0000       0.000000       0.00000
   3     718.7        0.0000        0.0000        0.0000        0.0000       0.000000       0.00000
   2     792.3        0.0000        0.0000        0.0000        0.0000       0.000000       0.00000
   1     891.5        0.0000        0.0000        0.0000        0.0000       0.000000       0.00000
   0    1013.0        0.0000        0.0000        0.0000        0.0000       0.000000       0.00000



 Wavenumbers:   820. -  2600. cm-1, ATM      1
 LEVEL PRESSURE   UPWARD FLUX   DIFDOWN FLUX  DIRDOWN FLUX  DOWNWARD FLUX   NET FLUX    HEATING RATE
          mb          W/m2          W/m2          W/m2        W/m2          W/m2       degree/day
  51    .06700        1.2303        0.0000        6.0047        6.0047       4.774323       0.00000
  50    .07753        1.2303        0.0000        6.0008        6.0008       4.770470       3.08824
  49    .09103        1.2303        0.0000        5.9999        5.9999       4.769584       0.55360
  48    0.1069        1.2303        0.0000        5.9989        5.9989       4.768595       0.52655
  47    0.1255        1.2303        0.0000        5.9978        5.9978       4.767478       0.50652
  46    0.1487        1.2303        0.0000        5.9964        5.9964       4.766121       0.49460
  45    0.1794        1.2303        0.0000        5.9947        5.9947       4.764401       0.47203
  44    0.2165        1.2303        0.0000        5.9929        5.9929       4.762559       0.41913
  43    0.2613        1.2303        0.0000        5.9909        5.9909       4.760599       0.36936
  42    0.3336        1.2303        0.0000        5.9880        5.9880       4.757721       0.33559
  41    0.4307        1.2303        0.0000        5.9846        5.9846       4.754251       0.30168
  40    0.5894        1.2303        0.0000        5.9791        5.9791       4.748745       0.29280
  39     1.339        1.2303        0.0000        5.9536        5.9536       4.723255       0.28698
  38     1.782        1.2303        0.0000        5.9395        5.9395       4.709115       0.26921
  37     2.292        1.2303        0.0000        5.9237        5.9237       4.693361       0.26092
  36     2.964        1.2303        0.0000        5.9039        5.9039       4.673584       0.24826
  35     3.853        1.2304        0.0000        5.8793        5.8793       4.648924       0.23403
  34     5.035        1.2304        0.0000        5.8487        5.8487       4.618356       0.21837
  33     6.613        1.2304        0.0000        5.8108        5.8108       4.580385       0.20300
  32     8.786        1.2304        0.0000        5.7631        5.7631       4.532751       0.18499
  31     11.80        1.2304        0.0000        5.7039        5.7039       4.473480       0.16594
  30     15.07        1.2304        0.0000        5.6539        5.6539       4.423426       0.12923
  29     18.79        1.2305        0.0000        5.6127        5.6127       4.382272       0.09331
  28     23.16        1.2305        0.0000        5.5794        5.5794       4.348873       0.06458
  27     28.12        1.2305        0.0000        5.5518        5.5518       4.321279       0.04691
  26     33.73        1.2306        0.0000        5.5268        5.5268       4.296195       0.03772
  25     40.54        1.2306        0.0000        5.4993        5.4993       4.268711       0.03410
  24     48.69        1.2307        0.0000        5.4678        5.4678       4.237121       0.03269
  23     57.69        1.2307        0.0000        5.4340        5.4340       4.203277       0.03172
  22     68.43        1.2308        0.0000        5.3947        5.3948       4.163934       0.03093
  21     81.20        1.2309        0.0000        5.3497        5.3497       4.118815       0.02981
  20     96.49        1.2310        0.0000        5.2982        5.2982       4.067194       0.02849
  19     114.6        1.2312        0.0000        5.2389        5.2389       4.007740       0.02776
  18     136.5        1.2314        0.0000        5.1716        5.1717       3.940315       0.02593
  17     162.9        1.2316        0.0000        5.0890        5.0891       3.857444       0.02649
  16     196.4        1.2321        0.0000        4.9668        4.9668       3.734787       0.03087
  15     218.7        1.2325        0.0000        4.8585        4.8585       3.626000       0.04130
  14     243.0        1.2332        0.0000        4.7078        4.7079       3.474697       0.05248
  13     269.0        1.2342        0.0000        4.5343        4.5343       3.300097       0.05664
  12     297.5        1.2358        0.0000        4.3419        4.3420       3.106143       0.05752
  11     328.5        1.2380        0.0000        4.1281        4.1281       2.890129       0.05873
  10     361.9        1.2409        0.0000        3.8786        3.8787       2.637749       0.06385
   9     398.1        1.2447        0.0000        3.6159        3.6160       2.371252       0.06209
   8     437.6        1.2496        0.0000        3.3759        3.3759       2.126304       0.05237
   7     480.5        1.2556        0.0000        3.1957        3.1958       1.940214       0.03655
   6     533.0        1.2647        0.0000        3.0467        3.0467       1.782043       0.02544
   5     589.8        1.2781        0.0000        2.9023        2.9023       1.624249       0.02342
   4     651.6        1.3014        0.0001        2.7183        2.7184       1.416994       0.02834
   3     718.7        1.3417        0.0001        2.5058        2.5059       1.164180       0.03177
   2     792.3        1.4193        0.0001        2.2756        2.2757       0.856418       0.03530
   1     891.5        0.1207        0.6881        0.0240        0.7120       0.591355       0.02256
   0    1013.0        0.1456        0.5578        0.0189        0.5767       0.431103       0.01113

  Modules and versions used in this calculation:

       rrtmg_sw.1col.f90:  $Revision$                    rrtmg_sw_init.f90:  $Revision$        
     rrtmgsw_cldprop.f90:  $Revision$                  rrtmgsw_cldprmc.f90:  NOT USED          
     rrtmg_sw_reftra.f90:  $Revision$                  rrtmg_sw_spcvrt.f90:  NOT USED          
     rrtmg_sw_spcvmc.f90:  NOT USED                    rrtmgsw_setcoef.f90:  NOT USED          
     rrtmg_sw_taumol.f90:  $Revision$                  rrtmg_sw_vrtqdr.f90:  NOT USED          
                rrtatm.f:  NOT USED                             util_xxx.f:  NOT USED          
                 extra.f:  NOT USED                       rrtmg_sw_k_g.f90:  $Revision$        

