

 Wavenumbers:   820. - 50000. cm-1, ATM      1
 LEVEL PRESSURE   UPWARD FLUX   DIFDOWN FLUX  DIRDOWN FLUX  DOWNWARD FLUX   NET FLUX    HEATING RATE
          mb          W/m2          W/m2          W/m2        W/m2          W/m2       degree/day
  51    .06700      384.8525        0.0000      617.8126      617.8126     232.960100       0.00000
  50    .07753      384.8520        0.0013      617.7947      617.7960     232.943970      12.92869
  49    .09103      384.8515        0.0029      617.7778      617.7807     232.929175       9.24752
  48    0.1069      384.8510        0.0048      617.7581      617.7629     232.911932       9.17806
  47    0.1255      384.8503        0.0070      617.7340      617.7409     232.890614       9.66483
  46    0.1487      384.8496        0.0097      617.7009      617.7106     232.860967      10.80663
  45    0.1794      384.8487        0.0134      617.6521      617.6655     232.816797      12.12573
  44    0.2165      384.8477        0.0178      617.5895      617.6073     232.759559      13.02071
  43    0.2613      384.8467        0.0229      617.5089      617.5318     232.685159      14.02401
  42    0.3336      384.8453        0.0314      617.3641      617.3956     232.550290      15.72437
  41    0.4307      384.8438        0.0426      617.1591      617.2018     232.357994      16.71970
  40    0.5894      384.8423        0.0607      616.8005      616.8612     232.018931      18.03096
  39     1.339      384.8515        0.1423      614.9443      615.0865     230.235000      20.08382
  38     1.782      384.8683        0.1881      613.9670      614.1551     229.286738      18.05337
  37     2.292      384.8981        0.2401      613.0059      613.2460     228.347909      15.54947
  36     2.964      384.9527        0.3078      611.9577      612.2655     227.312792      12.99384
  35     3.853      385.0463        0.3965      610.8024      611.1989     226.152627      11.01018
  34     5.035      385.1918        0.5135      609.5327      610.0462     224.854401       9.27399
  33     6.613      385.3976        0.6688      608.1464      608.8152     223.417609       7.68109
  32     8.786      385.6653        0.8770      606.6250      607.5021     221.836802       6.13928
  31     11.80      386.0099        1.1735      604.8486      606.0221     220.012215       5.10827
  30     15.07      386.3353        1.4897      603.2440      604.7336     218.398312       4.16678
  29     18.79      386.6630        1.8453      601.6511      603.4965     216.833429       3.54807
  28     23.16      386.9999        2.2585      599.9927      602.2512     215.251242       3.05944
  27     28.12      387.3314        2.7285      598.2881      601.0166     213.685217       2.66214
  26     33.73      387.6236        3.2524      596.5951      599.8475     212.223960       2.19704
  25     40.54      387.8848        3.8830      594.7727      598.6557     210.770871       1.80272
  24     48.69      388.1109        4.6393      592.7865      597.4258     209.314883       1.50672
  23     57.69      388.2731        5.4657      590.7959      596.2616     207.988490       1.24329
  22     68.43      388.3729        6.4443      588.6191      595.0634     206.690565       1.02034
  21     81.20      388.3618        7.6040      586.2690      593.8730     205.511236       0.77928
  20     96.49      388.2282        8.9764      583.6961      592.6725     204.444252       0.58890
  19     114.6      388.0199       10.5897      580.7708      591.3605     203.340563       0.51535
  18     136.5      387.7344       12.4772      577.4359      589.9131     202.178732       0.44675
  17     162.9      387.3618       14.6902      573.5624      588.2526     200.890832       0.41166
  16     196.4      386.8032       17.5090      568.5907      586.0997     199.296577       0.40129
  15     218.7      386.4123       19.3295      565.0572      584.3868     197.974406       0.50198
  14     243.0      385.9817       21.2804      560.7495      582.0299     196.048180       0.66808
  13     269.0      385.5123       23.3624      555.3947      578.7571     193.244764       0.90942
  12     297.5      385.0092       25.5758      548.9964      574.5721     189.562952       1.09199
  11     328.5      384.4803       27.9260      542.0895      570.0156     185.535252       1.09512
  10     361.9      383.9330       30.4089      534.6242      565.0332     181.100154       1.12212
   9     398.1      383.3769       33.0281      526.4204      559.4485     176.071625       1.17153
   8     437.6      382.8324       35.7815      517.3907      553.1721     170.339747       1.22551
   7     480.5      382.3213       38.6662      507.7216      546.3878     164.066451       1.23205
   6     533.0      381.8279       42.1270      495.9006      538.0277     156.199728       1.26551
   5     589.8      381.5436       45.7493      483.0788      528.8282     147.284554       1.32330
   4     651.6      381.7527       49.5187      468.6907      518.2094     136.456606       1.48075
   3     718.7      382.8594       53.4256      453.2257      506.6513     123.791892       1.59160
   2     792.3      385.9394       57.4467      436.4928      493.9396     108.000171       1.81113
   1     891.5      133.8919      227.2683        1.6804      228.9487      95.056832       1.10142
   0    1013.0      134.4559      221.5649        1.5768      223.1417      88.685804       0.44237



 Wavenumbers:  2600. -  3250. cm-1, ATM      1
 LEVEL PRESSURE   UPWARD FLUX   DIFDOWN FLUX  DIRDOWN FLUX  DOWNWARD FLUX   NET FLUX    HEATING RATE
          mb          W/m2          W/m2          W/m2        W/m2          W/m2       degree/day
  51    .06700        1.6812        0.0000        5.4450        5.4450       3.763849       0.00000
  50    .07753        1.6812        0.0000        5.4450        5.4450       3.763841       0.00640
  49    .09103        1.6812        0.0000        5.4450        5.4450       3.763831       0.00627
  48    0.1069        1.6812        0.0000        5.4450        5.4450       3.763819       0.00613
  47    0.1255        1.6812        0.0000        5.4450        5.4450       3.763806       0.00599
  46    0.1487        1.6812        0.0000        5.4450        5.4450       3.763790       0.00608
  45    0.1794        1.6812        0.0000        5.4450        5.4450       3.763767       0.00625
  44    0.2165        1.6812        0.0000        5.4449        5.4449       3.763740       0.00612
  43    0.2613        1.6812        0.0000        5.4449        5.4449       3.763708       0.00600
  42    0.3336        1.6812        0.0000        5.4448        5.4448       3.763655       0.00617
  41    0.4307        1.6812        0.0000        5.4448        5.4448       3.763584       0.00620
  40    0.5894        1.6812        0.0000        5.4446        5.4446       3.763464       0.00637
  39     1.339        1.6812        0.0000        5.4439        5.4439       3.762757       0.00797
  38     1.782        1.6812        0.0000        5.4434        5.4434       3.762214       0.01034
  37     2.292        1.6812        0.0000        5.4427        5.4427       3.761498       0.01186
  36     2.964        1.6812        0.0000        5.4416        5.4416       3.760459       0.01304
  35     3.853        1.6812        0.0000        5.4402        5.4402       3.758981       0.01402
  34     5.035        1.6812        0.0000        5.4381        5.4381       3.756926       0.01469
  33     6.613        1.6812        0.0000        5.4353        5.4353       3.754144       0.01487
  32     8.786        1.6812        0.0000        5.4317        5.4317       3.750511       0.01411
  31     11.80        1.6812        0.0000        5.4269        5.4269       3.745730       0.01339
  30     15.07        1.6812        0.0000        5.4224        5.4224       3.741201       0.01169
  29     18.79        1.6812        0.0000        5.4180        5.4180       3.736785       0.01001
  28     23.16        1.6812        0.0000        5.4135        5.4135       3.732294       0.00868
  27     28.12        1.6812        0.0000        5.4088        5.4088       3.727640       0.00791
  26     33.73        1.6812        0.0000        5.4036        5.4036       3.722389       0.00789
  25     40.54        1.6812        0.0000        5.3966        5.3967       3.715431       0.00863
  24     48.69        1.6813        0.0000        5.3872        5.3872       3.705930       0.00983
  23     57.69        1.6813        0.0000        5.3754        5.3754       3.694112       0.01108
  22     68.43        1.6813        0.0000        5.3599        5.3599       3.678575       0.01221
  21     81.20        1.6814        0.0000        5.3401        5.3401       3.658672       0.01315
  20     96.49        1.6815        0.0000        5.3155        5.3155       3.634007       0.01361
  19     114.6        1.6817        0.0001        5.2853        5.2854       3.603674       0.01416
  18     136.5        1.6819        0.0001        5.2504        5.2505       3.568575       0.01350
  17     162.9        1.6822        0.0001        5.2111        5.2112       3.528954       0.01266
  16     196.4        1.6827        0.0001        5.1640        5.1641       3.481401       0.01197
  15     218.7        1.6832        0.0001        5.1331        5.1332       3.449972       0.01193
  14     243.0        1.6841        0.0001        5.0962        5.0963       3.412237       0.01309
  13     269.0        1.6854        0.0001        5.0511        5.0512       3.365808       0.01506
  12     297.5        1.6874        0.0001        4.9956        4.9957       3.308335       0.01705
  11     328.5        1.6902        0.0001        4.9304        4.9305       3.240318       0.01849
  10     361.9        1.6940        0.0001        4.8511        4.8512       3.157206       0.02103
   9     398.1        1.6994        0.0002        4.7507        4.7508       3.051472       0.02463
   8     437.6        1.7068        0.0002        4.6220        4.6222       2.915411       0.02909
   7     480.5        1.7171        0.0002        4.4625        4.4627       2.745535       0.03336
   6     533.0        1.7340        0.0002        4.2460        4.2462       2.512209       0.03753
   5     589.8        1.7599        0.0002        3.9954        3.9956       2.235669       0.04105
   4     651.6        1.8030        0.0002        3.7089        3.7091       1.906050       0.04508
   3     718.7        1.8749        0.0002        3.4018        3.4020       1.527130       0.04762
   2     792.3        2.0074        0.0002        3.0564        3.0567       1.049270       0.05481
   1     891.5        0.1505        0.8112        0.0105        0.8217       0.671221       0.03217
   0    1013.0        0.1726        0.6782        0.0085        0.6867       0.514079       0.01091



 Wavenumbers:  3250. -  4000. cm-1, ATM      1
 LEVEL PRESSURE   UPWARD FLUX   DIFDOWN FLUX  DIRDOWN FLUX  DOWNWARD FLUX   NET FLUX    HEATING RATE
          mb          W/m2          W/m2          W/m2        W/m2          W/m2       degree/day
  51    .06700        0.0525        0.0000        9.1795        9.1795       9.127010       0.00000
  50    .07753        0.0525        0.0000        9.1747        9.1747       9.122167       3.88148
  49    .09103        0.0525        0.0000        9.1713        9.1713       9.118779       2.11747
  48    0.1069        0.0525        0.0000        9.1688        9.1688       9.116254       1.34402
  47    0.1255        0.0525        0.0000        9.1665        9.1665       9.113995       1.02422
  46    0.1487        0.0525        0.0000        9.1641        9.1641       9.111554       0.88991
  45    0.1794        0.0525        0.0000        9.1612        9.1612       9.108676       0.79008
  44    0.2165        0.0525        0.0000        9.1583        9.1583       9.105755       0.66430
  43    0.2613        0.0525        0.0000        9.1553        9.1553       9.102782       0.56041
  42    0.3336        0.0525        0.0000        9.1511        9.1511       9.098603       0.48723
  41    0.4307        0.0525        0.0000        9.1464        9.1464       9.093835       0.41459
  40    0.5894        0.0525        0.0000        9.1393        9.1394       9.086829       0.37255
  39     1.339        0.0525        0.0000        9.1127        9.1127       9.060216       0.29962
  38     1.782        0.0525        0.0000        9.1011        9.1011       9.048628       0.22062
  37     2.292        0.0525        0.0000        9.0901        9.0901       9.037561       0.18329
  36     2.964        0.0525        0.0000        9.0776        9.0776       9.025131       0.15603
  35     3.853        0.0525        0.0000        9.0629        9.0629       9.010341       0.14036
  34     5.035        0.0525        0.0000        9.0441        9.0441       8.991602       0.13386
  33     6.613        0.0525        0.0000        9.0191        9.0191       8.966600       0.13366
  32     8.786        0.0525        0.0000        8.9843        8.9843       8.931817       0.13509
  31     11.80        0.0525        0.0000        8.9327        8.9327       8.880200       0.14451
  30     15.07        0.0525        0.0000        8.8758        8.8759       8.823356       0.14676
  29     18.79        0.0525        0.0000        8.8110        8.8110       8.758528       0.14698
  28     23.16        0.0525        0.0000        8.7365        8.7366       8.684083       0.14395
  27     28.12        0.0525        0.0000        8.6554        8.6555       8.602970       0.13789
  26     33.73        0.0525        0.0000        8.5719        8.5719       8.519471       0.12554
  25     40.54        0.0525        0.0001        8.4812        8.4812       8.428747       0.11255
  24     48.69        0.0525        0.0001        8.3838        8.3839       8.331446       0.10069
  23     57.69        0.0524        0.0001        8.2861        8.2862       8.233710       0.09161
  22     68.43        0.0524        0.0001        8.1751        8.1751       8.122714       0.08726
  21     81.20        0.0524        0.0001        8.0457        8.0458       7.993355       0.08548
  20     96.49        0.0524        0.0001        7.8949        7.8951       7.842652       0.08318
  19     114.6        0.0524        0.0001        7.7162        7.7163       7.663942       0.08344
  18     136.5        0.0524        0.0002        7.5193        7.5195       7.467097       0.07569
  17     162.9        0.0523        0.0002        7.2913        7.2915       7.239205       0.07284
  16     196.4        0.0523        0.0002        6.9660        6.9662       6.913928       0.08188
  15     218.7        0.0523        0.0002        6.6648        6.6650       6.612731       0.11435
  14     243.0        0.0523        0.0002        6.2619        6.2622       6.209914       0.13971
  13     269.0        0.0523        0.0003        5.7576        5.7579       5.705561       0.16361
  12     297.5        0.0524        0.0003        5.1719        5.1722       5.119756       0.17374
  11     328.5        0.0526        0.0002        4.5757        4.5760       4.523398       0.16215
  10     361.9        0.0529        0.0002        3.9995        3.9998       3.946894       0.14586
   9     398.1        0.0534        0.0002        3.4655        3.4657       3.412298       0.12455
   8     437.6        0.0543        0.0002        2.9740        2.9743       2.919953       0.10527
   7     480.5        0.0557        0.0002        2.5307        2.5309       2.475127       0.08736
   6     533.0        0.0585        0.0002        2.0614        2.0616       2.003029       0.07595
   5     589.8        0.0636        0.0002        1.6150        1.6151       1.551479       0.06702
   4     651.6        0.0743        0.0001        1.1565        1.1566       1.082236       0.06417
   3     718.7        0.0979        0.0001        0.7390        0.7391       0.641155       0.05543
   2     792.3        0.1609        0.0001        0.3985        0.3985       0.237600       0.04628
   1     891.5        0.0001        0.0262        0.0005        0.0267       0.026586       0.01796
   0    1013.0        0.0007        0.0027        0.0000        0.0028       0.002062       0.00170



 Wavenumbers:  4000. -  4650. cm-1, ATM      1
 LEVEL PRESSURE   UPWARD FLUX   DIFDOWN FLUX  DIRDOWN FLUX  DOWNWARD FLUX   NET FLUX    HEATING RATE
          mb          W/m2          W/m2          W/m2        W/m2          W/m2       degree/day
  51    .06700        5.4505        0.0000       10.7795       10.7795       5.329025       0.00000
  50    .07753        5.4505        0.0000       10.7795       10.7795       5.329024       0.00080
  49    .09103        5.4505        0.0000       10.7795       10.7795       5.329023       0.00078
  48    0.1069        5.4505        0.0000       10.7795       10.7795       5.329022       0.00077
  47    0.1255        5.4505        0.0000       10.7795       10.7795       5.329020       0.00075
  46    0.1487        5.4505        0.0000       10.7795       10.7795       5.329018       0.00076
  45    0.1794        5.4505        0.0000       10.7795       10.7795       5.329015       0.00078
  44    0.2165        5.4505        0.0000       10.7795       10.7795       5.329012       0.00076
  43    0.2613        5.4505        0.0000       10.7795       10.7795       5.329008       0.00075
  42    0.3336        5.4505        0.0000       10.7795       10.7795       5.329001       0.00077
  41    0.4307        5.4505        0.0000       10.7795       10.7795       5.328992       0.00077
  40    0.5894        5.4505        0.0000       10.7795       10.7795       5.328977       0.00080
  39     1.339        5.4505        0.0000       10.7794       10.7794       5.328888       0.00101
  38     1.782        5.4505        0.0000       10.7793       10.7793       5.328818       0.00133
  37     2.292        5.4505        0.0000       10.7792       10.7792       5.328723       0.00156
  36     2.964        5.4505        0.0000       10.7791       10.7791       5.328583       0.00176
  35     3.853        5.4505        0.0000       10.7789       10.7789       5.328374       0.00198
  34     5.035        5.4505        0.0000       10.7786       10.7786       5.328067       0.00220
  33     6.613        5.4505        0.0000       10.7781       10.7781       5.327614       0.00242
  32     8.786        5.4505        0.0000       10.7774       10.7774       5.326946       0.00260
  31     11.80        5.4505        0.0001       10.7763       10.7764       5.325895       0.00294
  30     15.07        5.4505        0.0001       10.7751       10.7752       5.324662       0.00318
  29     18.79        5.4505        0.0001       10.7736       10.7737       5.323170       0.00338
  28     23.16        5.4505        0.0001       10.7717       10.7718       5.321316       0.00358
  27     28.12        5.4505        0.0001       10.7695       10.7696       5.319070       0.00382
  26     33.73        5.4505        0.0002       10.7667       10.7668       5.316300       0.00417
  25     40.54        5.4506        0.0002       10.7629       10.7631       5.312538       0.00467
  24     48.69        5.4506        0.0002       10.7579       10.7581       5.307521       0.00519
  23     57.69        5.4507        0.0003       10.7520       10.7523       5.301568       0.00558
  22     68.43        5.4508        0.0003       10.7446       10.7449       5.294096       0.00587
  21     81.20        5.4510        0.0004       10.7355       10.7359       5.284882       0.00609
  20     96.49        5.4513        0.0005       10.7245       10.7249       5.273652       0.00620
  19     114.6        5.4517        0.0005       10.7107       10.7113       5.259583       0.00657
  18     136.5        5.4522        0.0006       10.6942       10.6948       5.242596       0.00653
  17     162.9        5.4531        0.0008       10.6740       10.6748       5.221715       0.00667
  16     196.4        5.4545        0.0009       10.6464       10.6473       5.192812       0.00728
  15     218.7        5.4557        0.0010       10.6255       10.6265       5.170761       0.00837
  14     243.0        5.4575        0.0011       10.5980       10.5992       5.141643       0.01010
  13     269.0        5.4602        0.0013       10.5611       10.5623       5.102103       0.01283
  12     297.5        5.4642        0.0014       10.5119       10.5133       5.049134       0.01571
  11     328.5        5.4696        0.0015       10.4499       10.4514       4.981780       0.01831
  10     361.9        5.4767        0.0017       10.3702       10.3718       4.895108       0.02193
   9     398.1        5.4857        0.0018       10.2678       10.2696       4.783894       0.02591
   8     437.6        5.4972        0.0020       10.1390       10.1410       4.643775       0.02996
   7     480.5        5.5120        0.0021        9.9877        9.9898       4.477868       0.03258
   6     533.0        5.5349        0.0023        9.7937        9.7960       4.261173       0.03486
   5     589.8        5.5682        0.0026        9.5752        9.5777       4.009555       0.03735
   4     651.6        5.6223        0.0028        9.2958        9.2986       3.676239       0.04558
   3     718.7        5.7144        0.0030        8.9267        8.9297       3.215293       0.05793
   2     792.3        5.8903        0.0031        8.4542        8.4574       2.567092       0.07434
   1     891.5        0.5705        2.5768        0.0316        2.6084       2.037959       0.04503
   0    1013.0        0.6056        2.3807        0.0287        2.4094       1.803818       0.01626



 Wavenumbers:  4650. -  5150. cm-1, ATM      1
 LEVEL PRESSURE   UPWARD FLUX   DIFDOWN FLUX  DIRDOWN FLUX  DOWNWARD FLUX   NET FLUX    HEATING RATE
          mb          W/m2          W/m2          W/m2        W/m2          W/m2       degree/day
  51    .06700        3.9389        0.0000       10.2033       10.2033       6.264420       0.00000
  50    .07753        3.9389        0.0000       10.2031       10.2031       6.264184       0.18901
  49    .09103        3.9389        0.0000       10.2028       10.2028       6.263889       0.18428
  48    0.1069        3.9389        0.0000       10.2025       10.2025       6.263553       0.17931
  47    0.1255        3.9389        0.0000       10.2021       10.2021       6.263168       0.17426
  46    0.1487        3.9389        0.0000       10.2016       10.2016       6.262687       0.17536
  45    0.1794        3.9389        0.0000       10.2010       10.2010       6.262037       0.17850
  44    0.2165        3.9389        0.0000       10.2002       10.2002       6.261277       0.17277
  43    0.2613        3.9389        0.0000       10.1993       10.1993       6.260392       0.16690
  42    0.3336        3.9389        0.0000       10.1979       10.1979       6.258959       0.16702
  41    0.4307        3.9389        0.0000       10.1960       10.1960       6.257119       0.16002
  40    0.5894        3.9389        0.0000       10.1932       10.1932       6.254245       0.15283
  39     1.339        3.9389        0.0000       10.1816       10.1816       6.242653       0.13051
  38     1.782        3.9389        0.0000       10.1760       10.1760       6.237124       0.10527
  37     2.292        3.9389        0.0000       10.1706       10.1706       6.231667       0.09038
  36     2.964        3.9389        0.0000       10.1646       10.1647       6.225743       0.07437
  35     3.853        3.9389        0.0000       10.1584       10.1584       6.219527       0.05899
  34     5.035        3.9389        0.0000       10.1521       10.1521       6.213188       0.04528
  33     6.613        3.9389        0.0000       10.1456       10.1456       6.206726       0.03455
  32     8.786        3.9389        0.0001       10.1386       10.1386       6.199707       0.02726
  31     11.80        3.9389        0.0001       10.1295       10.1296       6.190650       0.02536
  30     15.07        3.9390        0.0001       10.1196       10.1197       6.180749       0.02556
  29     18.79        3.9390        0.0001       10.1076       10.1077       6.168711       0.02730
  28     23.16        3.9391        0.0002       10.0923       10.0924       6.153362       0.02968
  27     28.12        3.9391        0.0002       10.0731       10.0733       6.134206       0.03256
  26     33.73        3.9392        0.0002       10.0500       10.0503       6.111029       0.03485
  25     40.54        3.9394        0.0003       10.0201       10.0204       6.081009       0.03724
  24     48.69        3.9396        0.0003        9.9820        9.9823       6.042670       0.03967
  23     57.69        3.9399        0.0004        9.9384        9.9388       5.998916       0.04101
  22     68.43        3.9403        0.0005        9.8858        9.8862       5.945885       0.04169
  21     81.20        3.9409        0.0005        9.8234        9.8240       5.883080       0.04150
  20     96.49        3.9417        0.0006        9.7518        9.7524       5.810689       0.03995
  19     114.6        3.9428        0.0008        9.6719        9.6727       5.729847       0.03775
  18     136.5        3.9444        0.0009        9.5858        9.5867       5.642318       0.03366
  17     162.9        3.9465        0.0011        9.4940        9.4951       5.548571       0.02997
  16     196.4        3.9499        0.0013        9.3883        9.3896       5.439700       0.02740
  15     218.7        3.9525        0.0014        9.3229        9.3243       5.371866       0.02575
  14     243.0        3.9558        0.0016        9.2520        9.2535       5.297691       0.02573
  13     269.0        3.9604        0.0017        9.1717        9.1734       5.212997       0.02747
  12     297.5        3.9667        0.0019        9.0763        9.0782       5.111457       0.03012
  11     328.5        3.9750        0.0021        8.9650        8.9670       4.992078       0.03246
  10     361.9        3.9856        0.0022        8.8349        8.8372       4.851570       0.03555
   9     398.1        3.9994        0.0024        8.6820        8.6845       4.685028       0.03880
   8     437.6        4.0174        0.0026        8.5028        8.5054       4.487997       0.04213
   7     480.5        4.0409        0.0028        8.2948        8.2977       4.256743       0.04542
   6     533.0        4.0768        0.0031        8.0209        8.0240       3.947167       0.04980
   5     589.8        4.1268        0.0033        7.7063        7.7096       3.582806       0.05408
   4     651.6        4.2012        0.0035        7.3412        7.3448       3.143588       0.06006
   3     718.7        4.3143        0.0037        6.9387        6.9424       2.628116       0.06478
   2     792.3        4.4967        0.0039        6.5066        6.5105       2.013827       0.07045
   1     891.5        0.4169        1.9402        0.0241        1.9643       1.547431       0.03969
   0    1013.0        0.4495        1.7668        0.0215        1.7884       1.338866       0.01448



 Wavenumbers:  5150. -  6150. cm-1, ATM      1
 LEVEL PRESSURE   UPWARD FLUX   DIFDOWN FLUX  DIRDOWN FLUX  DOWNWARD FLUX   NET FLUX    HEATING RATE
          mb          W/m2          W/m2          W/m2        W/m2          W/m2       degree/day
  51    .06700        9.3334        0.0000       25.5798       25.5798      16.246431       0.00000
  50    .07753        9.3334        0.0000       25.5798       25.5798      16.246392       0.03161
  49    .09103        9.3334        0.0000       25.5797       25.5797      16.246340       0.03210
  48    0.1069        9.3334        0.0000       25.5797       25.5797      16.246279       0.03261
  47    0.1255        9.3334        0.0000       25.5796       25.5796      16.246206       0.03311
  46    0.1487        9.3334        0.0000       25.5795       25.5795      16.246110       0.03488
  45    0.1794        9.3334        0.0000       25.5794       25.5794      16.245975       0.03712
  44    0.2165        9.3334        0.0000       25.5792       25.5792      16.245809       0.03768
  43    0.2613        9.3334        0.0000       25.5790       25.5790      16.245606       0.03826
  42    0.3336        9.3334        0.0000       25.5786       25.5786      16.245260       0.04043
  41    0.4307        9.3334        0.0000       25.5782       25.5782      16.244788       0.04097
  40    0.5894        9.3334        0.0000       25.5774       25.5774      16.243999       0.04198
  39     1.339        9.3334        0.0000       25.5735       25.5736      16.240196       0.04282
  38     1.782        9.3334        0.0001       25.5713       25.5714      16.237981       0.04216
  37     2.292        9.3334        0.0001       25.5688       25.5688      16.235474       0.04152
  36     2.964        9.3334        0.0001       25.5656       25.5657      16.232289       0.03999
  35     3.853        9.3334        0.0001       25.5615       25.5616      16.228240       0.03843
  34     5.035        9.3334        0.0002       25.5562       25.5564      16.223024       0.03726
  33     6.613        9.3334        0.0002       25.5494       25.5496      16.216257       0.03618
  32     8.786        9.3334        0.0003       25.5406       25.5409      16.207485       0.03407
  31     11.80        9.3334        0.0004       25.5287       25.5290      16.195618       0.03322
  30     15.07        9.3334        0.0005       25.5167       25.5172      16.183712       0.03074
  29     18.79        9.3335        0.0006       25.5042       25.5047      16.171259       0.02823
  28     23.16        9.3336        0.0007       25.4907       25.4914      16.157838       0.02595
  27     28.12        9.3336        0.0009       25.4764       25.4773      16.143677       0.02407
  26     33.73        9.3337        0.0010       25.4620       25.4631      16.129311       0.02160
  25     40.54        9.3339        0.0012       25.4463       25.4475      16.113578       0.01952
  24     48.69        9.3342        0.0015       25.4294       25.4309      16.096699       0.01747
  23     57.69        9.3345        0.0018       25.4126       25.4144      16.079907       0.01574
  22     68.43        9.3349        0.0021       25.3944       25.3965      16.061640       0.01436
  21     81.20        9.3354        0.0025       25.3744       25.3769      16.041501       0.01331
  20     96.49        9.3361        0.0030       25.3519       25.3549      16.018834       0.01251
  19     114.6        9.3369        0.0035       25.3262       25.3297      15.992808       0.01215
  18     136.5        9.3379        0.0042       25.2962       25.3004      15.962485       0.01166
  17     162.9        9.3392        0.0050       25.2521       25.2571      15.917918       0.01425
  16     196.4        9.3409        0.0060       25.1593       25.1653      15.824383       0.02354
  15     218.7        9.3422        0.0066       25.0159       25.0226      15.680401       0.05466
  14     243.0        9.3437        0.0073       24.7089       24.7162      15.372481       0.10680
  13     269.0        9.3458        0.0080       24.1619       24.1698      14.824041       0.17791
  12     297.5        9.3486        0.0086       23.4544       23.4630      14.114425       0.21046
  11     328.5        9.3522        0.0093       22.7355       22.7447      13.392494       0.19629
  10     361.9        9.3571        0.0099       21.9224       21.9324      12.575231       0.20678
   9     398.1        9.3638        0.0106       20.9939       21.0045      11.640753       0.21771
   8     437.6        9.3730        0.0112       19.9833       19.9945      10.621558       0.21791
   7     480.5        9.3858        0.0118       18.9483       18.9601       9.574294       0.20568
   6     533.0        9.4077        0.0125       17.7796       17.7921       8.384411       0.19141
   5     589.8        9.4433        0.0132       16.6726       16.6858       7.242515       0.16949
   4     651.6        9.5086        0.0139       15.6343       15.6482       6.139601       0.15083
   3     718.7        9.6289        0.0147       14.7738       14.7885       5.159538       0.12317
   2     792.3        9.8710        0.0155       14.0291       14.0447       4.173688       0.11307
   1     891.5        1.0022        4.3709        0.0531        4.4240       3.421870       0.06398
   0    1013.0        1.0423        4.0982        0.0489        4.1471       3.104739       0.02202



 Wavenumbers:  6150. -  7700. cm-1, ATM      1
 LEVEL PRESSURE   UPWARD FLUX   DIFDOWN FLUX  DIRDOWN FLUX  DOWNWARD FLUX   NET FLUX    HEATING RATE
          mb          W/m2          W/m2          W/m2        W/m2          W/m2       degree/day
  51    .06700       14.9557        0.0000       47.3109       47.3109      32.355160       0.00000
  50    .07753       14.9557        0.0000       47.3108       47.3108      32.355104       0.04553
  49    .09103       14.9557        0.0000       47.3107       47.3107      32.355030       0.04583
  48    0.1069       14.9557        0.0000       47.3106       47.3106      32.354944       0.04614
  47    0.1255       14.9557        0.0000       47.3105       47.3105      32.354841       0.04645
  46    0.1487       14.9557        0.0000       47.3104       47.3104      32.354708       0.04852
  45    0.1794       14.9557        0.0000       47.3102       47.3102      32.354521       0.05127
  44    0.2165       14.9557        0.0000       47.3100       47.3100      32.354294       0.05167
  43    0.2613       14.9557        0.0000       47.3097       47.3097      32.354018       0.05210
  42    0.3336       14.9557        0.0000       47.3092       47.3092      32.353549       0.05471
  41    0.4307       14.9557        0.0000       47.3085       47.3086      32.352914       0.05521
  40    0.5894       14.9557        0.0001       47.3074       47.3075      32.351854       0.05633
  39     1.339       14.9556        0.0002       47.3022       47.3024      32.346762       0.05733
  38     1.782       14.9556        0.0002       47.2991       47.2994      32.343792       0.05655
  37     2.292       14.9555        0.0003       47.2956       47.2959      32.340416       0.05591
  36     2.964       14.9555        0.0004       47.2912       47.2916      32.336098       0.05421
  35     3.853       14.9554        0.0005       47.2855       47.2860      32.330563       0.05252
  34     5.035       14.9553        0.0006       47.2780       47.2787      32.323383       0.05129
  33     6.613       14.9552        0.0008       47.2683       47.2692      32.313995       0.05019
  32     8.786       14.9550        0.0011       47.2556       47.2567      32.301695       0.04777
  31     11.80       14.9547        0.0015       47.2380       47.2395      32.284791       0.04733
  30     15.07       14.9545        0.0019       47.2201       47.2220      32.267503       0.04463
  29     18.79       14.9542        0.0024       47.2008       47.2032      32.249023       0.04190
  28     23.16       14.9538        0.0029       47.1795       47.1825      32.228632       0.03943
  27     28.12       14.9534        0.0036       47.1565       47.1601      32.206637       0.03739
  26     33.73       14.9530        0.0043       47.1324       47.1367      32.183714       0.03447
  25     40.54       14.9524        0.0051       47.1054       47.1105      32.158076       0.03181
  24     48.69       14.9518        0.0062       47.0754       47.0816      32.129820       0.02924
  23     57.69       14.9511        0.0073       47.0449       47.0523      32.101195       0.02683
  22     68.43       14.9502        0.0087       47.0110       47.0197      32.069454       0.02495
  21     81.20       14.9492        0.0103       46.9729       46.9831      32.033955       0.02346
  20     96.49       14.9480        0.0122       46.9294       46.9416      31.993606       0.02227
  19     114.6       14.9465        0.0145       46.8790       46.8935      31.946962       0.02178
  18     136.5       14.9449        0.0172       46.8200       46.8372      31.892323       0.02101
  17     162.9       14.9429        0.0204       46.7361       46.7566      31.813674       0.02514
  16     196.4       14.9405        0.0246       46.5703       46.5949      31.654406       0.04009
  15     218.7       14.9390        0.0273       46.3473       46.3746      31.435557       0.08309
  14     243.0       14.9378        0.0301       45.9299       45.9600      31.022143       0.14339
  13     269.0       14.9373        0.0330       45.1708       45.2037      30.266458       0.24514
  12     297.5       14.9380        0.0357       44.0115       44.0472      29.109159       0.34324
  11     328.5       14.9406        0.0385       42.7242       42.7628      27.822192       0.34992
  10     361.9       14.9458        0.0414       41.3539       41.3953      26.449519       0.34730
   9     398.1       14.9553        0.0442       39.7953       39.8395      24.884164       0.36469
   8     437.6       14.9717        0.0469       37.9948       38.0416      23.069932       0.38789
   7     480.5       14.9981        0.0494       36.0647       36.1141      21.115921       0.38376
   6     533.0       15.0483        0.0520       33.7773       33.8293      18.781033       0.37561
   5     589.8       15.1362        0.0545       31.4082       31.4627      16.326458       0.36434
   4     651.6       15.3066        0.0565       28.8834       28.9398      13.633272       0.36830
   3     718.7       15.6334        0.0582       26.4104       26.4686      10.835163       0.35164
   2     792.3       16.3305        0.0596       24.0056       24.0652       7.734723       0.35559
   1     891.5        1.4914        6.9619        0.0862        7.0481       5.556703       0.18534
   0    1013.0        1.5959        6.2738        0.0756        6.3494       4.753476       0.05577



 Wavenumbers:  7700. -  8050. cm-1, ATM      1
 LEVEL PRESSURE   UPWARD FLUX   DIFDOWN FLUX  DIRDOWN FLUX  DOWNWARD FLUX   NET FLUX    HEATING RATE
          mb          W/m2          W/m2          W/m2        W/m2          W/m2       degree/day
  51    .06700        6.8732        0.0000       11.1810       11.1810       4.307781       0.00000
  50    .07753        6.8732        0.0000       11.1809       11.1809       4.307758       0.01813
  49    .09103        6.8732        0.0000       11.1809       11.1809       4.307730       0.01776
  48    0.1069        6.8732        0.0000       11.1809       11.1809       4.307697       0.01739
  47    0.1255        6.8732        0.0000       11.1809       11.1809       4.307660       0.01702
  46    0.1487        6.8732        0.0000       11.1808       11.1808       4.307612       0.01727
  45    0.1794        6.8732        0.0000       11.1808       11.1808       4.307548       0.01777
  44    0.2165        6.8732        0.0000       11.1807       11.1807       4.307471       0.01743
  43    0.2613        6.8733        0.0000       11.1806       11.1806       4.307380       0.01710
  42    0.3336        6.8733        0.0000       11.1805       11.1805       4.307230       0.01750
  41    0.4307        6.8733        0.0000       11.1803       11.1804       4.307031       0.01731
  40    0.5894        6.8734        0.0000       11.1801       11.1801       4.306706       0.01729
  39     1.339        6.8737        0.0001       11.1788       11.1789       4.305167       0.01732
  38     1.782        6.8739        0.0001       11.1781       11.1782       4.304264       0.01720
  37     2.292        6.8741        0.0001       11.1772       11.1773       4.303218       0.01733
  36     2.964        6.8744        0.0002       11.1761       11.1762       4.301844       0.01724
  35     3.853        6.8748        0.0002       11.1746       11.1748       4.300030       0.01722
  34     5.035        6.8753        0.0003       11.1726       11.1729       4.297619       0.01722
  33     6.613        6.8759        0.0004       11.1700       11.1703       4.294400       0.01721
  32     8.786        6.8768        0.0005       11.1664       11.1669       4.290062       0.01685
  31     11.80        6.8781        0.0007       11.1613       11.1620       4.283861       0.01736
  30     15.07        6.8795        0.0009       11.1558       11.1567       4.277206       0.01718
  29     18.79        6.8811        0.0011       11.1497       11.1508       4.269696       0.01703
  28     23.16        6.8829        0.0013       11.1425       11.1438       4.260933       0.01694
  27     28.12        6.8850        0.0016       11.1343       11.1359       4.250926       0.01701
  26     33.73        6.8874        0.0019       11.1252       11.1271       4.239745       0.01681
  25     40.54        6.8903        0.0023       11.1142       11.1165       4.226265       0.01672
  24     48.69        6.8937        0.0028       11.1010       11.1038       4.210054       0.01678
  23     57.69        6.8976        0.0033       11.0866       11.0899       4.192301       0.01664
  22     68.43        6.9022        0.0039       11.0695       11.0734       4.171231       0.01656
  21     81.20        6.9078        0.0046       11.0494       11.0540       4.146236       0.01652
  20     96.49        6.9144        0.0055       11.0255       11.0310       4.116603       0.01636
  19     114.6        6.9224        0.0065       10.9975       11.0041       4.081628       0.01633
  18     136.5        6.9320        0.0077       10.9648       10.9725       4.040458       0.01583
  17     162.9        6.9437        0.0092       10.9263       10.9355       3.991812       0.01555
  16     196.4        6.9590        0.0110       10.8773       10.8883       3.929302       0.01573
  15     218.7        6.9693        0.0123       10.8455       10.8578       3.888546       0.01547
  14     243.0        6.9806        0.0136       10.8114       10.8251       3.844445       0.01530
  13     269.0        6.9931        0.0150       10.7749       10.7899       3.796800       0.01546
  12     297.5        7.0070        0.0166       10.7357       10.7523       3.745342       0.01526
  11     328.5        7.0223        0.0183       10.6937       10.7120       3.689709       0.01513
  10     361.9        7.0393        0.0201       10.6489       10.6690       3.629618       0.01520
   9     398.1        7.0583        0.0220       10.6008       10.6228       3.564493       0.01517
   8     437.6        7.0796        0.0241       10.5491       10.5732       3.493621       0.01515
   7     480.5        7.1035        0.0264       10.4934       10.5198       3.416319       0.01518
   6     533.0        7.1347        0.0291       10.4243       10.4534       3.318719       0.01570
   5     589.8        7.1711        0.0321       10.3479       10.3800       3.208867       0.01631
   4     651.6        7.2149        0.0352       10.2613       10.2966       3.081700       0.01739
   3     718.7        7.2687        0.0386       10.1618       10.2004       2.931695       0.01885
   2     792.3        7.3373        0.0422       10.0439       10.0861       2.748789       0.02098
   1     891.5        0.8224        3.3760        0.0400        3.4160       2.593598       0.01321
   0    1013.0        0.8395        3.3010        0.0390        3.3400       2.500528       0.00646



 Wavenumbers:  8050. - 12850. cm-1, ATM      1
 LEVEL PRESSURE   UPWARD FLUX   DIFDOWN FLUX  DIRDOWN FLUX  DOWNWARD FLUX   NET FLUX    HEATING RATE
          mb          W/m2          W/m2          W/m2        W/m2          W/m2       degree/day
  51    .06700       89.5945        0.0000      156.5418      156.5418      66.947292       0.00000
  50    .07753       89.5944        0.0000      156.5417      156.5417      66.947292       0.00000
  49    .09103       89.5944        0.0001      156.5417      156.5417      66.947292       0.00000
  48    0.1069       89.5944        0.0001      156.5416      156.5417      66.947292       0.00000
  47    0.1255       89.5944        0.0002      156.5415      156.5417      66.947292       0.00000
  46    0.1487       89.5944        0.0002      156.5414      156.5417      66.947292       0.00000
  45    0.1794       89.5943        0.0003      156.5413      156.5416      66.947292       0.00000
  44    0.2165       89.5943        0.0004      156.5412      156.5416      66.947292      -0.00000
  43    0.2613       89.5942        0.0005      156.5410      156.5415      66.947292       0.00000
  42    0.3336       89.5941        0.0007      156.5407      156.5414      66.947292       0.00000
  41    0.4307       89.5940        0.0010      156.5403      156.5413      66.947292      -0.00000
  40    0.5894       89.5939        0.0015      156.5397      156.5411      66.947292       0.00000
  39     1.339       89.5930        0.0035      156.5367      156.5403      66.947292      -0.00000
  38     1.782       89.5925        0.0048      156.5350      156.5398      66.947292      -0.00000
  37     2.292       89.5919        0.0062      156.5330      156.5392      66.947292       0.00000
  36     2.964       89.5911        0.0081      156.5303      156.5384      66.947292       0.00000
  35     3.853       89.5901        0.0105      156.5268      156.5374      66.947292      -0.00000
  34     5.035       89.5887        0.0138      156.5222      156.5360      66.947292       0.00000
  33     6.613       89.5869        0.0182      156.5160      156.5342      66.947292      -0.00000
  32     8.786       89.5844        0.0241      156.5076      156.5317      66.947292       0.00000
  31     11.80       89.5809        0.0325      156.4957      156.5282      66.947292       0.00000
  30     15.07       89.5771        0.0416      156.4828      156.5244      66.947292       0.00000
  29     18.79       89.5728        0.0519      156.4682      156.5201      66.947292      -0.00000
  28     23.16       89.5678        0.0639      156.4512      156.5151      66.947292       0.00000
  27     28.12       89.5621        0.0777      156.4317      156.5094      66.947292      -0.00000
  26     33.73       89.5557        0.0931      156.4099      156.5030      66.947292       0.00000
  25     40.54       89.5479        0.1118      156.3834      156.4952      66.947292      -0.00000
  24     48.69       89.5385        0.1343      156.3515      156.4858      66.947292      -0.00000
  23     57.69       89.5282        0.1591      156.3164      156.4755      66.947292       0.00000
  22     68.43       89.5159        0.1886      156.2746      156.4632      66.947292       0.00000
  21     81.20       89.5012        0.2239      156.2246      156.4485      66.947292      -0.00000
  20     96.49       89.4837        0.2660      156.1649      156.4310      66.947292       0.00000
  19     114.6       89.4630        0.3161      156.0879      156.4041      66.941053       0.00291
  18     136.5       89.4384        0.3756      155.9962      156.3718      66.933314       0.00298
  17     162.9       89.4092        0.4466      155.8831      156.3296      66.920474       0.00410
  16     196.4       89.3713        0.5389      155.7199      156.2588      66.887576       0.00828
  15     218.7       89.3467        0.5996      155.5733      156.1729      66.826189       0.02331
  14     243.0       89.3210        0.6656      155.3367      156.0022      66.681210       0.05028
  13     269.0       89.2957        0.7369      154.9514      155.6883      66.392673       0.09360
  12     297.5       89.2730        0.8137      154.3896      155.2033      65.930348       0.13712
  11     328.5       89.2545        0.8965      153.7151      154.6116      65.357082       0.15587
  10     361.9       89.2435        0.9853      152.9087      153.8941      64.650524       0.17877
   9     398.1       89.2455        1.0803      151.8986      152.9789      63.733398       0.21367
   8     437.6       89.2698        1.1813      150.6031      151.7844      62.514575       0.26059
   7     480.5       89.3280        1.2879      149.0014      150.2893      60.961343       0.30505
   6     533.0       89.4605        1.4169      146.7375      148.1544      58.693903       0.36476
   5     589.8       89.7170        1.5517      143.8730      145.4247      55.707711       0.44325
   4     651.6       90.2375        1.6896      140.0955      141.7851      51.547591       0.56891
   3     718.7       91.2313        1.8290      135.5278      137.3568      46.125513       0.68140
   2     792.3       93.2294        1.9663      130.0690      132.0353      38.805869       0.83948
   1     891.5        9.5753       41.6637        0.4959       42.1596      32.584256       0.52943
   0    1013.0        9.9688       39.2058        0.4586       39.6644      29.695647       0.20057



 Wavenumbers: 12850. - 16000. cm-1, ATM      1
 LEVEL PRESSURE   UPWARD FLUX   DIFDOWN FLUX  DIRDOWN FLUX  DOWNWARD FLUX   NET FLUX    HEATING RATE
          mb          W/m2          W/m2          W/m2        W/m2          W/m2       degree/day
  51    .06700       67.7146        0.0000       98.0872       98.0872      30.372646       0.00000
  50    .07753       67.7146        0.0001       98.0864       98.0864      30.371856       0.63306
  49    .09103       67.7146        0.0002       98.0853       98.0854      30.370865       0.61979
  48    0.1069       67.7146        0.0002       98.0841       98.0843      30.369726       0.60623
  47    0.1255       67.7146        0.0004       98.0826       98.0830      30.368418       0.59294
  46    0.1487       67.7146        0.0005       98.0809       98.0814      30.366768       0.60134
  45    0.1794       67.7146        0.0007       98.0784       98.0791      30.364525       0.61574
  44    0.2165       67.7147        0.0009       98.0756       98.0765      30.361889       0.59978
  43    0.2613       67.7147        0.0012       98.0723       98.0735      30.358790       0.58399
  42    0.3336       67.7149        0.0016       98.0670       98.0687      30.353739       0.58897
  41    0.4307       67.7152        0.0022       98.0602       98.0624      30.347214       0.56734
  40    0.5894       67.7158        0.0032       98.0496       98.0528      30.336950       0.54583
  39     1.339       67.7214        0.0078       98.0043       98.0121      30.290739       0.52025
  38     1.782       67.7266        0.0105       97.9793       97.9897      30.263190       0.52448
  37     2.292       67.7343        0.0136       97.9498       97.9634      30.229012       0.56608
  36     2.964       67.7473        0.0177       97.9088       97.9265      30.179172       0.62565
  35     3.853       67.7683        0.0231       97.8503       97.8734      30.105103       0.70293
  34     5.035       67.8000        0.0302       97.7680       97.7982      29.998237       0.76340
  33     6.613       67.8442        0.0398       97.6562       97.6960      29.851740       0.78317
  32     8.786       67.9018        0.0526       97.5107       97.5633      29.661502       0.73881
  31     11.80       67.9767        0.0710       97.3179       97.3889      29.412214       0.69793
  30     15.07       68.0483        0.0907       97.1283       97.2191      29.170799       0.62329
  29     18.79       68.1213        0.1130       96.9300       97.0430      28.921751       0.56467
  28     23.16       68.1974        0.1390       96.7166       96.8555      28.658105       0.50980
  27     28.12       68.2739        0.1686       96.4935       96.6621      28.388232       0.45877
  26     33.73       68.3443        0.2018       96.2731       96.4749      28.130672       0.38725
  25     40.54       68.4117        0.2420       96.0408       96.2827      27.871054       0.32209
  24     48.69       68.4759        0.2903       95.7946       96.0849      27.609014       0.27117
  23     57.69       68.5299        0.3434       95.5573       95.9007      27.370847       0.22325
  22     68.43       68.5763        0.4067       95.3106       95.7173      27.141044       0.18066
  21     81.20       68.6071        0.4822       95.0643       95.5466      26.939453       0.13321
  20     96.49       68.6212        0.5723       94.8153       95.3876      26.766340       0.09555
  19     114.6       68.6359        0.6801       94.5411       95.2212      26.585292       0.08454
  18     136.5       68.6437        0.8079       94.2320       95.0399      26.396201       0.07271
  17     162.9       68.6445        0.9600       93.8753       94.8353      26.190874       0.06563
  16     196.4       68.6270        1.1572       93.4347       94.5919      25.964944       0.05687
  15     218.7       68.6090        1.2867       93.1513       94.4380      25.828994       0.05162
  14     243.0       68.5870        1.4275       92.8439       94.2714      25.684402       0.05015
  13     269.0       68.5609        1.5799       92.5111       94.0910      25.530084       0.05006
  12     297.5       68.5315        1.7446       92.1495       93.8941      25.362526       0.04970
  11     328.5       68.5006        1.9224       91.7554       93.6778      25.177245       0.05038
  10     361.9       68.4692        2.1139       91.3262       93.4401      24.970863       0.05222
   9     398.1       68.4390        2.3197       90.8575       93.1772      24.738284       0.05419
   8     437.6       68.4131        2.5405       90.3418       92.8823      24.469239       0.05752
   7     480.5       68.3949        2.7769       89.7728       92.5497      24.154824       0.06175
   6     533.0       68.3905        3.0672       89.0428       92.1101      23.719536       0.07002
   5     589.8       68.4190        3.3788       88.2038       91.5827      23.163656       0.08251
   4     651.6       68.5167        3.7111       87.1979       90.9090      22.392390       0.10547
   3     718.7       68.7125        4.0627       86.0161       90.0788      21.366371       0.12894
   2     792.3       69.0918        4.4298       84.5970       89.0268      19.934998       0.16416
   1     891.5       20.3725       38.5633        0.3347       38.8980      18.525457       0.11995
   0    1013.0       20.6501       37.7749        0.3232       38.0981      17.448066       0.07481



 Wavenumbers: 16000. - 22650. cm-1, ATM      1
 LEVEL PRESSURE   UPWARD FLUX   DIFDOWN FLUX  DIRDOWN FLUX  DOWNWARD FLUX   NET FLUX    HEATING RATE
          mb          W/m2          W/m2          W/m2        W/m2          W/m2       degree/day
  51    .06700      124.3748        0.0000      156.3892      156.3892      32.014413       0.00000
  50    .07753      124.3748        0.0004      156.3887      156.3891      32.014273       0.11233
  49    .09103      124.3747        0.0009      156.3879      156.3888      32.014069       0.12740
  48    0.1069      124.3747        0.0014      156.3871      156.3885      32.013796       0.14528
  47    0.1255      124.3747        0.0020      156.3861      156.3881      32.013431       0.16560
  46    0.1487      124.3746        0.0028      156.3847      156.3875      32.012893       0.19623
  45    0.1794      124.3747        0.0039      156.3828      156.3867      32.012051       0.23105
  44    0.2165      124.3748        0.0052      156.3805      156.3857      32.010910       0.25968
  43    0.2613      124.3750        0.0067      156.3776      156.3843      32.009361       0.29194
  42    0.3336      124.3754        0.0092      156.3726      156.3819      32.006416       0.34331
  41    0.4307      124.3763        0.0125      156.3657      156.3783      32.001978       0.38592
  40    0.5894      124.3782        0.0180      156.3537      156.3717      31.993513       0.45016
  39     1.339      124.3962        0.0437      156.2834      156.3272      31.930973       0.70408
  38     1.782      124.4135        0.0589      156.2324      156.2912      31.877699       1.01426
  37     2.292      124.4399        0.0764      156.1641      156.2405      31.800585       1.27720
  36     2.964      124.4842        0.0993      156.0605      156.1598      31.675666       1.56812
  35     3.853      124.5563        0.1297      155.9041      156.0337      31.477460       1.88100
  34     5.035      124.6655        0.1699      155.6774      155.8473      31.181781       2.11221
  33     6.613      124.8183        0.2236      155.3656      155.5892      30.770926       2.19643
  32     8.786      125.0171        0.2958      154.9577      155.2535      30.236403       2.07589
  31     11.80      125.2752        0.3990      154.4153      154.8143      29.539150       1.95209
  30     15.07      125.5215        0.5097      153.8804      154.3900      28.868587       1.73126
  29     18.79      125.7720        0.6344      153.3191      153.9535      28.181503       1.55783
  28     23.16      126.0327        0.7799      152.7126      153.4924      27.459754       1.39563
  27     28.12      126.2934        0.9459      152.0755      153.0214      26.727992       1.24394
  26     33.73      126.5316        1.1316      151.4409      152.5725      26.040851       1.03314
  25     40.54      126.7574        1.3556      150.7637      152.1193      25.361908       0.84231
  24     48.69      126.9692        1.6253      150.0338      151.6591      24.689952       0.69537
  23     57.69      127.1436        1.9212      149.3151      151.2363      24.092699       0.55983
  22     68.43      127.2885        2.2731      148.5476      150.8207      23.532206       0.44062
  21     81.20      127.3749        2.6919      147.7517      150.4436      23.068690       0.30628
  20     96.49      127.3980        3.1904      146.9127      150.1030      22.705054       0.20070
  19     114.6      127.3842        3.7803      145.9763      149.7566      22.372468       0.15529
  18     136.5      127.3400        4.4767      144.9088      149.3854      22.045398       0.12577
  17     162.9      127.2623        5.3016      143.6785      148.9802      21.717894       0.10468
  16     196.4      127.1071        6.3655      142.1651      148.5305      21.423467       0.07411
  15     218.7      126.9852        7.0603      141.2033      148.2637      21.278469       0.05505
  14     243.0      126.8436        7.8121      140.1753      147.9874      21.143820       0.04670
  13     269.0      126.6807        8.6228      139.0797      147.7024      21.021769       0.03959
  12     297.5      126.4956        9.4941      137.9141      147.4082      20.912635       0.03237
  11     328.5      126.2915       10.4302      136.6676      147.0978      20.806372       0.02889
  10     361.9      126.0679       11.4318      135.3392      146.7710      20.703084       0.02613
   9     398.1      125.8241       12.5026      133.9235      146.4260      20.601881       0.02358
   8     437.6      125.5607       13.6442      132.4163      146.0604      20.499725       0.02184
   7     480.5      125.2770       14.8586      130.8147      145.6733      20.396268       0.02032
   6     533.0      124.9279       16.3405      128.8599      145.2004      20.272527       0.01991
   5     589.8      124.5553       17.9222      126.7679      144.6902      20.134902       0.02043
   4     651.6      124.1647       19.6048      124.5274      144.1322      19.967503       0.02289
   3     718.7      123.7618       21.3894      122.1285      143.5179      19.756057       0.02657
   2     792.3      123.3621       23.2734      119.5548      142.8282      19.466108       0.03325
   1     891.5       68.2319       86.8650        0.4710       87.3360      19.104078       0.03081
   0    1013.0       68.1827       86.4242        0.4539       86.8781      18.695406       0.02838



 Wavenumbers: 22650. - 29000. cm-1, ATM      1
 LEVEL PRESSURE   UPWARD FLUX   DIFDOWN FLUX  DIRDOWN FLUX  DOWNWARD FLUX   NET FLUX    HEATING RATE
          mb          W/m2          W/m2          W/m2        W/m2          W/m2       degree/day
  51    .06700       51.7288        0.0000       59.0156       59.0156       7.286799       0.00000
  50    .07753       51.7287        0.0004       59.0151       59.0155       7.286799      -0.00000
  49    .09103       51.7286        0.0010       59.0144       59.0154       7.286799       0.00000
  48    0.1069       51.7284        0.0016       59.0136       59.0152       7.286799       0.00000
  47    0.1255       51.7282        0.0024       59.0127       59.0150       7.286799       0.00000
  46    0.1487       51.7280        0.0033       59.0115       59.0148       7.286799      -0.00000
  45    0.1794       51.7277        0.0045       59.0099       59.0145       7.286799       0.00000
  44    0.2165       51.7273        0.0060       59.0080       59.0141       7.286799      -0.00000
  43    0.2613       51.7268        0.0078       59.0058       59.0136       7.286799       0.00000
  42    0.3336       51.7261        0.0107       59.0022       59.0129       7.286799      -0.00000
  41    0.4307       51.7251        0.0146       58.9973       59.0119       7.286799       0.00000
  40    0.5894       51.7235        0.0210       58.9894       59.0103       7.286799      -0.00000
  39     1.339       51.7160        0.0510       58.9518       59.0028       7.286799       0.00000
  38     1.782       51.7115        0.0686       58.9297       58.9983       7.286799       0.00000
  37     2.292       51.7064        0.0890       58.9042       58.9932       7.286799       0.00000
  36     2.964       51.6996        0.1158       58.8706       58.9864       7.286799       0.00000
  35     3.853       51.6907        0.1511       58.8264       58.9775       7.286799      -0.00000
  34     5.035       51.6788        0.1981       58.7676       58.9656       7.286799       0.00000
  33     6.613       51.6630        0.2607       58.6891       58.9498       7.286799       0.00000
  32     8.786       51.6417        0.3451       58.5834       58.9285       7.286799      -0.00000
  31     11.80       51.6112        0.4656       58.4324       58.8980       7.286799       0.00000
  30     15.07       51.5786        0.5947       58.2706       58.8654       7.286799      -0.00000
  29     18.79       51.5417        0.7403       58.0882       58.8285       7.286799       0.00000
  28     23.16       51.4987        0.9098       57.8757       58.7855       7.286799       0.00000
  27     28.12       51.4497        1.1031       57.6333       58.7365       7.286799       0.00000
  26     33.73       51.3949        1.3187       57.3631       58.6817       7.286799       0.00000
  25     40.54       51.3290        1.5779       57.0379       58.6158       7.286799      -0.00000
  24     48.69       51.2497        1.8887       56.6479       58.5365       7.286799       0.00000
  23     57.69       51.1631        2.2278       56.2221       58.4499       7.286799       0.00000
  22     68.43       51.0604        2.6287       55.7186       58.3472       7.286799      -0.00000
  21     81.20       50.9389        3.1018       55.1239       58.2257       7.286799      -0.00000
  20     96.49       50.7952        3.6592       54.4228       58.0820       7.286799       0.00000
  19     114.6       50.6262        4.3121       53.6010       57.9130       7.286799      -0.00000
  18     136.5       50.4282        5.0732       52.6418       57.7150       7.286799       0.00000
  17     162.9       50.1955        5.9620       51.5203       57.4823       7.286799      -0.00000
  16     196.4       49.8988        7.0862       50.0994       57.1856       7.286799       0.00000
  15     218.7       49.7070        7.8075       49.1863       56.9938       7.286799      -0.00000
  14     243.0       49.5011        8.5767       48.2113       56.7879       7.286799       0.00000
  13     269.0       49.2811        9.3930       47.1749       56.5679       7.286799       0.00000
  12     297.5       49.0468       10.2553       46.0783       56.3336       7.286799       0.00000
  11     328.5       48.7976       11.1648       44.9195       56.0844       7.286799       0.00000
  10     361.9       48.5337       12.1186       43.7018       55.8205       7.286799       0.00000
   9     398.1       48.2547       13.1164       42.4250       55.5415       7.286799       0.00000
   8     437.6       47.9606       14.1558       41.0916       55.2474       7.286799       0.00000
   7     480.5       47.6516       15.2339       39.7045       54.9384       7.286799      -0.00000
   6     533.0       47.2796       16.5121       38.0543       54.5664       7.286799       0.00000
   5     589.8       46.8883       17.8320       36.3431       54.1751       7.286799       0.00000
   4     651.6       46.4785       19.1857       34.5795       53.7653       7.286799      -0.00000
   3     718.7       46.0504       20.5670       32.7702       53.3372       7.286799       0.00000
   2     792.3       45.6051       21.9663       30.9256       52.8919       7.286799       0.00000
   1     891.5       26.8217       33.9921        0.1160       34.1081       7.286414       0.00003
   0    1013.0       26.5668       33.7478        0.1054       33.8533       7.286414      -0.00000



 Wavenumbers: 29000. - 38000. cm-1, ATM      1
 LEVEL PRESSURE   UPWARD FLUX   DIFDOWN FLUX  DIRDOWN FLUX  DOWNWARD FLUX   NET FLUX    HEATING RATE
          mb          W/m2          W/m2          W/m2        W/m2          W/m2       degree/day
  51    .06700        7.8445        0.0000       20.8114       20.8114      12.966857       0.00000
  50    .07753        7.8443        0.0003       20.8070       20.8074      12.963051       3.05061
  49    .09103        7.8441        0.0007       20.8009       20.8016      12.957515       3.45977
  48    0.1069        7.8438        0.0012       20.7928       20.7939      12.950108       3.94304
  47    0.1255        7.8435        0.0017       20.7820       20.7837      12.940206       4.48889
  46    0.1487        7.8431        0.0023       20.7665       20.7688      12.925648       5.30669
  45    0.1794        7.8427        0.0032       20.7424       20.7457      12.902991       6.21995
  44    0.2165        7.8421        0.0043       20.7103       20.7146      12.872478       6.94101
  43    0.2613        7.8415        0.0055       20.6675       20.6730      12.831498       7.72459
  42    0.3336        7.8405        0.0075       20.5880       20.5955      12.754965       8.92296
  41    0.4307        7.8394        0.0102       20.4722       20.4824      12.643056       9.73025
  40    0.5894        7.8376        0.0144       20.2637       20.2781      12.440457      10.77396
  39     1.339        7.8332        0.0324       19.0984       19.1308      11.297623      12.86623
  38     1.782        7.8329        0.0418       18.4394       18.4811      10.648242      12.36317
  37     2.292        7.8345        0.0518       17.7714       17.8232       9.988669      10.92426
  36     2.964        7.8395        0.0641       17.0421       17.1063       9.266772       9.06199
  35     3.853        7.8499        0.0796       16.2678       16.3474       8.497512       7.30041
  34     5.035        7.8676        0.0991       15.4803       15.5794       7.711852       5.61243
  33     6.613        7.8936        0.1241       14.7157       14.8398       6.946183       4.09326
  32     8.786        7.9279        0.1567       13.9936       14.1503       6.222330       2.81118
  31     11.80        7.9726        0.2021       13.2835       13.4857       5.513062       1.98573
  30     15.07        8.0154        0.2492       12.7394       12.9885       4.973122       1.39402
  29     18.79        8.0594        0.3013       12.2666       12.5679       4.508490       1.05346
  28     23.16        8.1058        0.3604       11.8300       12.1905       4.084676       0.81952
  27     28.12        8.1529        0.4266       11.4279       11.8545       3.701617       0.65118
  26     33.73        8.1955        0.4995       11.0695       11.5690       3.373494       0.49334
  25     40.54        8.2345        0.5865       10.7209       11.3074       3.072849       0.37298
  24     48.69        8.2698        0.6896       10.3742       11.0638       2.793992       0.28857
  23     57.69        8.2966        0.8010       10.0549       10.8559       2.559312       0.21998
  22     68.43        8.3152        0.9316        9.7327       10.6644       2.349150       0.16522
  21     81.20        8.3171        1.0857        9.4134       10.4991       2.181970       0.11047
  20     96.49        8.3002        1.2665        9.0887       10.3552       2.055002       0.07008
  19     114.6        8.2715        1.4750        8.7388       10.2138       1.942251       0.05265
  18     136.5        8.2334        1.7129        8.3549       10.0678       1.834348       0.04149
  17     162.9        8.1854        1.9833        7.9311        9.9144       1.729011       0.03367
  16     196.4        8.1138        2.3171        7.4333        9.7504       1.636617       0.02326
  15     218.7        8.0642        2.5264        7.1295        9.6559       1.591695       0.01706
  14     243.0        8.0102        2.7445        6.8161        9.5606       1.550320       0.01435
  13     269.0        7.9516        2.9706        6.4943        9.4649       1.513268       0.01202
  12     297.5        7.8884        3.2034        6.1657        9.3691       1.480700       0.00966
  11     328.5        7.8217        3.4419        5.8295        9.2714       1.449615       0.00845
  10     361.9        7.7520        3.6835        5.4886        9.1722       1.420151       0.00745
   9     398.1        7.6792        3.9276        5.1440        9.0716       1.392331       0.00648
   8     437.6        7.6038        4.1725        4.7969        8.9694       1.365616       0.00571
   7     480.5        7.5259        4.4159        4.4504        8.8663       1.340366       0.00496
   6     533.0        7.4341        4.6908        4.0563        8.7471       1.312976       0.00441
   5     589.8        7.3402        4.9586        3.6682        8.6268       1.286608       0.00391
   4     651.6        7.2448        5.2152        3.2905        8.5057       1.260972       0.00351
   3     718.7        7.1481        5.4590        2.9252        8.3842       1.236033       0.00313
   2     792.3        7.0509        5.6862        2.5764        8.2627       1.211803       0.00278
   1     891.5        4.3320        5.5112        0.0088        5.5200       1.188038       0.00202
   0    1013.0        4.2555        5.4158        0.0071        5.4229       1.167399       0.00143



 Wavenumbers: 38000. - 50000. cm-1, ATM      1
 LEVEL PRESSURE   UPWARD FLUX   DIFDOWN FLUX  DIRDOWN FLUX  DOWNWARD FLUX   NET FLUX    HEATING RATE
          mb          W/m2          W/m2          W/m2        W/m2          W/m2       degree/day
  51    .06700        0.0061        0.0000        1.2836        1.2836       1.277518       0.00000
  50    .07753        0.0061        0.0001        1.2812        1.2812       1.275183       1.87150
  49    .09103        0.0060        0.0002        1.2777        1.2778       1.271851       2.08247
  48    0.1069        0.0059        0.0002        1.2731        1.2734       1.267473       2.33059
  47    0.1255        0.0058        0.0004        1.2672        1.2675       1.261717       2.60908
  46    0.1487        0.0057        0.0005        1.2586        1.2591       1.253391       3.03499
  45    0.1794        0.0055        0.0007        1.2455        1.2462       1.240623       3.50520
  44    0.2165        0.0054        0.0009        1.2282        1.2291       1.223697       3.85037
  43    0.2613        0.0052        0.0011        1.2054        1.2065       1.201348       4.21261
  42    0.3336        0.0049        0.0015        1.1639        1.1654       1.160524       4.75970
  41    0.4307        0.0045        0.0020        1.1051        1.1070       1.102565       5.03943
  40    0.5894        0.0039        0.0026        1.0039        1.0064       1.002524       5.32007
  39     1.339        0.0022        0.0035        0.5438        0.5473       0.545104       5.14971
  38     1.782        0.0016        0.0032        0.3635        0.3666       0.365006       3.42879
  37     2.292        0.0012        0.0027        0.2356        0.2383       0.237058       2.11916
  36     2.964        0.0009        0.0022        0.1455        0.1477       0.146786       1.13318
  35     3.853        0.0006        0.0017        0.0858        0.0875       0.086906       0.56828
  34     5.035        0.0004        0.0013        0.0488        0.0501       0.049701       0.26578
  33     6.613        0.0003        0.0010        0.0273        0.0282       0.027974       0.11615
  32     8.786        0.0002        0.0007        0.0144        0.0151       0.014928       0.05067
  31     11.80        0.0001        0.0004        0.0065        0.0070       0.006903       0.02247
  30     15.07        0.0000        0.0003        0.0031        0.0034       0.003329       0.00923
  29     18.79        0.0000        0.0002        0.0014        0.0016       0.001583       0.00396
  28     23.16        0.0000        0.0001        0.0006        0.0007       0.000720       0.00167
  27     28.12        0.0000        0.0001        0.0003        0.0003       0.000317       0.00069
  26     33.73        0.0000        0.0000        0.0001        0.0001       0.000140       0.00027
  25     40.54        0.0000        0.0000        0.0000        0.0001       0.000057       0.00010
  24     48.69        0.0000        0.0000        0.0000        0.0000       0.000021       0.00004
  23     57.69        0.0000        0.0000        0.0000        0.0000       0.000008       0.00001
  22     68.43        0.0000        0.0000        0.0000        0.0000       0.000003       0.00000
  21     81.20        0.0000        0.0000        0.0000        0.0000       0.000001       0.00000
  20     96.49        0.0000        0.0000        0.0000        0.0000       0.000000       0.00000
  19     114.6        0.0000        0.0000        0.0000        0.0000       0.000000       0.00000
  18     136.5        0.0000        0.0000        0.0000        0.0000       0.000000       0.00000
  17     162.9        0.0000        0.0000        0.0000        0.0000       0.000000       0.00000
  16     196.4        0.0000        0.0000        0.0000        0.0000       0.000000       0.00000
  15     218.7        0.0000        0.0000        0.0000        0.0000       0.000000       0.00000
  14     243.0        0.0000        0.0000        0.0000        0.0000       0.000000       0.00000
  13     269.0        0.0000        0.0000        0.0000        0.0000       0.000000       0.00000
  12     297.5        0.0000        0.0000        0.0000        0.0000       0.000000       0.00000
  11     328.5        0.0000        0.0000        0.0000        0.0000       0.000000       0.00000
  10     361.9        0.0000        0.0000        0.0000        0.0000       0.000000       0.00000
   9     398.1        0.0000        0.0000        0.0000        0.0000       0.000000       0.00000
   8     437.6        0.0000        0.0000        0.0000        0.0000       0.000000       0.00000
   7     480.5        0.0000        0.0000        0.0000        0.0000       0.000000       0.00000
   6     533.0        0.0000        0.0000        0.0000        0.0000       0.000000       0.00000
   5     589.8        0.0000        0.0000        0.0000        0.0000       0.000000       0.00000
   4     651.6        0.0000        0.0000        0.0000        0.0000       0.000000       0.00000
   3     718.7        0.0000        0.0000        0.0000        0.0000       0.000000       0.00000
   2     792.3        0.0000        0.0000        0.0000        0.0000       0.000000       0.00000
   1     891.5        0.0000        0.0000        0.0000        0.0000       0.000000       0.00000
   0    1013.0        0.0000        0.0000        0.0000        0.0000       0.000000       0.00000



 Wavenumbers:   820. -  2600. cm-1, ATM      1
 LEVEL PRESSURE   UPWARD FLUX   DIFDOWN FLUX  DIRDOWN FLUX  DOWNWARD FLUX   NET FLUX    HEATING RATE
          mb          W/m2          W/m2          W/m2        W/m2          W/m2       degree/day
  51    .06700        1.3038        0.0000        6.0047        6.0047       4.700900       0.00000
  50    .07753        1.3038        0.0000        6.0008        6.0008       4.697047       3.08824
  49    .09103        1.3038        0.0000        5.9999        5.9999       4.696161       0.55361
  48    0.1069        1.3038        0.0000        5.9989        5.9989       4.695172       0.52655
  47    0.1255        1.3038        0.0000        5.9978        5.9978       4.694055       0.50653
  46    0.1487        1.3038        0.0000        5.9964        5.9964       4.692698       0.49460
  45    0.1794        1.3038        0.0000        5.9947        5.9947       4.690978       0.47203
  44    0.2165        1.3038        0.0000        5.9929        5.9929       4.689136       0.41914
  43    0.2613        1.3038        0.0000        5.9909        5.9909       4.687176       0.36936
  42    0.3336        1.3038        0.0000        5.9880        5.9880       4.684298       0.33560
  41    0.4307        1.3038        0.0000        5.9846        5.9846       4.680828       0.30169
  40    0.5894        1.3038        0.0000        5.9791        5.9791       4.675322       0.29280
  39     1.339        1.3038        0.0000        5.9536        5.9536       4.649831       0.28698
  38     1.782        1.3038        0.0000        5.9395        5.9395       4.635691       0.26921
  37     2.292        1.3038        0.0000        5.9237        5.9237       4.619937       0.26092
  36     2.964        1.3038        0.0000        5.9039        5.9039       4.600160       0.24827
  35     3.853        1.3038        0.0000        5.8793        5.8793       4.575499       0.23403
  34     5.035        1.3038        0.0000        5.8487        5.8487       4.544930       0.21837
  33     6.613        1.3038        0.0000        5.8108        5.8108       4.506958       0.20300
  32     8.786        1.3038        0.0000        5.7631        5.7631       4.459324       0.18499
  31     11.80        1.3038        0.0000        5.7039        5.7039       4.400051       0.16594
  30     15.07        1.3039        0.0000        5.6539        5.6539       4.349995       0.12924
  29     18.79        1.3039        0.0000        5.6127        5.6127       4.308839       0.09331
  28     23.16        1.3039        0.0000        5.5794        5.5794       4.275438       0.06459
  27     28.12        1.3040        0.0000        5.5518        5.5518       4.247841       0.04691
  26     33.73        1.3040        0.0000        5.5268        5.5268       4.222754       0.03772
  25     40.54        1.3041        0.0000        5.4993        5.4993       4.195268       0.03410
  24     48.69        1.3041        0.0000        5.4678        5.4678       4.163673       0.03270
  23     57.69        1.3042        0.0000        5.4340        5.4340       4.129824       0.03173
  22     68.43        1.3043        0.0000        5.3947        5.3948       4.090476       0.03093
  21     81.20        1.3044        0.0000        5.3497        5.3497       4.045350       0.02982
  20     96.49        1.3045        0.0000        5.2982        5.2982       3.993722       0.02850
  19     114.6        1.3047        0.0000        5.2389        5.2389       3.934257       0.02777
  18     136.5        1.3048        0.0000        5.1716        5.1717       3.866820       0.02593
  17     162.9        1.3051        0.0000        5.0890        5.0891       3.783930       0.02649
  16     196.4        1.3056        0.0000        4.9668        4.9668       3.661242       0.03088
  15     218.7        1.3061        0.0000        4.8585        4.8585       3.552425       0.04131
  14     243.0        1.3068        0.0000        4.7078        4.7079       3.401074       0.05249
  13     269.0        1.3079        0.0000        4.5343        4.5343       3.226402       0.05666
  12     297.5        1.3096        0.0000        4.3419        4.3420       3.032335       0.05756
  11     328.5        1.3120        0.0000        4.1281        4.1281       2.816168       0.05878
  10     361.9        1.3151        0.0000        3.8786        3.8787       2.563588       0.06391
   9     398.1        1.3191        0.0000        3.6159        3.6160       2.296830       0.06215
   8     437.6        1.3243        0.0000        3.3759        3.3759       2.051546       0.05244
   7     480.5        1.3307        0.0000        3.1957        3.1958       1.865043       0.03663
   6     533.0        1.3405        0.0000        3.0467        3.0467       1.706246       0.02555
   5     589.8        1.3548        0.0000        2.9023        2.9023       1.547528       0.02356
   4     651.6        1.3797        0.0001        2.7183        2.7184       1.338666       0.02856
   3     718.7        1.4228        0.0001        2.5058        2.5059       1.083030       0.03213
   2     792.3        1.5061        0.0001        2.2756        2.2757       0.769605       0.03595
   1     891.5        0.1045        0.6098        0.0080        0.6178       0.513221       0.02182
   0    1013.0        0.1260        0.4951        0.0063        0.5013       0.375306       0.00958

  Modules and versions used in this calculation:

       rrtmg_sw.1col.f90:  $Revision$                    rrtmg_sw_init.f90:  $Revision$        
     rrtmgsw_cldprop.f90:  $Revision$                  rrtmgsw_cldprmc.f90:  NOT USED          
     rrtmg_sw_reftra.f90:  $Revision$                  rrtmg_sw_spcvrt.f90:  NOT USED          
     rrtmg_sw_spcvmc.f90:  NOT USED                    rrtmgsw_setcoef.f90:  NOT USED          
     rrtmg_sw_taumol.f90:  $Revision$                  rrtmg_sw_vrtqdr.f90:  NOT USED          
                rrtatm.f:  NOT USED                             util_xxx.f:  NOT USED          
                 extra.f:  NOT USED                       rrtmg_sw_k_g.f90:  $Revision$        

