

 Wavenumbers:   820. - 50000. cm-1, ATM      1
 LEVEL PRESSURE   UPWARD FLUX   DIFDOWN FLUX  DIRDOWN FLUX  DOWNWARD FLUX   NET FLUX    HEATING RATE
          mb          W/m2          W/m2          W/m2        W/m2          W/m2       degree/day
  51    .06700      316.4796        0.0000      617.8126      617.8126     301.333025       0.00000
  50    .07753      316.4791        0.0013      617.7947      617.7960     301.316903      12.92199
  49    .09103      316.4785        0.0029      617.7778      617.7807     301.302119       9.24015
  48    0.1069      316.4779        0.0047      617.7581      617.7628     301.284892       9.16987
  47    0.1255      316.4772        0.0068      617.7340      617.7408     301.263594       9.65571
  46    0.1487      316.4764        0.0095      617.7009      617.7104     301.233976      10.79604
  45    0.1794      316.4754        0.0132      617.6521      617.6653     301.189851      12.11346
  44    0.2165      316.4743        0.0175      617.5895      617.6070     301.132672      13.00711
  43    0.2613      316.4731        0.0225      617.5089      617.5314     301.058353      14.00890
  42    0.3336      316.4714        0.0309      617.3641      617.3950     300.923635      15.70679
  41    0.4307      316.4695        0.0419      617.1591      617.2010     300.731564      16.70009
  40    0.5894      316.4672        0.0597      616.8005      616.8601     300.392927      18.00829
  39     1.339      316.4719        0.1397      614.9443      615.0839     298.612084      20.04906
  38     1.782      316.4852        0.1846      613.9670      614.1516     297.666419      18.00393
  37     2.292      316.5102        0.2356      613.0059      613.2415     296.731324      15.48761
  36     2.964      316.5574        0.3020      611.9577      612.2596     295.702228      12.91826
  35     3.853      316.6397        0.3889      610.8024      611.1913     294.551587      10.91980
  34     5.035      316.7687        0.5035      609.5327      610.0362     293.267559       9.17257
  33     6.613      316.9515        0.6556      608.1464      608.8020     291.850526       7.57546
  32     8.786      317.1891        0.8596      606.6250      607.4846     290.295528       6.03905
  31     11.80      317.4937        1.1498      604.8486      605.9985     288.504824       5.01341
  30     15.07      317.7796        1.4594      603.2440      604.7034     286.923771       4.08197
  29     18.79      318.0659        1.8076      601.6511      603.4587     285.392830       3.47112
  28     23.16      318.3581        2.2120      599.9927      602.2047     283.846638       2.98983
  27     28.12      318.6426        2.6720      598.2881      600.9601     282.317508       2.59942
  26     33.73      318.8884        3.1847      596.5951      599.7797     280.891373       2.14423
  25     40.54      319.1007        3.8015      594.7727      598.5742     279.473561       1.75896
  24     48.69      319.2747        4.5414      592.7865      597.3278     278.053158       1.46989
  23     57.69      319.3863        5.3496      590.7959      596.1455     276.759132       1.21295
  22     68.43      319.4330        6.3064      588.6191      594.9255     275.492472       0.99576
  21     81.20      319.3687        7.4401      586.2690      593.7090     274.340303       0.76134
  20     96.49      319.1810        8.7812      583.6961      592.4774     273.296331       0.57620
  19     114.6      318.9123       10.3573      580.7708      591.1281     272.215863       0.50450
  18     136.5      318.5580       12.2006      577.4359      589.6365     271.078484       0.43735
  17     162.9      318.1059       14.3606      573.5624      587.9230     269.817119       0.40318
  16     196.4      317.4496       17.1104      568.5907      585.7011     268.251487       0.39409
  15     218.7      316.9959       18.8854      565.0572      583.9426     266.946681       0.49539
  14     243.0      316.4961       20.7865      560.7495      581.5361     265.039931       0.66132
  13     269.0      315.9497       22.8145      555.3947      578.2092     262.259555       0.90194
  12     297.5      315.3586       24.9692      548.9964      573.9656     258.607007       1.08331
  11     328.5      314.7284       27.2558      542.0895      569.3454     254.616952       1.08488
  10     361.9      314.0630       29.6699      534.6242      564.2941     250.231094       1.10967
   9     398.1      313.3665       32.2146      526.4204      558.6351     245.268549       1.15616
   8     437.6      312.6500       34.8876      517.3907      552.2783     239.628224       1.20594
   7     480.5      311.9249       37.6857      507.7216      545.4073     233.482409       1.20701
   6     533.0      311.1112       41.0393      495.9006      536.9399     225.828657       1.23125
   5     589.8      310.3758       44.5451      483.0788      527.6240     217.248171       1.27363
   4     651.6      309.8726       48.1887      468.6907      516.8794     207.006768       1.40054
   3     718.7      309.8073       51.9600      453.2257      505.1857     195.378425       1.46136
   2     792.3      310.7154       55.8357      436.4928      492.3286     181.613189       1.57872
   1     891.5      202.2391      230.3701      137.5940      367.9641     165.725008       1.35201
   0    1013.0      203.4950      225.8886      129.1102      354.9989     151.503869       0.98745



 Wavenumbers:  2600. -  3250. cm-1, ATM      1
 LEVEL PRESSURE   UPWARD FLUX   DIFDOWN FLUX  DIRDOWN FLUX  DOWNWARD FLUX   NET FLUX    HEATING RATE
          mb          W/m2          W/m2          W/m2        W/m2          W/m2       degree/day
  51    .06700        1.0062        0.0000        5.4450        5.4450       4.438851       0.00000
  50    .07753        1.0062        0.0000        5.4450        5.4450       4.438843       0.00640
  49    .09103        1.0062        0.0000        5.4450        5.4450       4.438833       0.00627
  48    0.1069        1.0062        0.0000        5.4450        5.4450       4.438821       0.00613
  47    0.1255        1.0062        0.0000        5.4450        5.4450       4.438808       0.00599
  46    0.1487        1.0062        0.0000        5.4450        5.4450       4.438791       0.00608
  45    0.1794        1.0062        0.0000        5.4450        5.4450       4.438768       0.00625
  44    0.2165        1.0062        0.0000        5.4449        5.4449       4.438741       0.00612
  43    0.2613        1.0062        0.0000        5.4449        5.4449       4.438710       0.00600
  42    0.3336        1.0062        0.0000        5.4448        5.4448       4.438657       0.00617
  41    0.4307        1.0062        0.0000        5.4448        5.4448       4.438585       0.00620
  40    0.5894        1.0062        0.0000        5.4446        5.4446       4.438466       0.00637
  39     1.339        1.0062        0.0000        5.4439        5.4439       4.437758       0.00797
  38     1.782        1.0062        0.0000        5.4434        5.4434       4.437215       0.01034
  37     2.292        1.0062        0.0000        5.4427        5.4427       4.436499       0.01186
  36     2.964        1.0062        0.0000        5.4416        5.4416       4.435461       0.01304
  35     3.853        1.0062        0.0000        5.4402        5.4402       4.433983       0.01402
  34     5.035        1.0062        0.0000        5.4381        5.4381       4.431928       0.01468
  33     6.613        1.0062        0.0000        5.4353        5.4353       4.429146       0.01487
  32     8.786        1.0062        0.0000        5.4317        5.4317       4.425514       0.01411
  31     11.80        1.0062        0.0000        5.4269        5.4269       4.420733       0.01339
  30     15.07        1.0062        0.0000        5.4224        5.4224       4.416205       0.01169
  29     18.79        1.0062        0.0000        5.4180        5.4180       4.411792       0.01001
  28     23.16        1.0062        0.0000        5.4135        5.4135       4.407304       0.00868
  27     28.12        1.0062        0.0000        5.4088        5.4088       4.402653       0.00791
  26     33.73        1.0062        0.0000        5.4036        5.4036       4.397408       0.00789
  25     40.54        1.0062        0.0000        5.3966        5.3967       4.390459       0.00862
  24     48.69        1.0062        0.0000        5.3872        5.3872       4.380971       0.00982
  23     57.69        1.0062        0.0000        5.3754        5.3754       4.369172       0.01106
  22     68.43        1.0063        0.0000        5.3599        5.3599       4.353662       0.01219
  21     81.20        1.0063        0.0000        5.3401        5.3401       4.333796       0.01313
  20     96.49        1.0063        0.0000        5.3155        5.3155       4.309184       0.01358
  19     114.6        1.0064        0.0000        5.2853        5.2854       4.278924       0.01413
  18     136.5        1.0065        0.0001        5.2504        5.2505       4.243928       0.01346
  17     162.9        1.0067        0.0001        5.2111        5.2112       4.204455       0.01262
  16     196.4        1.0070        0.0001        5.1640        5.1641       4.157145       0.01191
  15     218.7        1.0072        0.0001        5.1331        5.1332       4.125952       0.01184
  14     243.0        1.0077        0.0001        5.0962        5.0963       4.088609       0.01295
  13     269.0        1.0084        0.0001        5.0511        5.0512       4.042781       0.01487
  12     297.5        1.0095        0.0001        4.9956        4.9957       3.986223       0.01677
  11     328.5        1.0110        0.0001        4.9304        4.9305       3.919491       0.01814
  10     361.9        1.0131        0.0001        4.8511        4.8512       3.838153       0.02058
   9     398.1        1.0159        0.0001        4.7507        4.7508       3.734886       0.02406
   8     437.6        1.0199        0.0002        4.6220        4.6222       3.602281       0.02835
   7     480.5        1.0254        0.0002        4.4625        4.4626       3.437243       0.03241
   6     533.0        1.0343        0.0002        4.2460        4.2462       3.211884       0.03625
   5     589.8        1.0479        0.0002        3.9954        3.9956       2.947655       0.03922
   4     651.6        1.0703        0.0002        3.7089        3.7090       2.638722       0.04225
   3     718.7        1.1072        0.0002        3.4018        3.4020       2.294840       0.04322
   2     792.3        1.1737        0.0002        3.0564        3.0566       1.882977       0.04724
   1     891.5        0.3461        0.9061        0.8586        1.7647       1.418583       0.03952
   0    1013.0        0.3995        0.7503        0.6930        1.4433       1.043818       0.02602



 Wavenumbers:  3250. -  4000. cm-1, ATM      1
 LEVEL PRESSURE   UPWARD FLUX   DIFDOWN FLUX  DIRDOWN FLUX  DOWNWARD FLUX   NET FLUX    HEATING RATE
          mb          W/m2          W/m2          W/m2        W/m2          W/m2       degree/day
  51    .06700        0.0206        0.0000        9.1795        9.1795       9.158935       0.00000
  50    .07753        0.0206        0.0000        9.1747        9.1747       9.154092       3.88148
  49    .09103        0.0206        0.0000        9.1713        9.1713       9.150704       2.11747
  48    0.1069        0.0206        0.0000        9.1688        9.1688       9.148180       1.34402
  47    0.1255        0.0206        0.0000        9.1665        9.1665       9.145920       1.02422
  46    0.1487        0.0206        0.0000        9.1641        9.1641       9.143479       0.88991
  45    0.1794        0.0206        0.0000        9.1612        9.1612       9.140601       0.79008
  44    0.2165        0.0206        0.0000        9.1583        9.1583       9.137681       0.66430
  43    0.2613        0.0206        0.0000        9.1553        9.1553       9.134708       0.56041
  42    0.3336        0.0206        0.0000        9.1511        9.1511       9.130529       0.48723
  41    0.4307        0.0206        0.0000        9.1464        9.1464       9.125760       0.41459
  40    0.5894        0.0206        0.0000        9.1393        9.1394       9.118755       0.37255
  39     1.339        0.0206        0.0000        9.1127        9.1127       9.092141       0.29962
  38     1.782        0.0206        0.0000        9.1011        9.1011       9.080553       0.22062
  37     2.292        0.0206        0.0000        9.0901        9.0901       9.069486       0.18329
  36     2.964        0.0206        0.0000        9.0776        9.0776       9.057057       0.15603
  35     3.853        0.0206        0.0000        9.0629        9.0629       9.042266       0.14036
  34     5.035        0.0206        0.0000        9.0441        9.0441       9.023528       0.13386
  33     6.613        0.0206        0.0000        9.0191        9.0191       8.998526       0.13366
  32     8.786        0.0206        0.0000        8.9843        8.9843       8.963742       0.13509
  31     11.80        0.0206        0.0000        8.9327        8.9327       8.912126       0.14451
  30     15.07        0.0206        0.0000        8.8758        8.8759       8.855281       0.14676
  29     18.79        0.0206        0.0000        8.8110        8.8110       8.790454       0.14698
  28     23.16        0.0206        0.0000        8.7365        8.7366       8.716009       0.14395
  27     28.12        0.0206        0.0000        8.6554        8.6555       8.634896       0.13789
  26     33.73        0.0205        0.0000        8.5719        8.5719       8.551396       0.12554
  25     40.54        0.0205        0.0001        8.4812        8.4812       8.460673       0.11255
  24     48.69        0.0205        0.0001        8.3838        8.3839       8.363371       0.10069
  23     57.69        0.0205        0.0001        8.2861        8.2862       8.265636       0.09161
  22     68.43        0.0205        0.0001        8.1751        8.1751       8.154639       0.08726
  21     81.20        0.0205        0.0001        8.0457        8.0458       8.025281       0.08548
  20     96.49        0.0205        0.0001        7.8949        7.8950       7.874578       0.08318
  19     114.6        0.0205        0.0001        7.7162        7.7163       7.695868       0.08344
  18     136.5        0.0204        0.0002        7.5193        7.5195       7.499024       0.07569
  17     162.9        0.0204        0.0002        7.2913        7.2915       7.271132       0.07284
  16     196.4        0.0204        0.0002        6.9660        6.9662       6.945858       0.08188
  15     218.7        0.0203        0.0002        6.6648        6.6650       6.644666       0.11435
  14     243.0        0.0203        0.0002        6.2619        6.2622       6.241863       0.13971
  13     269.0        0.0203        0.0003        5.7576        5.7579       5.737543       0.16360
  12     297.5        0.0204        0.0003        5.1719        5.1722       5.151808       0.17372
  11     328.5        0.0204        0.0002        4.5757        4.5760       4.555572       0.16211
  10     361.9        0.0205        0.0002        3.9995        3.9998       3.979270       0.14581
   9     398.1        0.0207        0.0002        3.4655        3.4657       3.445006       0.12447
   8     437.6        0.0210        0.0002        2.9740        2.9743       2.953212       0.10515
   7     480.5        0.0216        0.0002        2.5307        2.5309       2.509279       0.08719
   6     533.0        0.0227        0.0002        2.0614        2.0616       2.038901       0.07567
   5     589.8        0.0246        0.0002        1.6150        1.6151       1.590497       0.06656
   4     651.6        0.0288        0.0001        1.1565        1.1566       1.127825       0.06327
   3     718.7        0.0379        0.0001        0.7390        0.7391       0.701234       0.05361
   2     792.3        0.0621        0.0001        0.3985        0.3985       0.336423       0.04184
   1     891.5        0.0002        0.0360        0.0379        0.0739       0.073735       0.02235
   0    1013.0        0.0019        0.0037        0.0031        0.0069       0.004968       0.00477



 Wavenumbers:  4000. -  4650. cm-1, ATM      1
 LEVEL PRESSURE   UPWARD FLUX   DIFDOWN FLUX  DIRDOWN FLUX  DOWNWARD FLUX   NET FLUX    HEATING RATE
          mb          W/m2          W/m2          W/m2        W/m2          W/m2       degree/day
  51    .06700        3.4521        0.0000       10.7795       10.7795       7.327428       0.00000
  50    .07753        3.4521        0.0000       10.7795       10.7795       7.327427       0.00080
  49    .09103        3.4521        0.0000       10.7795       10.7795       7.327426       0.00078
  48    0.1069        3.4521        0.0000       10.7795       10.7795       7.327424       0.00076
  47    0.1255        3.4521        0.0000       10.7795       10.7795       7.327423       0.00075
  46    0.1487        3.4521        0.0000       10.7795       10.7795       7.327421       0.00076
  45    0.1794        3.4521        0.0000       10.7795       10.7795       7.327418       0.00078
  44    0.2165        3.4521        0.0000       10.7795       10.7795       7.327415       0.00076
  43    0.2613        3.4521        0.0000       10.7795       10.7795       7.327411       0.00075
  42    0.3336        3.4521        0.0000       10.7795       10.7795       7.327404       0.00077
  41    0.4307        3.4521        0.0000       10.7795       10.7795       7.327395       0.00077
  40    0.5894        3.4521        0.0000       10.7795       10.7795       7.327380       0.00080
  39     1.339        3.4521        0.0000       10.7794       10.7794       7.327291       0.00101
  38     1.782        3.4521        0.0000       10.7793       10.7793       7.327221       0.00133
  37     2.292        3.4521        0.0000       10.7792       10.7792       7.327127       0.00156
  36     2.964        3.4521        0.0000       10.7791       10.7791       7.326986       0.00176
  35     3.853        3.4521        0.0000       10.7789       10.7789       7.326778       0.00198
  34     5.035        3.4521        0.0000       10.7786       10.7786       7.326471       0.00219
  33     6.613        3.4521        0.0000       10.7781       10.7781       7.326019       0.00242
  32     8.786        3.4521        0.0000       10.7774       10.7774       7.325352       0.00259
  31     11.80        3.4521        0.0001       10.7763       10.7764       7.324304       0.00293
  30     15.07        3.4521        0.0001       10.7751       10.7752       7.323074       0.00317
  29     18.79        3.4521        0.0001       10.7736       10.7737       7.321587       0.00337
  28     23.16        3.4521        0.0001       10.7717       10.7718       7.319741       0.00357
  27     28.12        3.4521        0.0001       10.7695       10.7696       7.317505       0.00380
  26     33.73        3.4521        0.0001       10.7667       10.7668       7.314749       0.00414
  25     40.54        3.4521        0.0002       10.7629       10.7631       7.311010       0.00464
  24     48.69        3.4521        0.0002       10.7579       10.7581       7.306028       0.00516
  23     57.69        3.4521        0.0002       10.7520       10.7522       7.300122       0.00554
  22     68.43        3.4522        0.0003       10.7446       10.7449       7.292720       0.00582
  21     81.20        3.4523        0.0003       10.7355       10.7359       7.283605       0.00602
  20     96.49        3.4524        0.0004       10.7245       10.7249       7.272514       0.00612
  19     114.6        3.4526        0.0005       10.7107       10.7112       7.258645       0.00648
  18     136.5        3.4528        0.0006       10.6942       10.6948       7.241938       0.00642
  17     162.9        3.4532        0.0007       10.6740       10.6747       7.221458       0.00655
  16     196.4        3.4540        0.0008       10.6464       10.6472       7.193216       0.00711
  15     218.7        3.4546        0.0009       10.6255       10.6264       7.171738       0.00815
  14     243.0        3.4556        0.0010       10.5980       10.5991       7.143440       0.00981
  13     269.0        3.4571        0.0011       10.5611       10.5622       7.105093       0.01244
  12     297.5        3.4593        0.0012       10.5119       10.5132       7.053852       0.01520
  11     328.5        3.4624        0.0014       10.4499       10.4512       6.988857       0.01767
  10     361.9        3.4664        0.0015       10.3702       10.3717       6.905277       0.02115
   9     398.1        3.4714        0.0016       10.2678       10.2694       6.797972       0.02500
   8     437.6        3.4779        0.0018       10.1390       10.1408       6.662897       0.02888
   7     480.5        3.4861        0.0019        9.9877        9.9896       6.503545       0.03130
   6     533.0        3.4987        0.0021        9.7937        9.7958       6.297108       0.03321
   5     589.8        3.5168        0.0023        9.5752        9.5775       6.060631       0.03510
   4     651.6        3.5459        0.0025        9.2958        9.2983       5.752409       0.04215
   3     718.7        3.5942        0.0026        8.9267        8.9294       5.335174       0.05243
   2     792.3        3.6835        0.0028        8.4542        8.4570       4.773511       0.06442
   1     891.5        1.2829        2.8150        2.5907        5.4057       4.122838       0.05537
   0    1013.0        1.3662        2.5882        2.3520        4.9403       3.574033       0.03811



 Wavenumbers:  4650. -  5150. cm-1, ATM      1
 LEVEL PRESSURE   UPWARD FLUX   DIFDOWN FLUX  DIRDOWN FLUX  DOWNWARD FLUX   NET FLUX    HEATING RATE
          mb          W/m2          W/m2          W/m2        W/m2          W/m2       degree/day
  51    .06700        2.4773        0.0000       10.2033       10.2033       7.726017       0.00000
  50    .07753        2.4773        0.0000       10.2031       10.2031       7.725781       0.18901
  49    .09103        2.4773        0.0000       10.2028       10.2028       7.725486       0.18428
  48    0.1069        2.4773        0.0000       10.2025       10.2025       7.725149       0.17931
  47    0.1255        2.4773        0.0000       10.2021       10.2021       7.724765       0.17426
  46    0.1487        2.4773        0.0000       10.2016       10.2016       7.724284       0.17536
  45    0.1794        2.4773        0.0000       10.2010       10.2010       7.723633       0.17850
  44    0.2165        2.4773        0.0000       10.2002       10.2002       7.722874       0.17277
  43    0.2613        2.4773        0.0000       10.1993       10.1993       7.721988       0.16690
  42    0.3336        2.4773        0.0000       10.1979       10.1979       7.720556       0.16702
  41    0.4307        2.4773        0.0000       10.1960       10.1960       7.718715       0.16002
  40    0.5894        2.4773        0.0000       10.1932       10.1932       7.715842       0.15283
  39     1.339        2.4773        0.0000       10.1816       10.1816       7.704250       0.13050
  38     1.782        2.4773        0.0000       10.1760       10.1760       7.698721       0.10526
  37     2.292        2.4773        0.0000       10.1706       10.1706       7.693265       0.09037
  36     2.964        2.4773        0.0000       10.1646       10.1647       7.687341       0.07435
  35     3.853        2.4773        0.0000       10.1584       10.1584       7.681127       0.05898
  34     5.035        2.4773        0.0000       10.1521       10.1521       7.674791       0.04526
  33     6.613        2.4773        0.0000       10.1456       10.1456       7.668332       0.03453
  32     8.786        2.4773        0.0001       10.1386       10.1386       7.661320       0.02723
  31     11.80        2.4773        0.0001       10.1295       10.1296       7.652276       0.02532
  30     15.07        2.4773        0.0001       10.1196       10.1197       7.642391       0.02552
  29     18.79        2.4773        0.0001       10.1076       10.1077       7.630376       0.02724
  28     23.16        2.4773        0.0001       10.0923       10.0924       7.615059       0.02962
  27     28.12        2.4774        0.0002       10.0731       10.0733       7.595948       0.03249
  26     33.73        2.4774        0.0002       10.0500       10.0502       7.572831       0.03476
  25     40.54        2.4775        0.0003       10.0201       10.0204       7.542894       0.03714
  24     48.69        2.4776        0.0003        9.9820        9.9823       7.504673       0.03955
  23     57.69        2.4777        0.0004        9.9384        9.9388       7.461070       0.04087
  22     68.43        2.4779        0.0004        9.8858        9.8862       7.408247       0.04153
  21     81.20        2.4782        0.0005        9.8234        9.8239       7.345728       0.04131
  20     96.49        2.4786        0.0006        9.7518        9.7524       7.273731       0.03974
  19     114.6        2.4792        0.0007        9.6719        9.6726       7.193430       0.03750
  18     136.5        2.4800        0.0008        9.5858        9.5866       7.106641       0.03337
  17     162.9        2.4811        0.0010        9.4940        9.4950       7.013918       0.02964
  16     196.4        2.4828        0.0012        9.3883        9.3894       6.906610       0.02701
  15     218.7        2.4842        0.0013        9.3229        9.3242       6.839997       0.02529
  14     243.0        2.4860        0.0014        9.2520        9.2534       6.767390       0.02518
  13     269.0        2.4885        0.0016        9.1717        9.1732       6.684780       0.02680
  12     297.5        2.4919        0.0017        9.0763        9.0780       6.586119       0.02926
  11     328.5        2.4964        0.0019        8.9650        8.9669       6.470480       0.03144
  10     361.9        2.5022        0.0021        8.8349        8.8370       6.334787       0.03433
   9     398.1        2.5097        0.0022        8.6820        8.6842       6.174499       0.03734
   8     437.6        2.5196        0.0024        8.5028        8.5052       5.985610       0.04039
   7     480.5        2.5324        0.0026        8.2948        8.2974       5.764973       0.04333
   6     533.0        2.5520        0.0028        8.0209        8.0237       5.471661       0.04718
   5     589.8        2.5793        0.0030        7.7063        7.7093       5.130039       0.05071
   4     651.6        2.6196        0.0032        7.3412        7.3444       4.724774       0.05542
   3     718.7        2.6806        0.0033        6.9387        6.9420       4.261441       0.05823
   2     792.3        2.7774        0.0035        6.5066        6.5101       3.732717       0.06064
   1     891.5        0.9437        2.1312        1.9732        4.1044       3.160668       0.04868
   0    1013.0        1.0219        1.9318        1.7626        3.6944       2.672518       0.03389



 Wavenumbers:  5150. -  6150. cm-1, ATM      1
 LEVEL PRESSURE   UPWARD FLUX   DIFDOWN FLUX  DIRDOWN FLUX  DOWNWARD FLUX   NET FLUX    HEATING RATE
          mb          W/m2          W/m2          W/m2        W/m2          W/m2       degree/day
  51    .06700        5.9873        0.0000       25.5798       25.5798      19.592497       0.00000
  50    .07753        5.9873        0.0000       25.5798       25.5798      19.592458       0.03159
  49    .09103        5.9873        0.0000       25.5797       25.5797      19.592407       0.03207
  48    0.1069        5.9873        0.0000       25.5797       25.5797      19.592345       0.03258
  47    0.1255        5.9873        0.0000       25.5796       25.5796      19.592272       0.03308
  46    0.1487        5.9873        0.0000       25.5795       25.5795      19.592177       0.03485
  45    0.1794        5.9873        0.0000       25.5794       25.5794      19.592042       0.03710
  44    0.2165        5.9873        0.0000       25.5792       25.5792      19.591876       0.03766
  43    0.2613        5.9873        0.0000       25.5790       25.5790      19.591673       0.03824
  42    0.3336        5.9873        0.0000       25.5786       25.5786      19.591327       0.04040
  41    0.4307        5.9873        0.0000       25.5782       25.5782      19.590856       0.04094
  40    0.5894        5.9873        0.0000       25.5774       25.5774      19.590067       0.04195
  39     1.339        5.9873        0.0000       25.5735       25.5736      19.586267       0.04279
  38     1.782        5.9873        0.0000       25.5713       25.5714      19.584054       0.04212
  37     2.292        5.9873        0.0001       25.5688       25.5688      19.581550       0.04147
  36     2.964        5.9873        0.0001       25.5656       25.5657      19.578369       0.03993
  35     3.853        5.9873        0.0001       25.5615       25.5616      19.574327       0.03837
  34     5.035        5.9873        0.0001       25.5562       25.5564      19.569121       0.03719
  33     6.613        5.9873        0.0002       25.5494       25.5496      19.562368       0.03610
  32     8.786        5.9872        0.0003       25.5406       25.5409      19.553617       0.03398
  31     11.80        5.9872        0.0003       25.5287       25.5290      19.541783       0.03313
  30     15.07        5.9872        0.0004       25.5167       25.5171      19.529916       0.03064
  29     18.79        5.9872        0.0005       25.5042       25.5047      19.517511       0.02813
  28     23.16        5.9872        0.0007       25.4907       25.4913      19.504149       0.02584
  27     28.12        5.9872        0.0008       25.4764       25.4773      19.490060       0.02395
  26     33.73        5.9872        0.0010       25.4620       25.4630      19.475783       0.02146
  25     40.54        5.9872        0.0012       25.4463       25.4474      19.460173       0.01937
  24     48.69        5.9873        0.0014       25.4294       25.4308      19.443459       0.01730
  23     57.69        5.9874        0.0016       25.4126       25.4143      19.426865       0.01555
  22     68.43        5.9875        0.0020       25.3944       25.3964      19.408849       0.01416
  21     81.20        5.9877        0.0023       25.3744       25.3767      19.389025       0.01310
  20     96.49        5.9879        0.0028       25.3519       25.3547      19.366746       0.01230
  19     114.6        5.9882        0.0033       25.3262       25.3294      19.341196       0.01193
  18     136.5        5.9886        0.0039       25.2962       25.3001      19.311456       0.01144
  17     162.9        5.9891        0.0046       25.2521       25.2567      19.267606       0.01402
  16     196.4        5.9898        0.0056       25.1593       25.1648      19.175049       0.02330
  15     218.7        5.9903        0.0062       25.0159       25.0221      19.031762       0.05440
  14     243.0        5.9910        0.0068       24.7089       24.7157      18.724686       0.10650
  13     269.0        5.9919        0.0074       24.1619       24.1692      18.177305       0.17757
  12     297.5        5.9932        0.0079       23.4544       23.4623      17.469104       0.21004
  11     328.5        5.9950        0.0086       22.7355       22.7440      16.749009       0.19579
  10     361.9        5.9974        0.0092       21.9224       21.9316      15.934159       0.20617
   9     398.1        6.0007        0.0097       20.9939       21.0036      15.002925       0.21696
   8     437.6        6.0053        0.0102       19.9833       19.9936      13.988246       0.21694
   7     480.5        6.0118        0.0108       18.9483       18.9591      12.947268       0.20444
   6     533.0        6.0228        0.0113       17.7796       17.7909      11.768128       0.18969
   5     589.8        6.0407        0.0119       16.6726       16.6845      10.643792       0.16689
   4     651.6        6.0734        0.0125       15.6343       15.6468       9.573360       0.14638
   3     718.7        6.1333        0.0131       14.7738       14.7869       8.653654       0.11558
   2     792.3        6.2517        0.0139       14.0291       14.0430       7.791284       0.09890
   1     891.5        2.2356        4.7607        4.3487        9.1094       6.873761       0.07808
   0    1013.0        2.3332        4.4381        4.0017        8.4398       6.106658       0.05326



 Wavenumbers:  6150. -  7700. cm-1, ATM      1
 LEVEL PRESSURE   UPWARD FLUX   DIFDOWN FLUX  DIRDOWN FLUX  DOWNWARD FLUX   NET FLUX    HEATING RATE
          mb          W/m2          W/m2          W/m2        W/m2          W/m2       degree/day
  51    .06700        9.3859        0.0000       47.3109       47.3109      37.924932       0.00000
  50    .07753        9.3859        0.0000       47.3108       47.3108      37.924876       0.04553
  49    .09103        9.3859        0.0000       47.3107       47.3107      37.924802       0.04583
  48    0.1069        9.3859        0.0000       47.3106       47.3106      37.924716       0.04614
  47    0.1255        9.3859        0.0000       47.3105       47.3105      37.924613       0.04645
  46    0.1487        9.3859        0.0000       47.3104       47.3104      37.924480       0.04852
  45    0.1794        9.3859        0.0000       47.3102       47.3102      37.924293       0.05127
  44    0.2165        9.3859        0.0000       47.3100       47.3100      37.924066       0.05167
  43    0.2613        9.3859        0.0000       47.3097       47.3097      37.923790       0.05210
  42    0.3336        9.3859        0.0000       47.3092       47.3092      37.923321       0.05471
  41    0.4307        9.3859        0.0000       47.3085       47.3086      37.922686       0.05521
  40    0.5894        9.3859        0.0001       47.3074       47.3075      37.921626       0.05633
  39     1.339        9.3858        0.0002       47.3022       47.3023      37.916534       0.05733
  38     1.782        9.3858        0.0002       47.2991       47.2993      37.913564       0.05655
  37     2.292        9.3857        0.0003       47.2956       47.2959      37.910188       0.05591
  36     2.964        9.3857        0.0003       47.2912       47.2915      37.905870       0.05421
  35     3.853        9.3856        0.0005       47.2855       47.2859      37.900335       0.05252
  34     5.035        9.3855        0.0006       47.2780       47.2786      37.893155       0.05129
  33     6.613        9.3853        0.0008       47.2683       47.2691      37.883767       0.05019
  32     8.786        9.3851        0.0010       47.2556       47.2566      37.871468       0.04777
  31     11.80        9.3849        0.0014       47.2380       47.2394      37.854564       0.04732
  30     15.07        9.3846        0.0018       47.2201       47.2219      37.837277       0.04463
  29     18.79        9.3842        0.0022       47.2008       47.2030      37.818798       0.04190
  28     23.16        9.3839        0.0027       47.1795       47.1823      37.798408       0.03943
  27     28.12        9.3834        0.0033       47.1565       47.1598      37.776415       0.03739
  26     33.73        9.3829        0.0040       47.1324       47.1364      37.753494       0.03446
  25     40.54        9.3823        0.0048       47.1054       47.1102      37.727859       0.03180
  24     48.69        9.3816        0.0058       47.0754       47.0812      37.699607       0.02924
  23     57.69        9.3808        0.0068       47.0449       47.0518      37.670987       0.02683
  22     68.43        9.3798        0.0081       47.0110       47.0191      37.639252       0.02495
  21     81.20        9.3787        0.0096       46.9729       46.9825      37.603762       0.02345
  20     96.49        9.3773        0.0114       46.9294       46.9408      37.563426       0.02226
  19     114.6        9.3757        0.0135       46.8790       46.8925      37.516800       0.02177
  18     136.5        9.3738        0.0161       46.8200       46.8360      37.462189       0.02100
  17     162.9        9.3716        0.0191       46.7361       46.7552      37.383589       0.02512
  16     196.4        9.3688        0.0230       46.5703       46.5932      37.224446       0.04006
  15     218.7        9.3670        0.0255       46.3473       46.3728      37.005756       0.08303
  14     243.0        9.3653        0.0281       45.9299       45.9580      36.592662       0.14327
  13     269.0        9.3638        0.0307       45.1708       45.2015      35.837653       0.24492
  12     297.5        9.3630        0.0332       44.0115       44.0447      34.681712       0.34284
  11     328.5        9.3630        0.0358       42.7242       42.7600      33.397016       0.34931
  10     361.9        9.3643        0.0384       41.3539       41.3923      32.027982       0.34638
   9     398.1        9.3678        0.0409       39.7953       39.8361      30.468394       0.36335
   8     437.6        9.3746        0.0432       37.9948       38.0380      28.663373       0.38592
   7     480.5        9.3864        0.0453       36.0647       36.1101      26.723640       0.38096
   6     533.0        9.4098        0.0476       33.7773       33.8249      24.415076       0.37137
   5     589.8        9.4519        0.0496       31.4082       31.4578      22.005870       0.35761
   4     651.6        9.5345        0.0511       28.8834       28.9345      19.400019       0.35636
   3     718.7        9.6922        0.0524       26.4104       26.4627      16.770571       0.33045
   2     792.3       10.0204        0.0533       24.0056       24.0589      14.038522       0.31334
   1     891.5        3.3499        7.6569        7.0581       14.7150      11.365122       0.22749
   0    1013.0        3.6025        6.8424        6.1873       13.0297       9.427205       0.13456



 Wavenumbers:  7700. -  8050. cm-1, ATM      1
 LEVEL PRESSURE   UPWARD FLUX   DIFDOWN FLUX  DIRDOWN FLUX  DOWNWARD FLUX   NET FLUX    HEATING RATE
          mb          W/m2          W/m2          W/m2        W/m2          W/m2       degree/day
  51    .06700        4.5079        0.0000       11.1810       11.1810       6.673043       0.00000
  50    .07753        4.5079        0.0000       11.1809       11.1809       6.673022       0.01672
  49    .09103        4.5079        0.0000       11.1809       11.1809       6.672996       0.01639
  48    0.1069        4.5079        0.0000       11.1809       11.1809       6.672966       0.01604
  47    0.1255        4.5079        0.0000       11.1809       11.1809       6.672931       0.01570
  46    0.1487        4.5079        0.0000       11.1808       11.1808       6.672887       0.01593
  45    0.1794        4.5079        0.0000       11.1808       11.1808       6.672828       0.01639
  44    0.2165        4.5080        0.0000       11.1807       11.1807       6.672757       0.01608
  43    0.2613        4.5080        0.0000       11.1806       11.1806       6.672673       0.01578
  42    0.3336        4.5080        0.0000       11.1805       11.1805       6.672535       0.01615
  41    0.4307        4.5080        0.0000       11.1803       11.1804       6.672351       0.01597
  40    0.5894        4.5081        0.0000       11.1801       11.1801       6.672051       0.01595
  39     1.339        4.5082        0.0001       11.1788       11.1789       6.670632       0.01598
  38     1.782        4.5084        0.0001       11.1781       11.1782       6.669798       0.01587
  37     2.292        4.5085        0.0001       11.1772       11.1773       6.668834       0.01598
  36     2.964        4.5087        0.0002       11.1761       11.1762       6.667567       0.01590
  35     3.853        4.5089        0.0002       11.1746       11.1748       6.665893       0.01588
  34     5.035        4.5092        0.0003       11.1726       11.1729       6.663671       0.01588
  33     6.613        4.5096        0.0003       11.1700       11.1703       6.660702       0.01587
  32     8.786        4.5101        0.0005       11.1664       11.1668       6.656703       0.01553
  31     11.80        4.5109        0.0006       11.1613       11.1619       6.650987       0.01600
  30     15.07        4.5118        0.0008       11.1558       11.1566       6.644856       0.01583
  29     18.79        4.5127        0.0010       11.1497       11.1507       6.637938       0.01569
  28     23.16        4.5138        0.0012       11.1425       11.1437       6.629870       0.01560
  27     28.12        4.5151        0.0014       11.1343       11.1358       6.620659       0.01566
  26     33.73        4.5166        0.0017       11.1252       11.1269       6.610375       0.01546
  25     40.54        4.5183        0.0021       11.1142       11.1163       6.597981       0.01538
  24     48.69        4.5204        0.0025       11.1010       11.1035       6.583088       0.01541
  23     57.69        4.5228        0.0030       11.0866       11.0896       6.566791       0.01528
  22     68.43        4.5256        0.0035       11.0695       11.0730       6.547468       0.01519
  21     81.20        4.5289        0.0042       11.0494       11.0535       6.524569       0.01513
  20     96.49        4.5330        0.0049       11.0255       11.0305       6.497458       0.01496
  19     114.6        4.5379        0.0058       10.9975       11.0034       6.465509       0.01492
  18     136.5        4.5437        0.0069       10.9648       10.9717       6.427973       0.01443
  17     162.9        4.5508        0.0082       10.9263       10.9345       6.383720       0.01415
  16     196.4        4.5602        0.0099       10.8773       10.8872       6.327012       0.01427
  15     218.7        4.5664        0.0110       10.8455       10.8565       6.290136       0.01400
  14     243.0        4.5733        0.0122       10.8114       10.8236       6.250321       0.01381
  13     269.0        4.5810        0.0135       10.7749       10.7884       6.207408       0.01392
  12     297.5        4.5894        0.0149       10.7357       10.7506       6.161183       0.01371
  11     328.5        4.5988        0.0164       10.6937       10.7101       6.111348       0.01355
  10     361.9        4.6092        0.0180       10.6489       10.6668       6.057685       0.01358
   9     398.1        4.6208        0.0197       10.6008       10.6205       5.999720       0.01350
   8     437.6        4.6338        0.0216       10.5491       10.5707       5.936866       0.01344
   7     480.5        4.6484        0.0236       10.4934       10.5170       5.868569       0.01341
   6     533.0        4.6676        0.0260       10.4243       10.4503       5.782711       0.01381
   5     589.8        4.6900        0.0286       10.3479       10.3765       5.686547       0.01427
   4     651.6        4.7170        0.0314       10.2613       10.2928       5.575817       0.01514
   3     718.7        4.7502        0.0344       10.1618       10.1962       5.445987       0.01632
   2     792.3        4.7926        0.0376       10.0439       10.0815       5.288833       0.01802
   1     891.5        1.8313        3.6516        3.2779        6.9295       5.098160       0.01623
   0    1013.0        1.8695        3.5713        3.1940        6.7654       4.895851       0.01405



 Wavenumbers:  8050. - 12850. cm-1, ATM      1
 LEVEL PRESSURE   UPWARD FLUX   DIFDOWN FLUX  DIRDOWN FLUX  DOWNWARD FLUX   NET FLUX    HEATING RATE
          mb          W/m2          W/m2          W/m2        W/m2          W/m2       degree/day
  51    .06700       57.8653        0.0000      156.5418      156.5418      98.676430       0.00000
  50    .07753       57.8653        0.0000      156.5417      156.5417      98.676430       0.00000
  49    .09103       57.8653        0.0001      156.5417      156.5417      98.676430      -0.00000
  48    0.1069       57.8653        0.0001      156.5416      156.5417      98.676430       0.00000
  47    0.1255       57.8652        0.0001      156.5415      156.5417      98.676430      -0.00000
  46    0.1487       57.8652        0.0002      156.5414      156.5416      98.676430       0.00000
  45    0.1794       57.8652        0.0003      156.5413      156.5416      98.676430       0.00000
  44    0.2165       57.8651        0.0004      156.5412      156.5415      98.676430      -0.00000
  43    0.2613       57.8650        0.0005      156.5410      156.5415      98.676430       0.00000
  42    0.3336       57.8649        0.0007      156.5407      156.5414      98.676430       0.00000
  41    0.4307       57.8648        0.0009      156.5403      156.5412      98.676430       0.00000
  40    0.5894       57.8646        0.0013      156.5397      156.5410      98.676430       0.00000
  39     1.339       57.8635        0.0032      156.5367      156.5399      98.676430       0.00000
  38     1.782       57.8628        0.0043      156.5350      156.5393      98.676430      -0.00000
  37     2.292       57.8621        0.0056      156.5330      156.5385      98.676430       0.00000
  36     2.964       57.8611        0.0072      156.5303      156.5376      98.676430       0.00000
  35     3.853       57.8599        0.0094      156.5268      156.5363      98.676430      -0.00000
  34     5.035       57.8582        0.0124      156.5222      156.5346      98.676430       0.00000
  33     6.613       57.8559        0.0163      156.5160      156.5323      98.676430       0.00000
  32     8.786       57.8528        0.0216      156.5076      156.5293      98.676430      -0.00000
  31     11.80       57.8484        0.0292      156.4957      156.5249      98.676430       0.00000
  30     15.07       57.8437        0.0374      156.4828      156.5202      98.676430       0.00000
  29     18.79       57.8384        0.0466      156.4682      156.5148      98.676430       0.00000
  28     23.16       57.8322        0.0574      156.4512      156.5086      98.676430      -0.00000
  27     28.12       57.8250        0.0697      156.4317      156.5014      98.676430       0.00000
  26     33.73       57.8170        0.0836      156.4099      156.4934      98.676430       0.00000
  25     40.54       57.8073        0.1003      156.3834      156.4838      98.676430       0.00000
  24     48.69       57.7956        0.1206      156.3515      156.4721      98.676430      -0.00000
  23     57.69       57.7828        0.1428      156.3164      156.4592      98.676430       0.00000
  22     68.43       57.7674        0.1693      156.2746      156.4439      98.676430      -0.00000
  21     81.20       57.7491        0.2010      156.2246      156.4256      98.676430       0.00000
  20     96.49       57.7273        0.2388      156.1649      156.4037      98.676430      -0.00000
  19     114.6       57.7014        0.2837      156.0879      156.3716      98.670271       0.00288
  18     136.5       57.6706        0.3371      155.9962      156.3332      98.662625       0.00294
  17     162.9       57.6339        0.4008      155.8831      156.2838      98.649915       0.00406
  16     196.4       57.5862        0.4836      155.7199      156.2035      98.617255       0.00822
  15     218.7       57.5551        0.5380      155.5733      156.1113      98.556211       0.02318
  14     243.0       57.5217        0.5971      155.3367      155.9338      98.412083       0.04999
  13     269.0       57.4869        0.6611      154.9514      155.6125      98.125593       0.09294
  12     297.5       57.4518        0.7298      154.3896      155.1194      97.667658       0.13582
  11     328.5       57.4171        0.8039      153.7151      154.5190      97.101914       0.15382
  10     361.9       57.3844        0.8833      152.9087      153.7920      96.407569       0.17568
   9     398.1       57.3567        0.9681      151.8986      152.8667      95.509963       0.20912
   8     437.6       57.3388        1.0581      150.6031      151.6612      94.322427       0.25390
   7     480.5       57.3366        1.1530      149.0014      150.1543      92.817714       0.29552
   6     533.0       57.3663        1.2673      146.7375      148.0049      90.638571       0.35055
   5     589.8       57.4583        1.3865      143.8730      145.2595      87.801237       0.42115
   4     651.6       57.6854        1.5078      140.0955      141.6033      83.917875       0.53106
   3     718.7       58.1535        1.6297      135.5278      137.1575      79.004070       0.61753
   2     792.3       59.1232        1.7490      130.0690      131.8180      72.694768       0.72361
   1     891.5       21.2984       45.7842       40.5947       86.3789      65.080512       0.64794
   0    1013.0       22.2272       42.9840       37.5445       80.5285      58.301320       0.47071



 Wavenumbers: 12850. - 16000. cm-1, ATM      1
 LEVEL PRESSURE   UPWARD FLUX   DIFDOWN FLUX  DIRDOWN FLUX  DOWNWARD FLUX   NET FLUX    HEATING RATE
          mb          W/m2          W/m2          W/m2        W/m2          W/m2       degree/day
  51    .06700       55.5438        0.0000       98.0872       98.0872      42.543395       0.00000
  50    .07753       55.5438        0.0001       98.0864       98.0864      42.542608       0.63049
  49    .09103       55.5438        0.0001       98.0853       98.0854      42.541622       0.61688
  48    0.1069       55.5438        0.0002       98.0841       98.0843      42.540489       0.60292
  47    0.1255       55.5438        0.0003       98.0826       98.0830      42.539189       0.58917
  46    0.1487       55.5438        0.0005       98.0809       98.0813      42.537552       0.59687
  45    0.1794       55.5438        0.0007       98.0784       98.0791      42.535328       0.61046
  44    0.2165       55.5438        0.0009       98.0756       98.0765      42.532718       0.59385
  43    0.2613       55.5438        0.0011       98.0723       98.0735      42.529655       0.57733
  42    0.3336       55.5439        0.0015       98.0670       98.0686      42.524670       0.58113
  41    0.4307       55.5440        0.0021       98.0602       98.0623      42.518247       0.55852
  40    0.5894       55.5444        0.0030       98.0496       98.0526      42.508176       0.53555
  39     1.339       55.5483        0.0073       98.0043       98.0117      42.463395       0.50416
  38     1.782       55.5521        0.0099       97.9793       97.9891      42.437065       0.50128
  37     2.292       55.5579        0.0128       97.9498       97.9626      42.404651       0.53686
  36     2.964       55.5678        0.0166       97.9088       97.9255      42.357669       0.58976
  35     3.853       55.5839        0.0217       97.8503       97.8721      42.288139       0.65985
  34     5.035       55.6084        0.0285       97.7680       97.7964      42.188055       0.71496
  33     6.613       55.6426        0.0375       97.6562       97.6936      42.051002       0.73269
  32     8.786       55.6872        0.0496       97.5107       97.5602      41.873087       0.69096
  31     11.80       55.7448        0.0669       97.3179       97.3847      41.639939       0.65274
  30     15.07       55.7996        0.0854       97.1283       97.2138      41.414121       0.58302
  29     18.79       55.8553        0.1064       96.9300       97.0364      41.181130       0.52826
  28     23.16       55.9129        0.1308       96.7166       96.8474      40.934440       0.47702
  27     28.12       55.9704        0.1587       96.4935       96.6522      40.681854       0.42938
  26     33.73       56.0224        0.1900       96.2731       96.4631      40.440626       0.36269
  25     40.54       56.0712        0.2277       96.0408       96.2685      40.197256       0.30193
  24     48.69       56.1163        0.2732       95.7946       96.0677      39.951423       0.25440
  23     57.69       56.1526        0.3231       95.5573       95.8804      39.727804       0.20961
  22     68.43       56.1814        0.3826       95.3106       95.6932      39.511813       0.16980
  21     81.20       56.1960        0.4535       95.0643       95.5179      39.321852       0.12552
  20     96.49       56.1953        0.5382       94.8153       95.3534      39.158151       0.09035
  19     114.6       56.1938        0.6394       94.5411       95.1805      38.986681       0.08006
  18     136.5       56.1841        0.7594       94.2320       94.9914      38.807369       0.06895
  17     162.9       56.1652        0.9022       93.8753       94.7775      38.612313       0.06235
  16     196.4       56.1253        1.0873       93.4347       94.5219      38.396679       0.05428
  15     218.7       56.0935        1.2088       93.1513       94.3600      38.266512       0.04942
  14     243.0       56.0567        1.3407       92.8439       94.1847      38.127937       0.04806
  13     269.0       56.0148        1.4837       92.5111       93.9948      37.980001       0.04799
  12     297.5       55.9680        1.6380       92.1495       93.7875      37.819484       0.04761
  11     328.5       55.9177        1.8047       91.7554       93.5601      37.642408       0.04815
  10     361.9       55.8645        1.9841       91.3262       93.3103      37.445802       0.04974
   9     398.1       55.8092        2.1769       90.8575       93.0344      37.225193       0.05140
   8     437.6       55.7541        2.3836       90.3418       92.7254      36.971369       0.05427
   7     480.5       55.7011        2.6048       89.7728       92.3776      36.676574       0.05790
   6     533.0       55.6478        2.8765       89.0428       91.9193      36.271508       0.06516
   5     589.8       55.6126        3.1678       88.2038       91.3717      35.759031       0.07607
   4     651.6       55.6204        3.4784       87.1979       90.6763      35.055864       0.09616
   3     718.7       55.6898        3.8066       86.0161       89.8228      34.133027       0.11598
   2     792.3       55.8772        4.1490       84.5970       88.7460      32.868828       0.14499
   1     891.5       35.3450       39.0552       27.4002       66.4553      31.110369       0.14964
   0    1013.0       35.8363       38.3953       26.4631       64.8584      29.022149       0.14500



 Wavenumbers: 16000. - 22650. cm-1, ATM      1
 LEVEL PRESSURE   UPWARD FLUX   DIFDOWN FLUX  DIRDOWN FLUX  DOWNWARD FLUX   NET FLUX    HEATING RATE
          mb          W/m2          W/m2          W/m2        W/m2          W/m2       degree/day
  51    .06700      118.3307        0.0000      156.3892      156.3892      38.058552       0.00000
  50    .07753      118.3306        0.0004      156.3887      156.3890      38.058414       0.10996
  49    .09103      118.3306        0.0008      156.3879      156.3888      38.058215       0.12472
  48    0.1069      118.3305        0.0014      156.3871      156.3885      38.057948       0.14222
  47    0.1255      118.3305        0.0020      156.3861      156.3880      38.057590       0.16211
  46    0.1487      118.3304        0.0028      156.3847      156.3875      38.057063       0.19210
  45    0.1794      118.3304        0.0038      156.3828      156.3867      38.056239       0.22618
  44    0.2165      118.3305        0.0051      156.3805      156.3856      38.055122       0.25420
  43    0.2613      118.3306        0.0066      156.3776      156.3842      38.053606       0.28578
  42    0.3336      118.3310        0.0091      156.3726      156.3817      38.050723       0.33607
  41    0.4307      118.3317        0.0123      156.3657      156.3781      38.046378       0.37778
  40    0.5894      118.3333        0.0177      156.3537      156.3714      38.038092       0.44066
  39     1.339      118.3496        0.0430      156.2834      156.3264      37.976872       0.68922
  38     1.782      118.3655        0.0579      156.2324      156.2902      37.924722       0.99285
  37     2.292      118.3899        0.0751      156.1641      156.2392      37.849237       1.25022
  36     2.964      118.4312        0.0977      156.0605      156.1582      37.726958       1.53497
  35     3.853      118.4986        0.1275      155.9041      156.0315      37.532948       1.84119
  34     5.035      118.6008        0.1670      155.6774      155.8444      37.243538       2.06742
  33     6.613      118.7440        0.2198      155.3656      155.5854      36.841418       2.14974
  32     8.786      118.9302        0.2908      154.9577      155.2485      36.318299       2.03160
  31     11.80      119.1715        0.3923      154.4153      154.8075      35.635990       1.91025
  30     15.07      119.4015        0.5010      153.8804      154.3813      34.979875       1.69396
  29     18.79      119.6350        0.6236      153.3191      153.9427      34.307671       1.52409
  28     23.16      119.8774        0.7665      152.7126      153.4791      33.601639       1.36524
  27     28.12      120.1193        0.9297      152.0755      153.0052      32.885904       1.21670
  26     33.73      120.3391        1.1121      151.4409      152.5530      32.213898       1.01038
  25     40.54      120.5458        1.3322      150.7637      152.0958      31.549997       0.82364
  24     48.69      120.7380        1.5971      150.0338      151.6310      30.893015       0.67987
  23     57.69      120.8937        1.8877      149.3151      151.2029      30.309151       0.54729
  22     68.43      121.0197        2.2334      148.5476      150.7810      29.761296       0.43069
  21     81.20      121.0881        2.6447      147.7517      150.3964      29.308290       0.29934
  20     96.49      121.0939        3.1342      146.9127      150.0468      28.952946       0.19612
  19     114.6      121.0619        3.7134      145.9763      149.6897      28.627859       0.15179
  18     136.5      120.9976        4.3970      144.9088      149.3058      28.308210       0.12291
  17     162.9      120.8971        5.2067      143.6785      148.8853      27.988186       0.10229
  16     196.4      120.7152        6.2507      142.1651      148.4158      27.700538       0.07240
  15     218.7      120.5769        6.9325      141.2033      148.1358      27.558905       0.05377
  14     243.0      120.4178        7.6699      140.1753      147.8452      27.427407       0.04561
  13     269.0      120.2364        8.4650      139.0797      147.5447      27.308253       0.03865
  12     297.5      120.0318        9.3195      137.9141      147.2336      27.201768       0.03158
  11     328.5      119.8067       10.2372      136.6676      146.9048      27.098148       0.02817
  10     361.9      119.5607       11.2190      135.3392      146.5582      26.997510       0.02546
   9     398.1      119.2927       12.2683      133.9235      146.1917      26.899009       0.02295
   8     437.6      119.0032       13.3867      132.4163      145.8029      26.799724       0.02123
   7     480.5      118.6914       14.5761      130.8147      145.3908      26.699355       0.01971
   6     533.0      118.3073       16.0270      128.8599      144.8869      26.579591       0.01927
   5     589.8      117.8961       17.5750      126.7679      144.3429      26.446800       0.01971
   4     651.6      117.4625       19.2210      124.5274      143.7484      26.285941       0.02200
   3     718.7      117.0108       20.9660      122.1285      143.0944      26.083600       0.02543
   2     792.3      116.5548       22.8072      119.5548      142.3620      25.807221       0.03170
   1     891.5       94.0125       80.7940       38.5818      119.3758      25.363304       0.03778
   0    1013.0       93.7775       81.3418       37.1802      118.5220      24.744431       0.04297



 Wavenumbers: 22650. - 29000. cm-1, ATM      1
 LEVEL PRESSURE   UPWARD FLUX   DIFDOWN FLUX  DIRDOWN FLUX  DOWNWARD FLUX   NET FLUX    HEATING RATE
          mb          W/m2          W/m2          W/m2        W/m2          W/m2       degree/day
  51    .06700       49.5681        0.0000       59.0156       59.0156       9.447485       0.00000
  50    .07753       49.5680        0.0004       59.0151       59.0155       9.447485       0.00000
  49    .09103       49.5679        0.0010       59.0144       59.0153       9.447485      -0.00000
  48    0.1069       49.5677        0.0016       59.0136       59.0152       9.447485       0.00000
  47    0.1255       49.5675        0.0023       59.0127       59.0150       9.447485      -0.00000
  46    0.1487       49.5672        0.0032       59.0115       59.0147       9.447485       0.00000
  45    0.1794       49.5669        0.0045       59.0099       59.0144       9.447485       0.00000
  44    0.2165       49.5665        0.0059       59.0080       59.0140       9.447485      -0.00000
  43    0.2613       49.5660        0.0077       59.0058       59.0135       9.447485       0.00000
  42    0.3336       49.5652        0.0106       59.0022       59.0127       9.447485       0.00000
  41    0.4307       49.5642        0.0144       58.9973       59.0117       9.447485      -0.00000
  40    0.5894       49.5625        0.0206       58.9894       59.0100       9.447485       0.00000
  39     1.339       49.5545        0.0502       58.9518       59.0020       9.447485       0.00000
  38     1.782       49.5498        0.0675       58.9297       58.9972       9.447485       0.00000
  37     2.292       49.5443        0.0876       58.9042       58.9918       9.447485      -0.00000
  36     2.964       49.5371        0.1140       58.8706       58.9846       9.447485       0.00000
  35     3.853       49.5277        0.1488       58.8264       58.9751       9.447485      -0.00000
  34     5.035       49.5151        0.1950       58.7676       58.9626       9.447485       0.00000
  33     6.613       49.4983        0.2567       58.6891       58.9458       9.447485       0.00000
  32     8.786       49.4757        0.3397       58.5834       58.9231       9.447485      -0.00000
  31     11.80       49.4433        0.4584       58.4324       58.8908       9.447485       0.00000
  30     15.07       49.4086        0.5855       58.2706       58.8561       9.447485       0.00000
  29     18.79       49.3695        0.7287       58.0882       58.8170       9.447485      -0.00000
  28     23.16       49.3238        0.8956       57.8757       58.7713       9.447485       0.00000
  27     28.12       49.2717        1.0859       57.6333       58.7192       9.447485      -0.00000
  26     33.73       49.2136        1.2980       57.3631       58.6610       9.447485       0.00000
  25     40.54       49.1434        1.5530       57.0379       58.5909       9.447485      -0.00000
  24     48.69       49.0592        1.8588       56.6479       58.5067       9.447485       0.00000
  23     57.69       48.9671        2.1925       56.2221       58.4146       9.447485       0.00000
  22     68.43       48.8578        2.5868       55.7186       58.3053       9.447485      -0.00000
  21     81.20       48.7285        3.0520       55.1239       58.1760       9.447485       0.00000
  20     96.49       48.5754        3.6001       54.4228       58.0229       9.447485      -0.00000
  19     114.6       48.3953        4.2418       53.6010       57.8428       9.447485       0.00000
  18     136.5       48.1840        4.9897       52.6418       57.6314       9.447485       0.00000
  17     162.9       47.9354        5.8626       51.5203       57.3829       9.447485       0.00000
  16     196.4       47.6181        6.9662       50.0994       57.0656       9.447485       0.00000
  15     218.7       47.4127        7.6739       49.1863       56.8602       9.447485      -0.00000
  14     243.0       47.1920        8.4283       48.2113       56.6395       9.447485      -0.00000
  13     269.0       46.9559        9.2285       47.1749       56.4034       9.447485       0.00000
  12     297.5       46.7042       10.0734       46.0783       56.1516       9.447485       0.00000
  11     328.5       46.4360       10.9639       44.9195       55.8835       9.447485      -0.00000
  10     361.9       46.1516       11.8972       43.7018       55.5991       9.447485       0.00000
   9     398.1       45.8504       12.8729       42.4250       55.2979       9.447485       0.00000
   8     437.6       45.5324       13.8883       41.0916       54.9799       9.447485      -0.00000
   7     480.5       45.1976       14.9406       39.7045       54.6451       9.447485       0.00000
   6     533.0       44.7935       16.1868       38.0543       54.2410       9.447485       0.00000
   5     589.8       44.3674       17.4718       36.3431       53.8149       9.447485      -0.00000
   4     651.6       43.9198       18.7878       34.5795       53.3673       9.447485       0.00000
   3     718.7       43.4507       20.1280       32.7702       52.8982       9.447485       0.00000
   2     792.3       42.9610       21.4829       30.9256       52.4084       9.447485      -0.00000
   1     891.5       35.7328       35.6805        9.4998       45.1802       9.447396       0.00001
   0    1013.0       35.2667       36.0823        8.6317       44.7141       9.447396      -0.00000



 Wavenumbers: 29000. - 38000. cm-1, ATM      1
 LEVEL PRESSURE   UPWARD FLUX   DIFDOWN FLUX  DIRDOWN FLUX  DOWNWARD FLUX   NET FLUX    HEATING RATE
          mb          W/m2          W/m2          W/m2        W/m2          W/m2       degree/day
  51    .06700        7.5632        0.0000       20.8114       20.8114      13.248178       0.00000
  50    .07753        7.5630        0.0003       20.8070       20.8074      13.244373       3.05029
  49    .09103        7.5627        0.0007       20.8009       20.8016      13.238838       3.45941
  48    0.1069        7.5625        0.0012       20.7928       20.7939      13.231431       3.94262
  47    0.1255        7.5622        0.0017       20.7820       20.7837      13.221531       4.48841
  46    0.1487        7.5618        0.0023       20.7665       20.7688      13.206974       5.30611
  45    0.1794        7.5613        0.0032       20.7424       20.7456      13.184319       6.21926
  44    0.2165        7.5608        0.0042       20.7103       20.7146      13.153810       6.94022
  43    0.2613        7.5601        0.0055       20.6675       20.6730      13.112835       7.72368
  42    0.3336        7.5592        0.0075       20.5880       20.5955      13.036311       8.92188
  41    0.4307        7.5579        0.0101       20.4722       20.4824      12.924417       9.72901
  40    0.5894        7.5562        0.0143       20.2637       20.2780      12.721846      10.77247
  39     1.339        7.5514        0.0322       19.0984       19.1306      11.579224      12.86384
  38     1.782        7.5508        0.0415       18.4394       18.4809      10.930023      12.35975
  37     2.292        7.5521        0.0514       17.7714       17.8228      10.270704      10.92003
  36     2.964        7.5566        0.0637       17.0421       17.1058       9.549214       9.05689
  35     3.853        7.5662        0.0790       16.2678       16.3468       8.780591       7.29437
  34     5.035        7.5827        0.0983       15.4803       15.5786       7.995872       5.60571
  33     6.613        7.6072        0.1230       14.7157       14.8387       7.231509       4.08629
  32     8.786        7.6395        0.1553       13.9936       14.1488       6.509361       2.80456
  31     11.80        7.6814        0.2002       13.2835       13.4837       5.802343       1.97943
  30     15.07        7.7214        0.2467       12.7394       12.9861       5.264613       1.38831
  29     18.79        7.7625        0.2982       12.2666       12.5648       4.802300       1.04821
  28     23.16        7.8056        0.3566       11.8300       12.1866       4.380994       0.81467
  27     28.12        7.8493        0.4220       11.4279       11.8498       4.000568       0.64670
  26     33.73        7.8884        0.4939       11.0695       11.5634       3.675012       0.48948
  25     40.54        7.9236        0.5797       10.7209       11.3006       3.377003       0.36971
  24     48.69        7.9547        0.6814       10.3742       11.0556       3.100865       0.28576
  23     57.69        7.9775        0.7913       10.0549       10.8462       2.868707       0.21761
  22     68.43        7.9917        0.9200        9.7327       10.6527       2.661013       0.16328
  21     81.20        7.9892        1.0717        9.4134       10.4851       2.495960       0.10906
  20     96.49        7.9678        1.2498        9.0887       10.3385       2.370731       0.06912
  19     114.6        7.9341        1.4550        8.7388       10.1938       2.259634       0.05187
  18     136.5        7.8903        1.6889        8.3549       10.0437       2.153430       0.04084
  17     162.9        7.8357        1.9545        7.9311        9.8856       2.049882       0.03310
  16     196.4        7.7561        2.2819        7.4333        9.7153       1.959192       0.02283
  15     218.7        7.7014        2.4871        7.1295        9.6166       1.915157       0.01672
  14     243.0        7.6420        2.7006        6.8161        9.5167       1.874641       0.01405
  13     269.0        7.5776        2.9217        6.4943        9.4160       1.838400       0.01176
  12     297.5        7.5082        3.1491        6.1657        9.3148       1.806583       0.00944
  11     328.5        7.4349        3.3817        5.8295        9.2111       1.776254       0.00825
  10     361.9        7.3580        3.6169        5.4886        9.1055       1.747549       0.00726
   9     398.1        7.2775        3.8540        5.1440        8.9980       1.720486       0.00631
   8     437.6        7.1937        4.0913        4.7969        8.8883       1.694543       0.00555
   7     480.5        7.1069        4.3266        4.4504        8.7770       1.670066       0.00481
   6     533.0        7.0041        4.5914        4.0563        8.6477       1.643571       0.00426
   5     589.8        6.8982        4.8481        3.6682        8.5163       1.618129       0.00378
   4     651.6        6.7898        5.0927        3.2905        8.3832       1.593461       0.00337
   3     718.7        6.6790        5.3234        2.9252        8.2486       1.569537       0.00301
   2     792.3        6.5664        5.5364        2.5764        8.1128       1.546371       0.00266
   1     891.5        5.6166        6.4164        0.7202        7.1366       1.519959       0.00225
   0    1013.0        5.4976        6.4078        0.5827        6.9906       1.492947       0.00188



 Wavenumbers: 38000. - 50000. cm-1, ATM      1
 LEVEL PRESSURE   UPWARD FLUX   DIFDOWN FLUX  DIRDOWN FLUX  DOWNWARD FLUX   NET FLUX    HEATING RATE
          mb          W/m2          W/m2          W/m2        W/m2          W/m2       degree/day
  51    .06700        0.0061        0.0000        1.2836        1.2836       1.277518       0.00000
  50    .07753        0.0061        0.0001        1.2812        1.2812       1.275183       1.87150
  49    .09103        0.0060        0.0002        1.2777        1.2778       1.271851       2.08247
  48    0.1069        0.0059        0.0002        1.2731        1.2734       1.267473       2.33059
  47    0.1255        0.0058        0.0004        1.2672        1.2675       1.261717       2.60908
  46    0.1487        0.0057        0.0005        1.2586        1.2591       1.253391       3.03499
  45    0.1794        0.0055        0.0007        1.2455        1.2462       1.240623       3.50520
  44    0.2165        0.0054        0.0009        1.2282        1.2291       1.223697       3.85037
  43    0.2613        0.0052        0.0011        1.2054        1.2065       1.201348       4.21261
  42    0.3336        0.0049        0.0015        1.1639        1.1654       1.160524       4.75970
  41    0.4307        0.0045        0.0020        1.1051        1.1070       1.102565       5.03943
  40    0.5894        0.0039        0.0026        1.0039        1.0064       1.002524       5.32007
  39     1.339        0.0022        0.0035        0.5438        0.5473       0.545104       5.14971
  38     1.782        0.0016        0.0032        0.3635        0.3666       0.365006       3.42879
  37     2.292        0.0012        0.0027        0.2356        0.2383       0.237058       2.11916
  36     2.964        0.0009        0.0022        0.1455        0.1477       0.146786       1.13318
  35     3.853        0.0006        0.0017        0.0858        0.0875       0.086906       0.56828
  34     5.035        0.0004        0.0013        0.0488        0.0501       0.049701       0.26578
  33     6.613        0.0003        0.0010        0.0273        0.0282       0.027974       0.11615
  32     8.786        0.0002        0.0007        0.0144        0.0151       0.014928       0.05067
  31     11.80        0.0001        0.0004        0.0065        0.0070       0.006903       0.02247
  30     15.07        0.0000        0.0003        0.0031        0.0034       0.003329       0.00923
  29     18.79        0.0000        0.0002        0.0014        0.0016       0.001583       0.00396
  28     23.16        0.0000        0.0001        0.0006        0.0007       0.000720       0.00167
  27     28.12        0.0000        0.0001        0.0003        0.0003       0.000317       0.00069
  26     33.73        0.0000        0.0000        0.0001        0.0001       0.000140       0.00027
  25     40.54        0.0000        0.0000        0.0000        0.0001       0.000057       0.00010
  24     48.69        0.0000        0.0000        0.0000        0.0000       0.000021       0.00004
  23     57.69        0.0000        0.0000        0.0000        0.0000       0.000008       0.00001
  22     68.43        0.0000        0.0000        0.0000        0.0000       0.000003       0.00000
  21     81.20        0.0000        0.0000        0.0000        0.0000       0.000001       0.00000
  20     96.49        0.0000        0.0000        0.0000        0.0000       0.000000       0.00000
  19     114.6        0.0000        0.0000        0.0000        0.0000       0.000000       0.00000
  18     136.5        0.0000        0.0000        0.0000        0.0000       0.000000       0.00000
  17     162.9        0.0000        0.0000        0.0000        0.0000       0.000000       0.00000
  16     196.4        0.0000        0.0000        0.0000        0.0000       0.000000       0.00000
  15     218.7        0.0000        0.0000        0.0000        0.0000       0.000000       0.00000
  14     243.0        0.0000        0.0000        0.0000        0.0000       0.000000       0.00000
  13     269.0        0.0000        0.0000        0.0000        0.0000       0.000000       0.00000
  12     297.5        0.0000        0.0000        0.0000        0.0000       0.000000       0.00000
  11     328.5        0.0000        0.0000        0.0000        0.0000       0.000000       0.00000
  10     361.9        0.0000        0.0000        0.0000        0.0000       0.000000       0.00000
   9     398.1        0.0000        0.0000        0.0000        0.0000       0.000000       0.00000
   8     437.6        0.0000        0.0000        0.0000        0.0000       0.000000       0.00000
   7     480.5        0.0000        0.0000        0.0000        0.0000       0.000000       0.00000
   6     533.0        0.0000        0.0000        0.0000        0.0000       0.000000       0.00000
   5     589.8        0.0000        0.0000        0.0000        0.0000       0.000000       0.00000
   4     651.6        0.0000        0.0000        0.0000        0.0000       0.000000       0.00000
   3     718.7        0.0000        0.0000        0.0000        0.0000       0.000000       0.00000
   2     792.3        0.0000        0.0000        0.0000        0.0000       0.000000       0.00000
   1     891.5        0.0000        0.0000        0.0000        0.0000       0.000000       0.00000
   0    1013.0        0.0000        0.0000        0.0000        0.0000       0.000000       0.00000



 Wavenumbers:   820. -  2600. cm-1, ATM      1
 LEVEL PRESSURE   UPWARD FLUX   DIFDOWN FLUX  DIRDOWN FLUX  DOWNWARD FLUX   NET FLUX    HEATING RATE
          mb          W/m2          W/m2          W/m2        W/m2          W/m2       degree/day
  51    .06700        0.7649        0.0000        6.0047        6.0047       5.239764       0.00000
  50    .07753        0.7649        0.0000        6.0008        6.0008       5.235912       3.08821
  49    .09103        0.7649        0.0000        5.9999        5.9999       5.235026       0.55358
  48    0.1069        0.7649        0.0000        5.9989        5.9989       5.234037       0.52653
  47    0.1255        0.7649        0.0000        5.9978        5.9978       5.232919       0.50650
  46    0.1487        0.7649        0.0000        5.9964        5.9964       5.231563       0.49457
  45    0.1794        0.7649        0.0000        5.9947        5.9947       5.229843       0.47200
  44    0.2165        0.7649        0.0000        5.9929        5.9929       5.228001       0.41911
  43    0.2613        0.7649        0.0000        5.9909        5.9909       5.226042       0.36933
  42    0.3336        0.7649        0.0000        5.9880        5.9880       5.223163       0.33557
  41    0.4307        0.7649        0.0000        5.9846        5.9846       5.219694       0.30165
  40    0.5894        0.7649        0.0000        5.9791        5.9791       5.214189       0.29277
  39     1.339        0.7649        0.0000        5.9536        5.9536       5.188701       0.28695
  38     1.782        0.7649        0.0000        5.9395        5.9395       5.174562       0.26918
  37     2.292        0.7649        0.0000        5.9237        5.9237       5.158810       0.26089
  36     2.964        0.7649        0.0000        5.9039        5.9039       5.139036       0.24823
  35     3.853        0.7649        0.0000        5.8793        5.8793       5.114379       0.23400
  34     5.035        0.7649        0.0000        5.8487        5.8487       5.083814       0.21834
  33     6.613        0.7649        0.0000        5.8108        5.8108       5.045848       0.20297
  32     8.786        0.7649        0.0000        5.7631        5.7631       4.998222       0.18496
  31     11.80        0.7649        0.0000        5.7039        5.7039       4.938961       0.16591
  30     15.07        0.7649        0.0000        5.6539        5.6539       4.888917       0.12920
  29     18.79        0.7650        0.0000        5.6127        5.6127       4.847775       0.09328
  28     23.16        0.7650        0.0000        5.5794        5.5794       4.814390       0.06456
  27     28.12        0.7650        0.0000        5.5518        5.5518       4.786813       0.04688
  26     33.73        0.7650        0.0000        5.5268        5.5268       4.761746       0.03769
  25     40.54        0.7650        0.0000        5.4993        5.4993       4.734285       0.03407
  24     48.69        0.7651        0.0000        5.4678        5.4678       4.702720       0.03266
  23     57.69        0.7651        0.0000        5.4340        5.4340       4.668905       0.03170
  22     68.43        0.7652        0.0000        5.3947        5.3948       4.629596       0.03090
  21     81.20        0.7652        0.0000        5.3497        5.3497       4.584519       0.02979
  20     96.49        0.7653        0.0000        5.2982        5.2982       4.532951       0.02846
  19     114.6        0.7654        0.0000        5.2389        5.2389       4.473560       0.02773
  18     136.5        0.7655        0.0000        5.1716        5.1717       4.406216       0.02590
  17     162.9        0.7656        0.0000        5.0890        5.0890       4.323459       0.02645
  16     196.4        0.7658        0.0000        4.9668        4.9668       4.201002       0.03082
  15     218.7        0.7661        0.0000        4.8585        4.8585       4.092404       0.04123
  14     243.0        0.7665        0.0000        4.7078        4.7079       3.941408       0.05237
  13     269.0        0.7670        0.0000        4.5343        4.5343       3.767258       0.05649
  12     297.5        0.7679        0.0000        4.3419        4.3420       3.574025       0.05731
  11     328.5        0.7692        0.0000        4.1281        4.1281       3.358972       0.05847
  10     361.9        0.7708        0.0000        3.8786        3.8787       3.107866       0.06353
   9     398.1        0.7729        0.0000        3.6159        3.6159       2.843012       0.06171
   8     437.6        0.7757        0.0000        3.3759        3.3759       2.600190       0.05192
   7     480.5        0.7791        0.0000        3.1957        3.1958       2.416698       0.03604
   6     533.0        0.7842        0.0000        3.0467        3.0467       2.262462       0.02481
   5     589.8        0.7919        0.0000        2.9023        2.9023       2.110459       0.02256
   4     651.6        0.8051        0.0000        2.7183        2.7184       1.913215       0.02697
   3     718.7        0.8281        0.0000        2.5058        2.5059       1.677805       0.02958
   2     792.3        0.8714        0.0000        2.2756        2.2757       1.404250       0.03137
   1     891.5        0.2440        0.6823        0.6523        1.3346       1.090601       0.02669
   0    1013.0        0.2951        0.5514        0.5142        1.0657       0.770576       0.02222

  Modules and versions used in this calculation:

       rrtmg_sw.1col.f90:  $Revision$                    rrtmg_sw_init.f90:  $Revision$        
     rrtmgsw_cldprop.f90:  $Revision$                  rrtmgsw_cldprmc.f90:  NOT USED          
     rrtmg_sw_reftra.f90:  $Revision$                  rrtmg_sw_spcvrt.f90:  NOT USED          
     rrtmg_sw_spcvmc.f90:  NOT USED                    rrtmgsw_setcoef.f90:  NOT USED          
     rrtmg_sw_taumol.f90:  $Revision$                  rrtmg_sw_vrtqdr.f90:  NOT USED          
                rrtatm.f:  NOT USED                             util_xxx.f:  NOT USED          
                 extra.f:  NOT USED                       rrtmg_sw_k_g.f90:  $Revision$        

