

 Wavenumbers:   820. - 50000. cm-1, ATM      1
 LEVEL PRESSURE   UPWARD FLUX   DIFDOWN FLUX  DIRDOWN FLUX  DOWNWARD FLUX   NET FLUX    HEATING RATE
          mb          W/m2          W/m2          W/m2        W/m2          W/m2       degree/day
  51    .06700      343.5612        0.0000      617.8126      617.8126     274.251370       0.00000
  50    .07753      343.5608        0.0013      617.7947      617.7960     274.235245      12.92448
  49    .09103      343.5602        0.0029      617.7778      617.7807     274.220457       9.24288
  48    0.1069      343.5596        0.0048      617.7581      617.7628     274.203225       9.17289
  47    0.1255      343.5589        0.0069      617.7340      617.7409     274.181919       9.65907
  46    0.1487      343.5582        0.0096      617.7009      617.7105     274.152290      10.79993
  45    0.1794      343.5572        0.0132      617.6521      617.6653     274.108149      12.11796
  44    0.2165      343.5561        0.0176      617.5895      617.6071     274.050948      13.01209
  43    0.2613      343.5550        0.0227      617.5089      617.5316     273.976600      14.01442
  42    0.3336      343.5534        0.0311      617.3641      617.3952     273.841827      15.71320
  41    0.4307      343.5516        0.0422      617.1591      617.2013     273.649674      16.70723
  40    0.5894      343.5496        0.0600      616.8005      616.8605     273.310882      18.01653
  39     1.339      343.5559        0.1406      614.9443      615.0848     271.528920      20.06166
  38     1.782      343.5705        0.1858      613.9670      614.1528     270.582316      18.02181
  37     2.292      343.5972        0.2372      613.0059      613.2431     269.645871      15.50997
  36     2.964      343.6470        0.3040      611.9577      612.2616     268.614600      12.94557
  35     3.853      343.7334        0.3915      610.8024      611.1939     267.460518      10.95244
  34     5.035      343.8683        0.5070      609.5327      610.0397     266.171362       9.20920
  33     6.613      344.0594        0.6602      608.1464      608.8066     264.747194       7.61361
  32     8.786      344.3078        0.8656      606.6250      607.4907     263.182873       6.07525
  31     11.80      344.6267        1.1580      604.8486      606.0067     261.379929       5.04767
  30     15.07      344.9268        1.4699      603.2440      604.7138     259.787007       4.11261
  29     18.79      345.2280        1.8207      601.6511      603.4718     258.243802       3.49892
  28     23.16      345.5362        2.2281      599.9927      602.2208     256.684602       3.01499
  27     28.12      345.8375        2.6916      598.2881      600.9797     255.142136       2.62209
  26     33.73      346.0999        3.2081      596.5951      599.8032     253.703300       2.16333
  25     40.54      346.3297        3.8297      594.7727      598.6024     252.272721       1.77479
  24     48.69      346.5223        4.5753      592.7865      597.3618     250.839426       1.48324
  23     57.69      346.6520        5.3898      590.7959      596.1857     249.533655       1.22396
  22     68.43      346.7176        6.3542      588.6191      594.9732     248.255623       1.00470
  21     81.20      346.6723        7.4968      586.2690      593.7658     247.093525       0.76790
  20     96.49      346.5038        8.8488      583.6961      592.5449     246.041072       0.58088
  19     114.6      346.2565       10.4377      580.7708      591.2085     244.952027       0.50851
  18     136.5      345.9266       12.2963      577.4359      589.7322     243.805558       0.44084
  17     162.9      345.5028       14.4746      573.5624      588.0371     242.534257       0.40636
  16     196.4      344.8813       17.2483      568.5907      585.8390     240.957737       0.39683
  15     218.7      344.4500       19.0390      565.0572      584.0962     239.646226       0.49793
  14     243.0      343.9750       20.9574      560.7495      581.7069     237.731870       0.66396
  13     269.0      343.4564       23.0041      555.3947      578.3987     234.942380       0.90490
  12     297.5      342.8973       25.1790      548.9964      574.1754     231.278110       1.08678
  11     328.5      342.3043       27.4876      542.0895      569.5772     227.272870       1.08901
  10     361.9      341.6827       29.9255      534.6242      564.5497     222.867038       1.11472
   9     398.1      341.0388       32.4960      526.4204      558.9164     217.877612       1.16242
   8     437.6      340.3875       35.1967      517.3907      552.5874     212.199877       1.21394
   7     480.5      339.7445       38.0248      507.7216      545.7463     206.001864       1.21727
   6     533.0      339.0552       41.4153      495.9006      537.3160     198.260789       1.24529
   5     589.8      338.4972       44.9614      483.0788      528.0402     189.542984       1.29401
   4     651.6      338.2780       48.6483      468.6907      517.3390     179.060977       1.43344
   3     718.7      338.6838       52.4663      453.2257      505.6920     167.008214       1.51470
   2     792.3      340.4673       56.3920      436.4928      492.8849     152.417570       1.67338
   1     891.5      174.5380      266.4350       45.7395      312.1746     137.636552       1.25779
   0    1013.0      175.5558      259.5388       42.9193      302.4581     126.902266       0.74534



 Wavenumbers:  2600. -  3250. cm-1, ATM      1
 LEVEL PRESSURE   UPWARD FLUX   DIFDOWN FLUX  DIRDOWN FLUX  DOWNWARD FLUX   NET FLUX    HEATING RATE
          mb          W/m2          W/m2          W/m2        W/m2          W/m2       degree/day
  51    .06700        1.2871        0.0000        5.4450        5.4450       4.157908       0.00000
  50    .07753        1.2871        0.0000        5.4450        5.4450       4.157900       0.00640
  49    .09103        1.2871        0.0000        5.4450        5.4450       4.157890       0.00627
  48    0.1069        1.2871        0.0000        5.4450        5.4450       4.157878       0.00613
  47    0.1255        1.2871        0.0000        5.4450        5.4450       4.157865       0.00599
  46    0.1487        1.2871        0.0000        5.4450        5.4450       4.157848       0.00608
  45    0.1794        1.2871        0.0000        5.4450        5.4450       4.157825       0.00625
  44    0.2165        1.2871        0.0000        5.4449        5.4449       4.157799       0.00612
  43    0.2613        1.2871        0.0000        5.4449        5.4449       4.157767       0.00600
  42    0.3336        1.2871        0.0000        5.4448        5.4448       4.157714       0.00617
  41    0.4307        1.2871        0.0000        5.4448        5.4448       4.157643       0.00620
  40    0.5894        1.2871        0.0000        5.4446        5.4446       4.157523       0.00637
  39     1.339        1.2871        0.0000        5.4439        5.4439       4.156815       0.00797
  38     1.782        1.2871        0.0000        5.4434        5.4434       4.156272       0.01034
  37     2.292        1.2871        0.0000        5.4427        5.4427       4.155556       0.01186
  36     2.964        1.2871        0.0000        5.4416        5.4416       4.154518       0.01304
  35     3.853        1.2871        0.0000        5.4402        5.4402       4.153040       0.01402
  34     5.035        1.2871        0.0000        5.4381        5.4381       4.150985       0.01468
  33     6.613        1.2871        0.0000        5.4353        5.4353       4.148203       0.01487
  32     8.786        1.2871        0.0000        5.4317        5.4317       4.144571       0.01411
  31     11.80        1.2871        0.0000        5.4269        5.4269       4.139789       0.01339
  30     15.07        1.2871        0.0000        5.4224        5.4224       4.135261       0.01169
  29     18.79        1.2871        0.0000        5.4180        5.4180       4.130847       0.01001
  28     23.16        1.2871        0.0000        5.4135        5.4135       4.126358       0.00868
  27     28.12        1.2871        0.0000        5.4088        5.4088       4.121705       0.00791
  26     33.73        1.2871        0.0000        5.4036        5.4036       4.116458       0.00789
  25     40.54        1.2872        0.0000        5.3966        5.3967       4.109505       0.00863
  24     48.69        1.2872        0.0000        5.3872        5.3872       4.100012       0.00982
  23     57.69        1.2872        0.0000        5.3754        5.3754       4.088205       0.01107
  22     68.43        1.2872        0.0000        5.3599        5.3599       4.072684       0.01220
  21     81.20        1.2873        0.0000        5.3401        5.3401       4.052803       0.01314
  20     96.49        1.2874        0.0000        5.3155        5.3155       4.028169       0.01360
  19     114.6        1.2875        0.0000        5.2853        5.2854       3.997879       0.01414
  18     136.5        1.2876        0.0001        5.2504        5.2505       3.962840       0.01347
  17     162.9        1.2878        0.0001        5.2111        5.2112       3.923306       0.01264
  16     196.4        1.2882        0.0001        5.1640        5.1641       3.875895       0.01193
  15     218.7        1.2886        0.0001        5.1331        5.1332       3.844604       0.01188
  14     243.0        1.2892        0.0001        5.0962        5.0963       3.807098       0.01301
  13     269.0        1.2902        0.0001        5.0511        5.0512       3.761022       0.01495
  12     297.5        1.2916        0.0001        4.9956        4.9957       3.704085       0.01689
  11     328.5        1.2937        0.0001        4.9304        4.9305       3.636820       0.01829
  10     361.9        1.2965        0.0001        4.8511        4.8512       3.554748       0.02077
   9     398.1        1.3004        0.0002        4.7507        4.7508       3.450460       0.02430
   8     437.6        1.3058        0.0002        4.6220        4.6222       3.316426       0.02866
   7     480.5        1.3133        0.0002        4.4625        4.4627       3.149388       0.03281
   6     533.0        1.3255        0.0002        4.2460        4.2462       2.920738       0.03678
   5     589.8        1.3442        0.0002        3.9954        3.9956       2.651428       0.03997
   4     651.6        1.3751        0.0002        3.7089        3.7091       2.333970       0.04341
   3     718.7        1.4263        0.0002        3.4018        3.4020       1.975681       0.04503
   2     792.3        1.5199        0.0002        3.0564        3.0566       1.536784       0.05034
   1     891.5        0.2547        1.0738        0.2855        1.3593       1.104585       0.03678
   0    1013.0        0.2936        0.8906        0.2304        1.1210       0.827477       0.01924



 Wavenumbers:  3250. -  4000. cm-1, ATM      1
 LEVEL PRESSURE   UPWARD FLUX   DIFDOWN FLUX  DIRDOWN FLUX  DOWNWARD FLUX   NET FLUX    HEATING RATE
          mb          W/m2          W/m2          W/m2        W/m2          W/m2       degree/day
  51    .06700        0.0328        0.0000        9.1795        9.1795       9.146745       0.00000
  50    .07753        0.0328        0.0000        9.1747        9.1747       9.141903       3.88148
  49    .09103        0.0328        0.0000        9.1713        9.1713       9.138515       2.11747
  48    0.1069        0.0328        0.0000        9.1688        9.1688       9.135990       1.34402
  47    0.1255        0.0328        0.0000        9.1665        9.1665       9.133731       1.02422
  46    0.1487        0.0328        0.0000        9.1641        9.1641       9.131289       0.88991
  45    0.1794        0.0328        0.0000        9.1612        9.1612       9.128411       0.79008
  44    0.2165        0.0328        0.0000        9.1583        9.1583       9.125491       0.66430
  43    0.2613        0.0328        0.0000        9.1553        9.1553       9.122518       0.56041
  42    0.3336        0.0328        0.0000        9.1511        9.1511       9.118339       0.48723
  41    0.4307        0.0328        0.0000        9.1464        9.1464       9.113571       0.41459
  40    0.5894        0.0328        0.0000        9.1393        9.1394       9.106565       0.37255
  39     1.339        0.0328        0.0000        9.1127        9.1127       9.079951       0.29962
  38     1.782        0.0328        0.0000        9.1011        9.1011       9.068363       0.22062
  37     2.292        0.0328        0.0000        9.0901        9.0901       9.057297       0.18329
  36     2.964        0.0328        0.0000        9.0776        9.0776       9.044867       0.15603
  35     3.853        0.0328        0.0000        9.0629        9.0629       9.030077       0.14036
  34     5.035        0.0328        0.0000        9.0441        9.0441       9.011338       0.13386
  33     6.613        0.0328        0.0000        9.0191        9.0191       8.986336       0.13366
  32     8.786        0.0328        0.0000        8.9843        8.9843       8.951553       0.13509
  31     11.80        0.0328        0.0000        8.9327        8.9327       8.899936       0.14451
  30     15.07        0.0328        0.0000        8.8758        8.8759       8.843091       0.14676
  29     18.79        0.0328        0.0000        8.8110        8.8110       8.778264       0.14698
  28     23.16        0.0328        0.0000        8.7365        8.7366       8.703819       0.14395
  27     28.12        0.0327        0.0000        8.6554        8.6555       8.622706       0.13789
  26     33.73        0.0327        0.0000        8.5719        8.5719       8.539207       0.12554
  25     40.54        0.0327        0.0001        8.4812        8.4812       8.448483       0.11255
  24     48.69        0.0327        0.0001        8.3838        8.3839       8.351181       0.10069
  23     57.69        0.0327        0.0001        8.2861        8.2862       8.253446       0.09161
  22     68.43        0.0327        0.0001        8.1751        8.1751       8.142450       0.08726
  21     81.20        0.0327        0.0001        8.0457        8.0458       8.013091       0.08548
  20     96.49        0.0327        0.0001        7.8949        7.8950       7.862388       0.08318
  19     114.6        0.0326        0.0001        7.7162        7.7163       7.683678       0.08344
  18     136.5        0.0326        0.0002        7.5193        7.5195       7.486834       0.07569
  17     162.9        0.0326        0.0002        7.2913        7.2915       7.258942       0.07284
  16     196.4        0.0326        0.0002        6.9660        6.9662       6.933667       0.08188
  15     218.7        0.0325        0.0002        6.6648        6.6650       6.632472       0.11435
  14     243.0        0.0325        0.0002        6.2619        6.2622       6.229664       0.13971
  13     269.0        0.0325        0.0003        5.7576        5.7579       5.725332       0.16360
  12     297.5        0.0326        0.0003        5.1719        5.1722       5.139570       0.17373
  11     328.5        0.0327        0.0002        4.5757        4.5760       4.543288       0.16213
  10     361.9        0.0329        0.0002        3.9995        3.9998       3.966908       0.14583
   9     398.1        0.0332        0.0002        3.4655        3.4657       3.432517       0.12450
   8     437.6        0.0337        0.0002        2.9740        2.9743       2.940513       0.10519
   7     480.5        0.0346        0.0002        2.5307        2.5309       2.496239       0.08725
   6     533.0        0.0364        0.0002        2.0614        2.0616       2.025205       0.07577
   5     589.8        0.0395        0.0002        1.6150        1.6151       1.575600       0.06674
   4     651.6        0.0462        0.0001        1.1565        1.1566       1.110420       0.06361
   3     718.7        0.0608        0.0001        0.7390        0.7391       0.678302       0.05431
   2     792.3        0.0998        0.0001        0.3985        0.3985       0.298754       0.04353
   1     891.5        0.0001        0.0411        0.0126        0.0537       0.053525       0.02087
   0    1013.0        0.0014        0.0043        0.0010        0.0053       0.003912       0.00344



 Wavenumbers:  4000. -  4650. cm-1, ATM      1
 LEVEL PRESSURE   UPWARD FLUX   DIFDOWN FLUX  DIRDOWN FLUX  DOWNWARD FLUX   NET FLUX    HEATING RATE
          mb          W/m2          W/m2          W/m2        W/m2          W/m2       degree/day
  51    .06700        4.2773        0.0000       10.7795       10.7795       6.502262       0.00000
  50    .07753        4.2773        0.0000       10.7795       10.7795       6.502261       0.00080
  49    .09103        4.2773        0.0000       10.7795       10.7795       6.502260       0.00078
  48    0.1069        4.2773        0.0000       10.7795       10.7795       6.502259       0.00076
  47    0.1255        4.2773        0.0000       10.7795       10.7795       6.502257       0.00075
  46    0.1487        4.2773        0.0000       10.7795       10.7795       6.502255       0.00076
  45    0.1794        4.2773        0.0000       10.7795       10.7795       6.502252       0.00078
  44    0.2165        4.2773        0.0000       10.7795       10.7795       6.502249       0.00076
  43    0.2613        4.2773        0.0000       10.7795       10.7795       6.502245       0.00075
  42    0.3336        4.2773        0.0000       10.7795       10.7795       6.502238       0.00077
  41    0.4307        4.2773        0.0000       10.7795       10.7795       6.502229       0.00077
  40    0.5894        4.2773        0.0000       10.7795       10.7795       6.502214       0.00080
  39     1.339        4.2773        0.0000       10.7794       10.7794       6.502125       0.00101
  38     1.782        4.2773        0.0000       10.7793       10.7793       6.502055       0.00133
  37     2.292        4.2773        0.0000       10.7792       10.7792       6.501961       0.00156
  36     2.964        4.2773        0.0000       10.7791       10.7791       6.501820       0.00176
  35     3.853        4.2773        0.0000       10.7789       10.7789       6.501612       0.00198
  34     5.035        4.2773        0.0000       10.7786       10.7786       6.501305       0.00219
  33     6.613        4.2773        0.0000       10.7781       10.7781       6.500853       0.00242
  32     8.786        4.2773        0.0000       10.7774       10.7774       6.500185       0.00259
  31     11.80        4.2773        0.0001       10.7763       10.7764       6.499136       0.00294
  30     15.07        4.2773        0.0001       10.7751       10.7752       6.497905       0.00318
  29     18.79        4.2773        0.0001       10.7736       10.7737       6.496415       0.00338
  28     23.16        4.2773        0.0001       10.7717       10.7718       6.494566       0.00358
  27     28.12        4.2773        0.0001       10.7695       10.7696       6.492327       0.00381
  26     33.73        4.2773        0.0002       10.7667       10.7668       6.489564       0.00415
  25     40.54        4.2773        0.0002       10.7629       10.7631       6.485816       0.00465
  24     48.69        4.2773        0.0002       10.7579       10.7581       6.480820       0.00517
  23     57.69        4.2774        0.0003       10.7520       10.7523       6.474894       0.00555
  22     68.43        4.2774        0.0003       10.7446       10.7449       6.467464       0.00584
  21     81.20        4.2776        0.0004       10.7355       10.7359       6.458308       0.00605
  20     96.49        4.2777        0.0004       10.7245       10.7249       6.447160       0.00615
  19     114.6        4.2780        0.0005       10.7107       10.7112       6.433209       0.00651
  18     136.5        4.2784        0.0006       10.6942       10.6948       6.416386       0.00647
  17     162.9        4.2790        0.0007       10.6740       10.6747       6.395741       0.00660
  16     196.4        4.2800        0.0009       10.6464       10.6472       6.367226       0.00718
  15     218.7        4.2809        0.0010       10.6255       10.6264       6.345511       0.00824
  14     243.0        4.2822        0.0011       10.5980       10.5991       6.316873       0.00993
  13     269.0        4.2842        0.0012       10.5611       10.5623       6.278032       0.01260
  12     297.5        4.2872        0.0013       10.5119       10.5132       6.226076       0.01541
  11     328.5        4.2912        0.0014       10.4499       10.4513       6.160103       0.01794
  10     361.9        4.2965        0.0016       10.3702       10.3717       6.075243       0.02147
   9     398.1        4.3032        0.0017       10.2678       10.2695       5.966320       0.02538
   8     437.6        4.3117        0.0019       10.1390       10.1409       5.829159       0.02933
   7     480.5        4.3226        0.0020        9.9877        9.9897       5.667098       0.03183
   6     533.0        4.3395        0.0022        9.7937        9.7959       5.456429       0.03389
   5     589.8        4.3638        0.0024        9.5752        9.5776       5.213718       0.03603
   4     651.6        4.4032        0.0026        9.2958        9.2984       4.895197       0.04356
   3     718.7        4.4694        0.0028        8.9267        8.9295       4.460107       0.05468
   2     792.3        4.5938        0.0029        8.4542        8.4572       3.863376       0.06844
   1     891.5        0.9496        3.3463        0.8614        4.2077       3.258142       0.05150
   0    1013.0        1.0105        3.0793        0.7821        3.8614       2.850858       0.02828



 Wavenumbers:  4650. -  5150. cm-1, ATM      1
 LEVEL PRESSURE   UPWARD FLUX   DIFDOWN FLUX  DIRDOWN FLUX  DOWNWARD FLUX   NET FLUX    HEATING RATE
          mb          W/m2          W/m2          W/m2        W/m2          W/m2       degree/day
  51    .06700        3.0820        0.0000       10.2033       10.2033       7.121300       0.00000
  50    .07753        3.0820        0.0000       10.2031       10.2031       7.121064       0.18901
  49    .09103        3.0820        0.0000       10.2028       10.2028       7.120769       0.18428
  48    0.1069        3.0820        0.0000       10.2025       10.2025       7.120432       0.17931
  47    0.1255        3.0820        0.0000       10.2021       10.2021       7.120048       0.17426
  46    0.1487        3.0820        0.0000       10.2016       10.2016       7.119567       0.17536
  45    0.1794        3.0820        0.0000       10.2010       10.2010       7.118917       0.17850
  44    0.2165        3.0820        0.0000       10.2002       10.2002       7.118157       0.17277
  43    0.2613        3.0820        0.0000       10.1993       10.1993       7.117272       0.16690
  42    0.3336        3.0820        0.0000       10.1979       10.1979       7.115839       0.16702
  41    0.4307        3.0820        0.0000       10.1960       10.1960       7.113999       0.16002
  40    0.5894        3.0820        0.0000       10.1932       10.1932       7.111125       0.15283
  39     1.339        3.0820        0.0000       10.1816       10.1816       7.099533       0.13050
  38     1.782        3.0820        0.0000       10.1760       10.1760       7.094004       0.10526
  37     2.292        3.0820        0.0000       10.1706       10.1706       7.088547       0.09038
  36     2.964        3.0820        0.0000       10.1646       10.1647       7.082624       0.07436
  35     3.853        3.0820        0.0000       10.1584       10.1584       7.076409       0.05898
  34     5.035        3.0820        0.0000       10.1521       10.1521       7.070071       0.04527
  33     6.613        3.0820        0.0000       10.1456       10.1456       7.063612       0.03453
  32     8.786        3.0820        0.0001       10.1386       10.1386       7.056596       0.02725
  31     11.80        3.0820        0.0001       10.1295       10.1296       7.047547       0.02534
  30     15.07        3.0821        0.0001       10.1196       10.1197       7.037656       0.02554
  29     18.79        3.0821        0.0001       10.1076       10.1077       7.025630       0.02726
  28     23.16        3.0821        0.0002       10.0923       10.0924       7.010300       0.02964
  27     28.12        3.0822        0.0002       10.0731       10.0733       6.991171       0.03252
  26     33.73        3.0822        0.0002       10.0500       10.0503       6.968029       0.03479
  25     40.54        3.0823        0.0003       10.0201       10.0204       6.938057       0.03718
  24     48.69        3.0825        0.0003        9.9820        9.9823       6.899786       0.03960
  23     57.69        3.0827        0.0004        9.9384        9.9388       6.856120       0.04093
  22     68.43        3.0830        0.0004        9.8858        9.8862       6.803210       0.04159
  21     81.20        3.0834        0.0005        9.8234        9.8240       6.740572       0.04139
  20     96.49        3.0840        0.0006        9.7518        9.7524       6.668411       0.03983
  19     114.6        3.0848        0.0007        9.6719        9.6726       6.587884       0.03760
  18     136.5        3.0859        0.0009        9.5858        9.5867       6.500786       0.03349
  17     162.9        3.0874        0.0010        9.4940        9.4951       6.407635       0.02977
  16     196.4        3.0898        0.0012        9.3883        9.3895       6.299674       0.02718
  15     218.7        3.0917        0.0013        9.3229        9.3243       6.232552       0.02548
  14     243.0        3.0942        0.0015        9.2520        9.2535       6.159290       0.02541
  13     269.0        3.0975        0.0016        9.1717        9.1733       6.075810       0.02708
  12     297.5        3.1021        0.0018        9.0763        9.0781       5.975947       0.02962
  11     328.5        3.1082        0.0020        8.9650        8.9669       5.858747       0.03187
  10     361.9        3.1160        0.0021        8.8349        8.8370       5.721044       0.03484
   9     398.1        3.1262        0.0023        8.6820        8.6843       5.558145       0.03795
   8     437.6        3.1394        0.0025        8.5028        8.5053       5.365859       0.04111
   7     480.5        3.1567        0.0027        8.2948        8.2975       5.140792       0.04420
   6     533.0        3.1831        0.0029        8.0209        8.0238       4.840695       0.04828
   5     589.8        3.2199        0.0031        7.7063        7.7095       4.489594       0.05211
   4     651.6        3.2744        0.0033        7.3412        7.3446       4.070189       0.05735
   3     718.7        3.3570        0.0035        6.9387        6.9422       3.585186       0.06095
   2     792.3        3.4892        0.0037        6.5066        6.5103       3.021072       0.06470
   1     891.5        0.6972        2.5307        0.6560        3.1867       2.489509       0.04523
   0    1013.0        0.7542        2.2956        0.5860        2.8816       2.127338       0.02515



 Wavenumbers:  5150. -  6150. cm-1, ATM      1
 LEVEL PRESSURE   UPWARD FLUX   DIFDOWN FLUX  DIRDOWN FLUX  DOWNWARD FLUX   NET FLUX    HEATING RATE
          mb          W/m2          W/m2          W/m2        W/m2          W/m2       degree/day
  51    .06700        7.3641        0.0000       25.5798       25.5798      18.215749       0.00000
  50    .07753        7.3641        0.0000       25.5798       25.5798      18.215709       0.03160
  49    .09103        7.3641        0.0000       25.5797       25.5797      18.215658       0.03208
  48    0.1069        7.3641        0.0000       25.5797       25.5797      18.215597       0.03259
  47    0.1255        7.3641        0.0000       25.5796       25.5796      18.215524       0.03309
  46    0.1487        7.3641        0.0000       25.5795       25.5795      18.215428       0.03486
  45    0.1794        7.3641        0.0000       25.5794       25.5794      18.215293       0.03711
  44    0.2165        7.3641        0.0000       25.5792       25.5792      18.215127       0.03767
  43    0.2613        7.3641        0.0000       25.5790       25.5790      18.214924       0.03825
  42    0.3336        7.3641        0.0000       25.5786       25.5786      18.214578       0.04041
  41    0.4307        7.3641        0.0000       25.5782       25.5782      18.214107       0.04095
  40    0.5894        7.3641        0.0000       25.5774       25.5774      18.213318       0.04196
  39     1.339        7.3641        0.0000       25.5735       25.5736      18.209516       0.04280
  38     1.782        7.3640        0.0001       25.5713       25.5714      18.207303       0.04214
  37     2.292        7.3640        0.0001       25.5688       25.5688      18.204798       0.04149
  36     2.964        7.3640        0.0001       25.5656       25.5657      18.201615       0.03995
  35     3.853        7.3640        0.0001       25.5615       25.5616      18.197569       0.03839
  34     5.035        7.3640        0.0001       25.5562       25.5564      18.192360       0.03722
  33     6.613        7.3640        0.0002       25.5494       25.5496      18.185601       0.03613
  32     8.786        7.3640        0.0003       25.5406       25.5409      18.176841       0.03402
  31     11.80        7.3640        0.0003       25.5287       25.5290      18.164993       0.03317
  30     15.07        7.3640        0.0004       25.5167       25.5171      18.153110       0.03068
  29     18.79        7.3640        0.0006       25.5042       25.5047      18.140685       0.02817
  28     23.16        7.3641        0.0007       25.4907       25.4914      18.127299       0.02589
  27     28.12        7.3641        0.0008       25.4764       25.4773      18.113180       0.02400
  26     33.73        7.3641        0.0010       25.4620       25.4630      18.098866       0.02152
  25     40.54        7.3642        0.0012       25.4463       25.4474      18.083206       0.01943
  24     48.69        7.3644        0.0014       25.4294       25.4308      18.066423       0.01737
  23     57.69        7.3646        0.0017       25.4126       25.4143      18.049747       0.01563
  22     68.43        7.3648        0.0020       25.3944       25.3964      18.031627       0.01424
  21     81.20        7.3651        0.0024       25.3744       25.3768      18.011672       0.01319
  20     96.49        7.3655        0.0028       25.3519       25.3548      17.989233       0.01239
  19     114.6        7.3661        0.0034       25.3262       25.3295      17.963486       0.01202
  18     136.5        7.3667        0.0040       25.2962       25.3002      17.933503       0.01153
  17     162.9        7.3675        0.0048       25.2521       25.2569      17.889356       0.01411
  16     196.4        7.3686        0.0057       25.1593       25.1650      17.796394       0.02340
  15     218.7        7.3695        0.0063       25.0159       25.0223      17.652819       0.05451
  14     243.0        7.3705        0.0070       24.7089       24.7159      17.345393       0.10663
  13     269.0        7.3719        0.0076       24.1619       24.1695      16.797572       0.17771
  12     297.5        7.3738        0.0082       23.4544       23.4626      16.088785       0.21022
  11     328.5        7.3764        0.0089       22.7355       22.7443      15.367927       0.19600
  10     361.9        7.3798        0.0095       21.9224       21.9319      14.552075       0.20642
   9     398.1        7.3845        0.0101       20.9939       21.0040      13.619494       0.21727
   8     437.6        7.3910        0.0106       19.9833       19.9940      12.602939       0.21735
   7     480.5        7.4001        0.0112       18.9483       18.9595      11.559349       0.20496
   6     533.0        7.4157        0.0118       17.7796       17.7914      10.375744       0.19040
   5     589.8        7.4409        0.0124       16.6726       16.6850       9.244110       0.16797
   4     651.6        7.4872        0.0131       15.6343       15.6474       8.160179       0.14823
   3     718.7        7.5721        0.0138       14.7738       14.7876       7.215418       0.11873
   2     792.3        7.7416        0.0146       14.0291       14.0437       6.302102       0.10475
   1     891.5        1.6581        5.6579        1.4456        7.1035       5.445388       0.07290
   0    1013.0        1.7292        5.2791        1.3302        6.6093       4.880153       0.03925



 Wavenumbers:  6150. -  7700. cm-1, ATM      1
 LEVEL PRESSURE   UPWARD FLUX   DIFDOWN FLUX  DIRDOWN FLUX  DOWNWARD FLUX   NET FLUX    HEATING RATE
          mb          W/m2          W/m2          W/m2        W/m2          W/m2       degree/day
  51    .06700       11.6854        0.0000       47.3109       47.3109      35.625491       0.00000
  50    .07753       11.6854        0.0000       47.3108       47.3108      35.625434       0.04553
  49    .09103       11.6854        0.0000       47.3107       47.3107      35.625361       0.04583
  48    0.1069       11.6854        0.0000       47.3106       47.3106      35.625274       0.04614
  47    0.1255       11.6854        0.0000       47.3105       47.3105      35.625172       0.04645
  46    0.1487       11.6854        0.0000       47.3104       47.3104      35.625039       0.04852
  45    0.1794       11.6854        0.0000       47.3102       47.3102      35.624852       0.05127
  44    0.2165       11.6854        0.0000       47.3100       47.3100      35.624625       0.05167
  43    0.2613       11.6854        0.0000       47.3097       47.3097      35.624349       0.05210
  42    0.3336       11.6853        0.0000       47.3092       47.3092      35.623879       0.05471
  41    0.4307       11.6853        0.0000       47.3085       47.3086      35.623244       0.05521
  40    0.5894       11.6853        0.0001       47.3074       47.3075      35.622185       0.05633
  39     1.339       11.6853        0.0002       47.3022       47.3024      35.617093       0.05733
  38     1.782       11.6852        0.0002       47.2991       47.2993      35.614123       0.05655
  37     2.292       11.6852        0.0003       47.2956       47.2959      35.610747       0.05591
  36     2.964       11.6851        0.0004       47.2912       47.2915      35.606429       0.05421
  35     3.853       11.6850        0.0005       47.2855       47.2859      35.600894       0.05252
  34     5.035       11.6849        0.0006       47.2780       47.2787      35.593714       0.05129
  33     6.613       11.6848        0.0008       47.2683       47.2691      35.584326       0.05019
  32     8.786       11.6846        0.0011       47.2556       47.2566      35.572026       0.04777
  31     11.80       11.6844        0.0014       47.2380       47.2395      35.555123       0.04732
  30     15.07       11.6841        0.0018       47.2201       47.2219      35.537835       0.04463
  29     18.79       11.6838        0.0023       47.2008       47.2031      35.519356       0.04190
  28     23.16       11.6834        0.0028       47.1795       47.1823      35.498965       0.03943
  27     28.12       11.6830        0.0034       47.1565       47.1599      35.476971       0.03739
  26     33.73       11.6825        0.0041       47.1324       47.1365      35.454050       0.03446
  25     40.54       11.6819        0.0049       47.1054       47.1103      35.428413       0.03181
  24     48.69       11.6812        0.0059       47.0754       47.0814      35.400160       0.02924
  23     57.69       11.6804        0.0070       47.0449       47.0520      35.371538       0.02683
  22     68.43       11.6795        0.0083       47.0110       47.0193      35.339800       0.02495
  21     81.20       11.6784        0.0099       46.9729       46.9827      35.304306       0.02345
  20     96.49       11.6771        0.0117       46.9294       46.9411      35.263965       0.02227
  19     114.6       11.6756        0.0139       46.8790       46.8929      35.217332       0.02177
  18     136.5       11.6738        0.0165       46.8200       46.8365      35.162709       0.02100
  17     162.9       11.6717        0.0196       46.7361       46.7558      35.084089       0.02513
  16     196.4       11.6690        0.0237       46.5703       46.5939      34.924894       0.04007
  15     218.7       11.6674        0.0262       46.3473       46.3735      34.706139       0.08305
  14     243.0       11.6659        0.0289       45.9299       45.9588      34.292913       0.14332
  13     269.0       11.6648        0.0316       45.1708       45.2024      33.537626       0.24501
  12     297.5       11.6646        0.0343       44.0115       44.0457      32.381127       0.34301
  11     328.5       11.6657        0.0369       42.7242       42.7611      31.095497       0.34956
  10     361.9       11.6686        0.0396       41.3539       41.3936      29.724968       0.34676
   9     398.1       11.6745        0.0423       39.7953       39.8375      28.163010       0.36390
   8     437.6       11.6853        0.0447       37.9948       38.0395      26.354207       0.38673
   7     480.5       11.7031        0.0470       36.0647       36.1117      24.408615       0.38211
   6     533.0       11.7375        0.0494       33.7773       33.8267      22.089255       0.37311
   5     589.8       11.7983        0.0516       31.4082       31.4598      19.661467       0.36036
   4     651.6       11.9168        0.0533       28.8834       28.9367      17.019927       0.36124
   3     718.7       12.1432        0.0548       26.4104       26.4651      14.321897       0.33907
   2     792.3       12.6197        0.0559       24.0056       24.0615      11.441771       0.33032
   1     891.5        2.4805        9.0831        2.3465       11.4296       8.949078       0.21212
   0    1013.0        2.6648        8.1269        2.0570       10.1838       7.519042       0.09929



 Wavenumbers:  7700. -  8050. cm-1, ATM      1
 LEVEL PRESSURE   UPWARD FLUX   DIFDOWN FLUX  DIRDOWN FLUX  DOWNWARD FLUX   NET FLUX    HEATING RATE
          mb          W/m2          W/m2          W/m2        W/m2          W/m2       degree/day
  51    .06700        5.4779        0.0000       11.1810       11.1810       5.703033       0.00000
  50    .07753        5.4779        0.0000       11.1809       11.1809       5.703011       0.01730
  49    .09103        5.4779        0.0000       11.1809       11.1809       5.702984       0.01695
  48    0.1069        5.4779        0.0000       11.1809       11.1809       5.702953       0.01660
  47    0.1255        5.4779        0.0000       11.1809       11.1809       5.702917       0.01624
  46    0.1487        5.4780        0.0000       11.1808       11.1808       5.702872       0.01648
  45    0.1794        5.4780        0.0000       11.1808       11.1808       5.702810       0.01696
  44    0.2165        5.4780        0.0000       11.1807       11.1807       5.702737       0.01664
  43    0.2613        5.4780        0.0000       11.1806       11.1806       5.702650       0.01633
  42    0.3336        5.4780        0.0000       11.1805       11.1805       5.702507       0.01670
  41    0.4307        5.4780        0.0000       11.1803       11.1804       5.702317       0.01652
  40    0.5894        5.4781        0.0000       11.1801       11.1801       5.702006       0.01650
  39     1.339        5.4783        0.0001       11.1788       11.1789       5.700538       0.01653
  38     1.782        5.4785        0.0001       11.1781       11.1782       5.699676       0.01642
  37     2.292        5.4787        0.0001       11.1772       11.1773       5.698678       0.01653
  36     2.964        5.4789        0.0002       11.1761       11.1762       5.697367       0.01645
  35     3.853        5.4792        0.0002       11.1746       11.1748       5.695635       0.01643
  34     5.035        5.4795        0.0003       11.1726       11.1729       5.693335       0.01643
  33     6.613        5.4800        0.0004       11.1700       11.1703       5.690263       0.01642
  32     8.786        5.4807        0.0005       11.1664       11.1669       5.686125       0.01607
  31     11.80        5.4817        0.0006       11.1613       11.1619       5.680209       0.01656
  30     15.07        5.4828        0.0008       11.1558       11.1567       5.673863       0.01639
  29     18.79        5.4840        0.0010       11.1497       11.1507       5.666701       0.01624
  28     23.16        5.4854        0.0012       11.1425       11.1438       5.658346       0.01615
  27     28.12        5.4870        0.0015       11.1343       11.1358       5.648808       0.01621
  26     33.73        5.4889        0.0018       11.1252       11.1270       5.638154       0.01602
  25     40.54        5.4911        0.0022       11.1142       11.1164       5.625313       0.01593
  24     48.69        5.4937        0.0026       11.1010       11.1036       5.609877       0.01597
  23     57.69        5.4967        0.0031       11.0866       11.0897       5.592981       0.01584
  22     68.43        5.5003        0.0037       11.0695       11.0732       5.572938       0.01576
  21     81.20        5.5045        0.0044       11.0494       11.0537       5.549176       0.01570
  20     96.49        5.5097        0.0052       11.0255       11.0307       5.521026       0.01554
  19     114.6        5.5158        0.0061       10.9975       11.0037       5.487830       0.01550
  18     136.5        5.5232        0.0073       10.9648       10.9720       5.448797       0.01501
  17     162.9        5.5322        0.0086       10.9263       10.9349       5.402735       0.01472
  16     196.4        5.5440        0.0104       10.8773       10.8876       5.343637       0.01488
  15     218.7        5.5519        0.0115       10.8455       10.8571       5.305162       0.01461
  14     243.0        5.5606        0.0128       10.8114       10.8242       5.263581       0.01442
  13     269.0        5.5703        0.0141       10.7749       10.7890       5.218718       0.01455
  12     297.5        5.5810        0.0156       10.7357       10.7513       5.170336       0.01435
  11     328.5        5.5928        0.0172       10.6937       10.7109       5.118111       0.01420
  10     361.9        5.6059        0.0189       10.6489       10.6677       5.061799       0.01425
   9     398.1        5.6205        0.0207       10.6008       10.6214       5.000884       0.01419
   8     437.6        5.6370        0.0226       10.5491       10.5717       4.934725       0.01415
   7     480.5        5.6554        0.0247       10.4934       10.5182       4.862716       0.01414
   6     533.0        5.6796        0.0273       10.4243       10.4516       4.772017       0.01459
   5     589.8        5.7077        0.0300       10.3479       10.3779       4.670209       0.01511
   4     651.6        5.7416        0.0330       10.2613       10.2943       4.552702       0.01607
   3     718.7        5.7833        0.0361       10.1618       10.1979       4.414551       0.01736
   2     792.3        5.8366        0.0395       10.0439       10.0834       4.246770       0.01924
   1     891.5        1.3595        4.3402        1.0902        5.4305       4.070980       0.01496
   0    1013.0        1.3879        4.2435        1.0624        5.3059       3.918009       0.01062



 Wavenumbers:  8050. - 12850. cm-1, ATM      1
 LEVEL PRESSURE   UPWARD FLUX   DIFDOWN FLUX  DIRDOWN FLUX  DOWNWARD FLUX   NET FLUX    HEATING RATE
          mb          W/m2          W/m2          W/m2        W/m2          W/m2       degree/day
  51    .06700       70.8948        0.0000      156.5418      156.5418      85.646905       0.00000
  50    .07753       70.8948        0.0000      156.5417      156.5417      85.646905       0.00000
  49    .09103       70.8948        0.0001      156.5417      156.5417      85.646905      -0.00000
  48    0.1069       70.8948        0.0001      156.5416      156.5417      85.646905       0.00000
  47    0.1255       70.8948        0.0002      156.5415      156.5417      85.646905       0.00000
  46    0.1487       70.8947        0.0002      156.5414      156.5416      85.646905      -0.00000
  45    0.1794       70.8947        0.0003      156.5413      156.5416      85.646905       0.00000
  44    0.2165       70.8946        0.0004      156.5412      156.5416      85.646905      -0.00000
  43    0.2613       70.8946        0.0005      156.5410      156.5415      85.646905       0.00000
  42    0.3336       70.8945        0.0007      156.5407      156.5414      85.646905      -0.00000
  41    0.4307       70.8944        0.0010      156.5403      156.5413      85.646905       0.00000
  40    0.5894       70.8942        0.0014      156.5397      156.5411      85.646905       0.00000
  39     1.339       70.8932        0.0033      156.5367      156.5401      85.646905       0.00000
  38     1.782       70.8926        0.0045      156.5350      156.5395      85.646905      -0.00000
  37     2.292       70.8919        0.0058      156.5330      156.5388      85.646905       0.00000
  36     2.964       70.8910        0.0076      156.5303      156.5379      85.646905       0.00000
  35     3.853       70.8898        0.0099      156.5268      156.5367      85.646905       0.00000
  34     5.035       70.8883        0.0130      156.5222      156.5352      85.646905       0.00000
  33     6.613       70.8862        0.0171      156.5160      156.5331      85.646905      -0.00000
  32     8.786       70.8834        0.0226      156.5076      156.5303      85.646905      -0.00000
  31     11.80       70.8793        0.0306      156.4957      156.5262      85.646905       0.00000
  30     15.07       70.8750        0.0391      156.4828      156.5219      85.646905      -0.00000
  29     18.79       70.8701        0.0488      156.4682      156.5170      85.646905      -0.00000
  28     23.16       70.8644        0.0601      156.4512      156.5113      85.646905       0.00000
  27     28.12       70.8578        0.0730      156.4317      156.5047      85.646905      -0.00000
  26     33.73       70.8505        0.0875      156.4099      156.4974      85.646905       0.00000
  25     40.54       70.8416        0.1050      156.3834      156.4885      85.646905       0.00000
  24     48.69       70.8308        0.1262      156.3515      156.4777      85.646905      -0.00000
  23     57.69       70.8190        0.1495      156.3164      156.4659      85.646905       0.00000
  22     68.43       70.8049        0.1772      156.2746      156.4518      85.646905       0.00000
  21     81.20       70.7881        0.2104      156.2246      156.4350      85.646905      -0.00000
  20     96.49       70.7680        0.2499      156.1649      156.4149      85.646905      -0.00000
  19     114.6       70.7442        0.2970      156.0879      156.3849      85.640712       0.00289
  18     136.5       70.7160        0.3529      155.9962      156.3490      85.633028       0.00295
  17     162.9       70.6823        0.4196      155.8831      156.3026      85.620264       0.00408
  16     196.4       70.6387        0.5063      155.7199      156.2262      85.587506       0.00825
  15     218.7       70.6102        0.5633      155.5733      156.1366      85.526321       0.02323
  14     243.0       70.5800        0.6252      155.3367      155.9619      85.381842       0.05011
  13     269.0       70.5491        0.6922      154.9514      155.6436      85.094507       0.09321
  12     297.5       70.5191        0.7642      154.3896      155.1538      84.634757       0.13636
  11     328.5       70.4911        0.8419      153.7151      154.5570      84.065905       0.15467
  10     361.9       70.4674        0.9251      152.9087      153.8339      83.366512       0.17695
   9     398.1       70.4519        1.0141      151.8986      152.9127      82.460837       0.21100
   8     437.6       70.4514        1.1086      150.6031      151.7118      81.260369       0.25667
   7     480.5       70.4741        1.2083      149.0014      150.2097      79.735602       0.29946
   6     533.0       70.5463        1.3287      146.7375      148.0662      77.519969       0.35642
   5     589.8       70.7061        1.4543      143.8730      145.3273      74.621144       0.43028
   4     651.6       71.0543        1.5824      140.0955      141.6779      70.623552       0.54668
   3     718.7       71.7389        1.7115      135.5278      137.2393      65.500337       0.64385
   2     792.3       73.1306        1.8381      130.0690      131.9071      58.776530       0.77115
   1     891.5       15.8307       54.0221       13.4960       67.5180      51.687313       0.60326
   0    1013.0       16.5140       50.6864       12.4819       63.1682      46.654185       0.34948



 Wavenumbers: 12850. - 16000. cm-1, ATM      1
 LEVEL PRESSURE   UPWARD FLUX   DIFDOWN FLUX  DIRDOWN FLUX  DOWNWARD FLUX   NET FLUX    HEATING RATE
          mb          W/m2          W/m2          W/m2        W/m2          W/m2       degree/day
  51    .06700       60.2061        0.0000       98.0872       98.0872      37.881156       0.00000
  50    .07753       60.2061        0.0001       98.0864       98.0864      37.880368       0.63149
  49    .09103       60.2061        0.0001       98.0853       98.0854      37.879379       0.61801
  48    0.1069       60.2060        0.0002       98.0841       98.0843      37.878244       0.60420
  47    0.1255       60.2060        0.0003       98.0826       98.0830      37.876941       0.59063
  46    0.1487       60.2060        0.0005       98.0809       98.0813      37.875299       0.59860
  45    0.1794       60.2060        0.0007       98.0784       98.0791      37.873068       0.61251
  44    0.2165       60.2061        0.0009       98.0756       98.0765      37.870447       0.59615
  43    0.2613       60.2061        0.0011       98.0723       98.0735      37.867371       0.57991
  42    0.3336       60.2062        0.0016       98.0670       98.0686      37.862360       0.58417
  41    0.4307       60.2064        0.0022       98.0602       98.0623      37.855897       0.56194
  40    0.5894       60.2069        0.0031       98.0496       98.0527      37.845752       0.53953
  39     1.339       60.2114        0.0075       98.0043       98.0118      37.800416       0.51040
  38     1.782       60.2158        0.0101       97.9793       97.9894      37.773614       0.51027
  37     2.292       60.2224        0.0131       97.9498       97.9629      37.740516       0.54819
  36     2.964       60.2334        0.0170       97.9088       97.9258      37.692426       0.60367
  35     3.853       60.2514        0.0222       97.8503       97.8726      37.621136       0.67655
  34     5.035       60.2787        0.0291       97.7680       97.7971      37.518423       0.73374
  33     6.613       60.3168        0.0383       97.6562       97.6945      37.377709       0.75226
  32     8.786       60.3664        0.0507       97.5107       97.5614      37.195016       0.70951
  31     11.80       60.4307        0.0685       97.3179       97.3863      36.955611       0.67026
  30     15.07       60.4921        0.0875       97.1283       97.2158      36.723746       0.59863
  29     18.79       60.5544        0.1089       96.9300       97.0389      36.484530       0.54238
  28     23.16       60.6192        0.1339       96.7166       96.8505      36.231267       0.48973
  27     28.12       60.6840        0.1625       96.4935       96.6560      35.971978       0.44077
  26     33.73       60.7432        0.1945       96.2731       96.4676      35.724418       0.37221
  25     40.54       60.7992        0.2332       96.0408       96.2740      35.474748       0.30974
  24     48.69       60.8517        0.2798       95.7946       96.0743      35.222631       0.26090
  23     57.69       60.8948        0.3309       95.5573       95.8882      34.993370       0.21490
  22     68.43       60.9305        0.3919       95.3106       95.7025      34.772019       0.17401
  21     81.20       60.9514        0.4646       95.0643       95.5289      34.577542       0.12851
  20     96.49       60.9564        0.5513       94.8153       95.3666      34.410180       0.09237
  19     114.6       60.9611        0.6551       94.5411       95.1961      34.235031       0.08178
  18     136.5       60.9581        0.7780       94.2320       95.0101      34.051953       0.07040
  17     162.9       60.9468        0.9244       93.8753       94.7997      33.852931       0.06362
  16     196.4       60.9155        1.1141       93.4347       94.5488      33.633294       0.05529
  15     218.7       60.8891        1.2387       93.1513       94.3900      33.500864       0.05028
  14     243.0       60.8581        1.3740       92.8439       94.2180      33.359923       0.04888
  13     269.0       60.8223        1.5206       92.5111       94.0317      33.209463       0.04881
  12     297.5       60.7823        1.6789       92.1495       93.8284      33.046145       0.04844
  11     328.5       60.7395        1.8499       91.7554       93.6053      32.865793       0.04904
  10     361.9       60.6948        2.0339       91.3262       93.3601      32.665271       0.05073
   9     398.1       60.6494        2.2317       90.8575       93.0892      32.439856       0.05252
   8     437.6       60.6057        2.4438       90.3418       92.7856      32.179909       0.05558
   7     480.5       60.5664        2.6709       89.7728       92.4437      31.877213       0.05945
   6     533.0       60.5325        2.9496       89.0428       91.9925      31.459968       0.06712
   5     589.8       60.5226        3.2488       88.2038       91.4526      30.929999       0.07866
   4     651.6       60.5662        3.5676       87.1979       90.7656      30.199395       0.09991
   3     718.7       60.6860        3.9048       86.0161       89.9209      29.234973       0.12120
   2     792.3       60.9503        4.2566       84.5970       88.8536      27.903368       0.15272
   1     891.5       29.2059       46.3767        9.1098       55.4865      26.280635       0.13809
   0    1013.0       29.6189       45.4422        8.7983       54.2405      24.621599       0.11520



 Wavenumbers: 16000. - 22650. cm-1, ATM      1
 LEVEL PRESSURE   UPWARD FLUX   DIFDOWN FLUX  DIRDOWN FLUX  DOWNWARD FLUX   NET FLUX    HEATING RATE
          mb          W/m2          W/m2          W/m2        W/m2          W/m2       degree/day
  51    .06700      120.3519        0.0000      156.3892      156.3892      36.037395       0.00000
  50    .07753      120.3518        0.0004      156.3887      156.3891      36.037257       0.11076
  49    .09103      120.3517        0.0008      156.3879      156.3888      36.037056       0.12563
  48    0.1069      120.3517        0.0014      156.3871      156.3885      36.036787       0.14326
  47    0.1255      120.3516        0.0020      156.3861      156.3881      36.036426       0.16329
  46    0.1487      120.3516        0.0028      156.3847      156.3875      36.035896       0.19350
  45    0.1794      120.3516        0.0039      156.3828      156.3867      36.035066       0.22783
  44    0.2165      120.3517        0.0051      156.3805      156.3856      36.033940       0.25606
  43    0.2613      120.3518        0.0066      156.3776      156.3842      36.032413       0.28787
  42    0.3336      120.3522        0.0091      156.3726      156.3817      36.029509       0.33853
  41    0.4307      120.3530        0.0124      156.3657      156.3781      36.025133       0.38054
  40    0.5894      120.3547        0.0178      156.3537      156.3715      36.016786       0.44388
  39     1.339      120.3716        0.0433      156.2834      156.3267      35.955118       0.69426
  38     1.782      120.3880        0.0582      156.2324      156.2906      35.902587       1.00011
  37     2.292      120.4131        0.0755      156.1641      156.2396      35.826550       1.25937
  36     2.964      120.4553        0.0982      156.0605      156.1587      35.703375       1.54622
  35     3.853      120.5243        0.1282      155.9041      156.0323      35.507942       1.85470
  34     5.035      120.6289        0.1680      155.6774      155.8453      35.216405       2.08262
  33     6.613      120.7754        0.2211      155.3656      155.5867      34.811322       2.16558
  32     8.786      120.9658        0.2925      154.9577      155.2502      34.284335       2.04663
  31     11.80      121.2128        0.3945      154.4153      154.8098      33.596957       1.92444
  30     15.07      121.4483        0.5039      153.8804      154.3842      32.935941       1.70661
  29     18.79      121.6876        0.6272      153.3191      153.9463      32.258690       1.53554
  28     23.16      121.9362        0.7709      152.7126      153.4835      31.547325       1.37555
  27     28.12      122.1844        0.9351      152.0755      153.0106      30.826154       1.22594
  26     33.73      122.4105        1.1185      151.4409      152.5595      30.149013       1.01810
  25     40.54      122.6236        1.3399      150.7637      152.1036      29.480009       0.82998
  24     48.69      122.8224        1.6065      150.0338      151.6403      28.817947       0.68513
  23     57.69      122.9845        1.8989      149.3151      151.2140      28.229540       0.55154
  22     68.43      123.1168        2.2466      148.5476      150.7942      27.677397       0.43406
  21     81.20      123.1913        2.6604      147.7517      150.4121      27.220825       0.30170
  20     96.49      123.2029        3.1529      146.9127      150.0655      26.862668       0.19768
  19     114.6      123.1769        3.7357      145.9763      149.7120      26.535045       0.15298
  18     136.5      123.1194        4.4235      144.9088      149.3323      26.212887       0.12388
  17     162.9      123.0265        5.2383      143.6785      148.9169      25.890334       0.10310
  16     196.4      122.8535        6.2889      142.1651      148.4539      25.600393       0.07298
  15     218.7      122.7207        6.9750      141.2033      148.1783      25.457622       0.05420
  14     243.0      122.5675        7.7172      140.1753      147.8925      25.325058       0.04598
  13     269.0      122.3922        8.5175      139.0797      147.5971      25.204922       0.03897
  12     297.5      122.1941        9.3776      137.9141      147.2916      25.097536       0.03185
  11     328.5      121.9760       10.3014      136.6676      146.9690      24.993014       0.02842
  10     361.9      121.7375       11.2898      135.3392      146.6290      24.891467       0.02569
   9     398.1      121.4776       12.3462      133.9235      146.2696      24.792034       0.02317
   8     437.6      121.1968       13.4723      132.4163      145.8886      24.691751       0.02144
   7     480.5      120.8944       14.6700      130.8147      145.4847      24.590299       0.01992
   6     533.0      120.5221       16.1313      128.8599      144.9912      24.469126       0.01949
   5     589.8      120.1238       17.6905      126.7679      144.4584      24.334604       0.01997
   4     651.6      119.7047       19.3486      124.5274      143.8761      24.171376       0.02232
   3     718.7      119.2695       21.1068      122.1285      143.2353      23.965707       0.02585
   2     792.3      118.8327       22.9622      119.5548      142.5170      23.684340       0.03227
   1     891.5       84.1728       94.6227       12.8221      107.4448      23.271998       0.03509
   0    1013.0       84.0634       94.4442       12.3563      106.8006      22.737148       0.03714



 Wavenumbers: 22650. - 29000. cm-1, ATM      1
 LEVEL PRESSURE   UPWARD FLUX   DIFDOWN FLUX  DIRDOWN FLUX  DOWNWARD FLUX   NET FLUX    HEATING RATE
          mb          W/m2          W/m2          W/m2        W/m2          W/m2       degree/day
  51    .06700       50.2556        0.0000       59.0156       59.0156       8.759994       0.00000
  50    .07753       50.2555        0.0004       59.0151       59.0155       8.759994       0.00000
  49    .09103       50.2554        0.0010       59.0144       59.0153       8.759994       0.00000
  48    0.1069       50.2552        0.0016       59.0136       59.0152       8.759994      -0.00000
  47    0.1255       50.2550        0.0023       59.0127       59.0150       8.759994       0.00000
  46    0.1487       50.2548        0.0033       59.0115       59.0147       8.759994       0.00000
  45    0.1794       50.2544        0.0045       59.0099       59.0144       8.759994       0.00000
  44    0.2165       50.2540        0.0060       59.0080       59.0140       8.759994      -0.00000
  43    0.2613       50.2536        0.0077       59.0058       59.0136       8.759994      -0.00000
  42    0.3336       50.2528        0.0106       59.0022       59.0128       8.759994       0.00000
  41    0.4307       50.2518        0.0145       58.9973       59.0118       8.759994      -0.00000
  40    0.5894       50.2501        0.0207       58.9894       59.0101       8.759994       0.00000
  39     1.339       50.2422        0.0504       58.9518       59.0022       8.759994       0.00000
  38     1.782       50.2376        0.0679       58.9297       58.9976       8.759994      -0.00000
  37     2.292       50.2322        0.0881       58.9042       58.9922       8.759994       0.00000
  36     2.964       50.2252        0.1145       58.8706       58.9852       8.759994      -0.00000
  35     3.853       50.2159        0.1495       58.8264       58.9759       8.759994       0.00000
  34     5.035       50.2035        0.1960       58.7676       58.9635       8.759994      -0.00000
  33     6.613       50.1871        0.2580       58.6891       58.9471       8.759994       0.00000
  32     8.786       50.1648        0.3414       58.5834       58.9248       8.759994       0.00000
  31     11.80       50.1331        0.4606       58.4324       58.8931       8.759994       0.00000
  30     15.07       50.0991        0.5884       58.2706       58.8590       8.759994      -0.00000
  29     18.79       50.0606        0.7324       58.0882       58.8206       8.759994       0.00000
  28     23.16       50.0158        0.9001       57.8757       58.7758       8.759994       0.00000
  27     28.12       49.9647        1.0914       57.6333       58.7247       8.759994      -0.00000
  26     33.73       49.9076        1.3045       57.3631       58.6676       8.759994       0.00000
  25     40.54       49.8388        1.5609       57.0379       58.5988       8.759994       0.00000
  24     48.69       49.7562        1.8683       56.6479       58.5162       8.759994       0.00000
  23     57.69       49.6658        2.2037       56.2221       58.4258       8.759994      -0.00000
  22     68.43       49.5586        2.6000       55.7186       58.3186       8.759994       0.00000
  21     81.20       49.4317        3.0678       55.1239       58.1917       8.759994      -0.00000
  20     96.49       49.2816        3.6188       54.4228       58.0416       8.759994       0.00000
  19     114.6       49.1050        4.2640       53.6010       57.8650       8.759994       0.00000
  18     136.5       48.8979        5.0161       52.6418       57.6579       8.759994       0.00000
  17     162.9       48.6544        5.8941       51.5203       57.4144       8.759994       0.00000
  16     196.4       48.3436        7.0042       50.0994       57.1036       8.759994      -0.00000
  15     218.7       48.1425        7.7162       49.1863       56.9025       8.759994      -0.00000
  14     243.0       47.9265        8.4753       48.2113       56.6865       8.759994       0.00000
  13     269.0       47.6955        9.2806       47.1749       56.4555       8.759994       0.00000
  12     297.5       47.4493       10.1310       46.0783       56.2093       8.759994      -0.00000
  11     328.5       47.1871       11.0276       44.9195       55.9471       8.759994      -0.00000
  10     361.9       46.9092       11.9674       43.7018       55.6692       8.759994      -0.00000
   9     398.1       46.6151       12.9500       42.4250       55.3751       8.759994       0.00000
   8     437.6       46.3047       13.9730       41.0916       55.0647       8.759994       0.00000
   7     480.5       45.9780       15.0335       39.7045       54.7380       8.759994      -0.00000
   6     533.0       45.5841       16.2898       38.0543       54.3441       8.759994       0.00000
   5     589.8       45.1690       17.5860       36.3431       53.9290       8.759994      -0.00000
   4     651.6       44.7334       18.9138       34.5795       53.4934       8.759994       0.00000
   3     718.7       44.2773       20.2671       32.7702       53.0373       8.759994       0.00000
   2     792.3       43.8016       21.6361       30.9256       52.5616       8.759994       0.00000
   1     891.5       32.5541       38.1563        3.1576       41.3139       8.759824       0.00001
   0    1013.0       32.2040       38.0947        2.8691       40.9638       8.759824       0.00000



 Wavenumbers: 29000. - 38000. cm-1, ATM      1
 LEVEL PRESSURE   UPWARD FLUX   DIFDOWN FLUX  DIRDOWN FLUX  DOWNWARD FLUX   NET FLUX    HEATING RATE
          mb          W/m2          W/m2          W/m2        W/m2          W/m2       degree/day
  51    .06700        7.6492        0.0000       20.8114       20.8114      13.162120       0.00000
  50    .07753        7.6490        0.0003       20.8070       20.8074      13.158314       3.05039
  49    .09103        7.6488        0.0007       20.8009       20.8016      13.152779       3.45952
  48    0.1069        7.6485        0.0012       20.7928       20.7939      13.145372       3.94275
  47    0.1255        7.6482        0.0017       20.7820       20.7837      13.135471       4.48855
  46    0.1487        7.6479        0.0023       20.7665       20.7688      13.120914       5.30629
  45    0.1794        7.6474        0.0032       20.7424       20.7456      13.098258       6.21947
  44    0.2165        7.6468        0.0043       20.7103       20.7146      13.067749       6.94046
  43    0.2613        7.6462        0.0055       20.6675       20.6730      13.026772       7.72396
  42    0.3336        7.6452        0.0075       20.5880       20.5955      12.950245       8.92221
  41    0.4307        7.6440        0.0101       20.4722       20.4824      12.838346       9.72939
  40    0.5894        7.6423        0.0144       20.2637       20.2780      12.635767      10.77293
  39     1.339        7.6376        0.0323       19.0984       19.1307      11.493080      12.86457
  38     1.782        7.6371        0.0416       18.4394       18.4810      10.843824      12.36079
  37     2.292        7.6385        0.0515       17.7714       17.8229      10.184428      10.92132
  36     2.964        7.6431        0.0638       17.0421       17.1059       9.462813       9.05845
  35     3.853        7.6530        0.0791       16.2678       16.3470       8.693996       7.29622
  34     5.035        7.6699        0.0985       15.4803       15.5789       7.908989       5.60776
  33     6.613        7.6948        0.1233       14.7157       14.8390       7.144227       4.08842
  32     8.786        7.7277        0.1557       13.9936       14.1493       6.421558       2.80659
  31     11.80        7.7705        0.2008       13.2835       13.4843       5.713853       1.98135
  30     15.07        7.8114        0.2475       12.7394       12.9868       5.175447       1.39006
  29     18.79        7.8533        0.2991       12.2666       12.5657       4.712426       1.04981
  28     23.16        7.8975        0.3578       11.8300       12.1878       4.290353       0.81615
  27     28.12        7.9421        0.4234       11.4279       11.8513       3.909121       0.64807
  26     33.73        7.9823        0.4956       11.0695       11.5651       3.582779       0.49066
  25     40.54        8.0187        0.5818       10.7209       11.3027       3.283964       0.37071
  24     48.69        8.0511        0.6839       10.3742       11.0581       3.006993       0.28662
  23     57.69        8.0751        0.7943       10.0549       10.8492       2.774062       0.21834
  22     68.43        8.0907        0.9235        9.7327       10.6563       2.565612       0.16387
  21     81.20        8.0895        1.0760        9.4134       10.4894       2.399907       0.10950
  20     96.49        8.0695        1.2549        9.0887       10.3436       2.274145       0.06941
  19     114.6        8.0373        1.4611        8.7388       10.1999       2.162541       0.05211
  18     136.5        7.9953        1.6962        8.3549       10.0511       2.055816       0.04104
  17     162.9        7.9427        1.9633        7.9311        9.8944       1.951719       0.03327
  16     196.4        7.8655        2.2927        7.4333        9.7260       1.860506       0.02296
  15     218.7        7.8124        2.4991        7.1295        9.6286       1.816199       0.01682
  14     243.0        7.7547        2.7140        6.8161        9.5301       1.775419       0.01414
  13     269.0        7.6920        2.9366        6.4943        9.4310       1.738929       0.01184
  12     297.5        7.6245        3.1657        6.1657        9.3314       1.706882       0.00950
  11     328.5        7.5532        3.4001        5.8295        9.2296       1.676321       0.00831
  10     361.9        7.4785        3.6373        5.4886        9.1259       1.647382       0.00732
   9     398.1        7.4004        3.8765        5.1440        9.0205       1.620087       0.00636
   8     437.6        7.3192        4.1162        4.7969        8.9131       1.593907       0.00560
   7     480.5        7.2351        4.3539        4.4504        8.8043       1.569193       0.00485
   6     533.0        7.1357        4.6218        4.0563        8.6781       1.542423       0.00431
   5     589.8        7.0334        4.8819        3.6682        8.5501       1.516697       0.00382
   4     651.6        6.9290        5.1302        3.2905        8.4207       1.491731       0.00341
   3     718.7        6.8225        5.3648        2.9252        8.2900       1.467496       0.00305
   2     792.3        6.7146        5.5822        2.5764        8.1587       1.444002       0.00269
   1     891.5        5.1959        6.3751        0.2393        6.6144       1.418498       0.00217
   0    1013.0        5.0978        6.2977        0.1937        6.4914       1.393562       0.00173



 Wavenumbers: 38000. - 50000. cm-1, ATM      1
 LEVEL PRESSURE   UPWARD FLUX   DIFDOWN FLUX  DIRDOWN FLUX  DOWNWARD FLUX   NET FLUX    HEATING RATE
          mb          W/m2          W/m2          W/m2        W/m2          W/m2       degree/day
  51    .06700        0.0061        0.0000        1.2836        1.2836       1.277518       0.00000
  50    .07753        0.0061        0.0001        1.2812        1.2812       1.275183       1.87150
  49    .09103        0.0060        0.0002        1.2777        1.2778       1.271851       2.08247
  48    0.1069        0.0059        0.0002        1.2731        1.2734       1.267473       2.33059
  47    0.1255        0.0058        0.0004        1.2672        1.2675       1.261717       2.60908
  46    0.1487        0.0057        0.0005        1.2586        1.2591       1.253391       3.03499
  45    0.1794        0.0055        0.0007        1.2455        1.2462       1.240623       3.50520
  44    0.2165        0.0054        0.0009        1.2282        1.2291       1.223697       3.85037
  43    0.2613        0.0052        0.0011        1.2054        1.2065       1.201348       4.21261
  42    0.3336        0.0049        0.0015        1.1639        1.1654       1.160524       4.75970
  41    0.4307        0.0045        0.0020        1.1051        1.1070       1.102565       5.03943
  40    0.5894        0.0039        0.0026        1.0039        1.0064       1.002524       5.32007
  39     1.339        0.0022        0.0035        0.5438        0.5473       0.545104       5.14971
  38     1.782        0.0016        0.0032        0.3635        0.3666       0.365006       3.42879
  37     2.292        0.0012        0.0027        0.2356        0.2383       0.237058       2.11916
  36     2.964        0.0009        0.0022        0.1455        0.1477       0.146786       1.13318
  35     3.853        0.0006        0.0017        0.0858        0.0875       0.086906       0.56828
  34     5.035        0.0004        0.0013        0.0488        0.0501       0.049701       0.26578
  33     6.613        0.0003        0.0010        0.0273        0.0282       0.027974       0.11615
  32     8.786        0.0002        0.0007        0.0144        0.0151       0.014928       0.05067
  31     11.80        0.0001        0.0004        0.0065        0.0070       0.006903       0.02247
  30     15.07        0.0000        0.0003        0.0031        0.0034       0.003329       0.00923
  29     18.79        0.0000        0.0002        0.0014        0.0016       0.001583       0.00396
  28     23.16        0.0000        0.0001        0.0006        0.0007       0.000720       0.00167
  27     28.12        0.0000        0.0001        0.0003        0.0003       0.000317       0.00069
  26     33.73        0.0000        0.0000        0.0001        0.0001       0.000140       0.00027
  25     40.54        0.0000        0.0000        0.0000        0.0001       0.000057       0.00010
  24     48.69        0.0000        0.0000        0.0000        0.0000       0.000021       0.00004
  23     57.69        0.0000        0.0000        0.0000        0.0000       0.000008       0.00001
  22     68.43        0.0000        0.0000        0.0000        0.0000       0.000003       0.00000
  21     81.20        0.0000        0.0000        0.0000        0.0000       0.000001       0.00000
  20     96.49        0.0000        0.0000        0.0000        0.0000       0.000000       0.00000
  19     114.6        0.0000        0.0000        0.0000        0.0000       0.000000       0.00000
  18     136.5        0.0000        0.0000        0.0000        0.0000       0.000000       0.00000
  17     162.9        0.0000        0.0000        0.0000        0.0000       0.000000       0.00000
  16     196.4        0.0000        0.0000        0.0000        0.0000       0.000000       0.00000
  15     218.7        0.0000        0.0000        0.0000        0.0000       0.000000       0.00000
  14     243.0        0.0000        0.0000        0.0000        0.0000       0.000000       0.00000
  13     269.0        0.0000        0.0000        0.0000        0.0000       0.000000       0.00000
  12     297.5        0.0000        0.0000        0.0000        0.0000       0.000000       0.00000
  11     328.5        0.0000        0.0000        0.0000        0.0000       0.000000       0.00000
  10     361.9        0.0000        0.0000        0.0000        0.0000       0.000000       0.00000
   9     398.1        0.0000        0.0000        0.0000        0.0000       0.000000       0.00000
   8     437.6        0.0000        0.0000        0.0000        0.0000       0.000000       0.00000
   7     480.5        0.0000        0.0000        0.0000        0.0000       0.000000       0.00000
   6     533.0        0.0000        0.0000        0.0000        0.0000       0.000000       0.00000
   5     589.8        0.0000        0.0000        0.0000        0.0000       0.000000       0.00000
   4     651.6        0.0000        0.0000        0.0000        0.0000       0.000000       0.00000
   3     718.7        0.0000        0.0000        0.0000        0.0000       0.000000       0.00000
   2     792.3        0.0000        0.0000        0.0000        0.0000       0.000000       0.00000
   1     891.5        0.0000        0.0000        0.0000        0.0000       0.000000       0.00000
   0    1013.0        0.0000        0.0000        0.0000        0.0000       0.000000       0.00000



 Wavenumbers:   820. -  2600. cm-1, ATM      1
 LEVEL PRESSURE   UPWARD FLUX   DIFDOWN FLUX  DIRDOWN FLUX  DOWNWARD FLUX   NET FLUX    HEATING RATE
          mb          W/m2          W/m2          W/m2        W/m2          W/m2       degree/day
  51    .06700        0.9909        0.0000        6.0047        6.0047       5.013796       0.00000
  50    .07753        0.9909        0.0000        6.0008        6.0008       5.009943       3.08823
  49    .09103        0.9909        0.0000        5.9999        5.9999       5.009057       0.55359
  48    0.1069        0.9909        0.0000        5.9989        5.9989       5.008068       0.52654
  47    0.1255        0.9909        0.0000        5.9978        5.9978       5.006951       0.50651
  46    0.1487        0.9909        0.0000        5.9964        5.9964       5.005594       0.49458
  45    0.1794        0.9909        0.0000        5.9947        5.9947       5.003875       0.47201
  44    0.2165        0.9909        0.0000        5.9929        5.9929       5.002032       0.41912
  43    0.2613        0.9909        0.0000        5.9909        5.9909       5.000073       0.36935
  42    0.3336        0.9909        0.0000        5.9880        5.9880       4.997195       0.33558
  41    0.4307        0.9909        0.0000        5.9846        5.9846       4.993725       0.30167
  40    0.5894        0.9909        0.0000        5.9791        5.9791       4.988220       0.29278
  39     1.339        0.9909        0.0000        5.9536        5.9536       4.962730       0.28696
  38     1.782        0.9909        0.0000        5.9395        5.9395       4.948591       0.26919
  37     2.292        0.9909        0.0000        5.9237        5.9237       4.932838       0.26090
  36     2.964        0.9909        0.0000        5.9039        5.9039       4.913063       0.24825
  35     3.853        0.9909        0.0000        5.8793        5.8793       4.888404       0.23401
  34     5.035        0.9909        0.0000        5.8487        5.8487       4.857838       0.21835
  33     6.613        0.9909        0.0000        5.8108        5.8108       4.819869       0.20298
  32     8.786        0.9909        0.0000        5.7631        5.7631       4.772239       0.18498
  31     11.80        0.9909        0.0000        5.7039        5.7039       4.712974       0.16593
  30     15.07        0.9909        0.0000        5.6539        5.6539       4.662924       0.12922
  29     18.79        0.9910        0.0000        5.6127        5.6127       4.621777       0.09329
  28     23.16        0.9910        0.0000        5.5794        5.5794       4.588385       0.06457
  27     28.12        0.9910        0.0000        5.5518        5.5518       4.560800       0.04689
  26     33.73        0.9910        0.0000        5.5268        5.5268       4.535724       0.03770
  25     40.54        0.9911        0.0000        5.4993        5.4993       4.508252       0.03408
  24     48.69        0.9911        0.0000        5.4678        5.4678       4.476675       0.03268
  23     57.69        0.9912        0.0000        5.4340        5.4340       4.442846       0.03171
  22     68.43        0.9912        0.0000        5.3947        5.3948       4.403521       0.03091
  21     81.20        0.9913        0.0000        5.3497        5.3497       4.358423       0.02980
  20     96.49        0.9914        0.0000        5.2982        5.2982       4.306829       0.02848
  19     114.6        0.9915        0.0000        5.2389        5.2389       4.247407       0.02775
  18     136.5        0.9916        0.0000        5.1716        5.1717       4.180024       0.02591
  17     162.9        0.9918        0.0000        5.0890        5.0890       4.097212       0.02647
  16     196.4        0.9922        0.0000        4.9668        4.9668       3.974657       0.03085
  15     218.7        0.9925        0.0000        4.8585        4.8585       3.865968       0.04127
  14     243.0        0.9930        0.0000        4.7078        4.7079       3.714822       0.05242
  13     269.0        0.9938        0.0000        4.5343        4.5343       3.540454       0.05656
  12     297.5        0.9951        0.0000        4.3419        4.3420       3.346870       0.05741
  11     328.5        0.9968        0.0000        4.1281        4.1281       3.131350       0.05860
  10     361.9        0.9991        0.0000        3.8786        3.8787       2.879625       0.06369
   9     398.1        1.0020        0.0000        3.6159        3.6160       2.613973       0.06189
   8     437.6        1.0058        0.0000        3.3759        3.3759       2.370120       0.05214
   7     480.5        1.0104        0.0000        3.1957        3.1958       2.185367       0.03628
   6     533.0        1.0175        0.0000        3.0467        3.0467       2.029225       0.02512
   5     589.8        1.0279        0.0000        2.9023        2.9023       1.874421       0.02298
   4     651.6        1.0460        0.0000        2.7183        2.7184       1.672344       0.02763
   3     718.7        1.0773        0.0001        2.5058        2.5059       1.428567       0.03064
   2     792.3        1.1370        0.0001        2.2756        2.2757       1.138706       0.03324
   1     891.5        0.1789        0.8091        0.2169        1.0259       0.847076       0.02482
   0    1013.0        0.2162        0.6544        0.1710        0.8254       0.609159       0.01652

  Modules and versions used in this calculation:

       rrtmg_sw.1col.f90:  $Revision$                    rrtmg_sw_init.f90:  $Revision$        
     rrtmgsw_cldprop.f90:  $Revision$                  rrtmgsw_cldprmc.f90:  NOT USED          
     rrtmg_sw_reftra.f90:  $Revision$                  rrtmg_sw_spcvrt.f90:  NOT USED          
     rrtmg_sw_spcvmc.f90:  NOT USED                    rrtmgsw_setcoef.f90:  NOT USED          
     rrtmg_sw_taumol.f90:  $Revision$                  rrtmg_sw_vrtqdr.f90:  NOT USED          
                rrtatm.f:  NOT USED                             util_xxx.f:  NOT USED          
                 extra.f:  NOT USED                       rrtmg_sw_k_g.f90:  $Revision$        

