

 Wavenumbers:   820. - 50000. cm-1, ATM      1
 LEVEL PRESSURE   UPWARD FLUX   DIFDOWN FLUX  DIRDOWN FLUX  DOWNWARD FLUX   NET FLUX    HEATING RATE
          mb          W/m2          W/m2          W/m2        W/m2          W/m2       degree/day
  51    .06700      308.7913        0.0000      617.8126      617.8126     309.021310       0.00000
  50    .07753      308.7908        0.0013      617.7947      617.7960     309.005188      12.92155
  49    .09103      308.7902        0.0029      617.7778      617.7807     308.990405       9.23970
  48    0.1069      308.7896        0.0047      617.7581      617.7628     308.973180       9.16941
  47    0.1255      308.7890        0.0069      617.7340      617.7408     308.951882       9.65525
  46    0.1487      308.7881        0.0095      617.7009      617.7104     308.922265      10.79555
  45    0.1794      308.7871        0.0132      617.6521      617.6653     308.878142      12.11294
  44    0.2165      308.7860        0.0175      617.5895      617.6070     308.820966      13.00657
  43    0.2613      308.7848        0.0226      617.5089      617.5315     308.746649      14.00834
  42    0.3336      308.7831        0.0309      617.3641      617.3950     308.611937      15.70619
  41    0.4307      308.7812        0.0420      617.1591      617.2011     308.419873      16.69946
  40    0.5894      308.7790        0.0597      616.8005      616.8602     308.081249      18.00761
  39     1.339      308.7836        0.1398      614.9443      615.0841     306.300483      20.04819
  38     1.782      308.7970        0.1848      613.9670      614.1518     305.354877      18.00282
  37     2.292      308.8219        0.2359      613.0059      613.2418     304.419862      15.48630
  36     2.964      308.8691        0.3023      611.9577      612.2600     303.390888      12.91672
  35     3.853      308.9513        0.3893      610.8024      611.1917     302.240435      10.91802
  34     5.035      309.0802        0.5041      609.5327      610.0368     300.956681       9.17060
  33     6.613      309.2628        0.6564      608.1464      608.8029     299.540031       7.57342
  32     8.786      309.5002        0.8606      606.6250      607.4857     297.985535       6.03710
  31     11.80      309.8044        1.1513      604.8486      605.9999     296.195502       5.01153
  30     15.07      310.0901        1.4613      603.2440      604.7053     294.615115       4.08025
  29     18.79      310.3762        1.8100      601.6511      603.4611     293.084876       3.46952
  28     23.16      310.6681        2.2149      599.9927      602.2076     291.539449       2.98836
  27     28.12      310.9525        2.6755      598.2881      600.9636     290.011126       2.59805
  26     33.73      311.1981        3.1889      596.5951      599.7839     288.585800       2.14302
  25     40.54      311.4104        3.8066      594.7727      598.5793     287.168856       1.75788
  24     48.69      311.5845        4.5474      592.7865      597.3339     285.749398       1.46892
  23     57.69      311.6963        5.3567      590.7959      596.1526     284.456317       1.21207
  22     68.43      311.7433        6.3149      588.6191      594.9340     283.190683       0.99496
  21     81.20      311.6795        7.4502      586.2690      593.7191     282.039596       0.76062
  20     96.49      311.4926        8.7932      583.6961      592.4894     280.996794       0.57555
  19     114.6      311.2248       10.3716      580.7708      591.1424     279.917617       0.50390
  18     136.5      310.8716       12.2175      577.4359      589.6534     278.781790       0.43675
  17     162.9      310.4209       14.3808      573.5624      587.9432     277.522334       0.40257
  16     196.4      309.7662       17.1348      568.5907      585.7255     275.959280       0.39344
  15     218.7      309.3134       18.9125      565.0572      583.9697     274.656315       0.49469
  14     243.0      308.8144       20.8167      560.7495      581.5662     272.751819       0.66054
  13     269.0      308.2683       22.8480      555.3947      578.2426     269.974332       0.90100
  12     297.5      307.6769       25.0062      548.9964      574.0026     266.325683       1.08215
  11     328.5      307.0455       27.2967      542.0895      569.3862     262.340750       1.08349
  10     361.9      306.3775       29.7150      534.6242      564.3392     257.961655       1.10795
   9     398.1      305.6765       32.2642      526.4204      558.6846     253.008173       1.15405
   8     437.6      304.9524       34.9421      517.3907      552.3327     247.380322       1.20327
   7     480.5      304.2154       37.7455      507.7216      545.4671     241.251697       1.20364
   6     533.0      303.3799       41.1056      495.9006      537.0062     233.626323       1.22668
   5     589.8      302.6077       44.6187      483.0788      527.6975     225.089816       1.26710
   4     651.6      302.0366       48.2702      468.6907      516.9608     214.924237       1.39017
   3     718.7      301.8481       52.0501      453.2257      505.2759     203.427812       1.44478
   2     792.3      302.5142       55.9355      436.4928      492.4283     189.914137       1.54987
   1     891.5      209.8345      212.1487      171.5133      383.6620     173.827581       1.36889
   0    1013.0      211.0015      208.8458      160.9387      369.7845     158.783029       1.04462



 Wavenumbers:  2600. -  3250. cm-1, ATM      1
 LEVEL PRESSURE   UPWARD FLUX   DIFDOWN FLUX  DIRDOWN FLUX  DOWNWARD FLUX   NET FLUX    HEATING RATE
          mb          W/m2          W/m2          W/m2        W/m2          W/m2       degree/day
  51    .06700        0.9019        0.0000        5.4450        5.4450       4.543093       0.00000
  50    .07753        0.9019        0.0000        5.4450        5.4450       4.543085       0.00640
  49    .09103        0.9019        0.0000        5.4450        5.4450       4.543075       0.00627
  48    0.1069        0.9019        0.0000        5.4450        5.4450       4.543064       0.00613
  47    0.1255        0.9019        0.0000        5.4450        5.4450       4.543050       0.00599
  46    0.1487        0.9019        0.0000        5.4450        5.4450       4.543034       0.00608
  45    0.1794        0.9019        0.0000        5.4450        5.4450       4.543011       0.00625
  44    0.2165        0.9019        0.0000        5.4449        5.4449       4.542984       0.00612
  43    0.2613        0.9019        0.0000        5.4449        5.4449       4.542952       0.00600
  42    0.3336        0.9019        0.0000        5.4448        5.4448       4.542899       0.00617
  41    0.4307        0.9019        0.0000        5.4448        5.4448       4.542828       0.00620
  40    0.5894        0.9019        0.0000        5.4446        5.4446       4.542708       0.00637
  39     1.339        0.9019        0.0000        5.4439        5.4439       4.542001       0.00797
  38     1.782        0.9019        0.0000        5.4434        5.4434       4.541458       0.01034
  37     2.292        0.9019        0.0000        5.4427        5.4427       4.540742       0.01186
  36     2.964        0.9019        0.0000        5.4416        5.4416       4.539703       0.01304
  35     3.853        0.9019        0.0000        5.4402        5.4402       4.538226       0.01402
  34     5.035        0.9019        0.0000        5.4381        5.4381       4.536170       0.01468
  33     6.613        0.9019        0.0000        5.4353        5.4353       4.533389       0.01487
  32     8.786        0.9019        0.0000        5.4317        5.4317       4.529757       0.01411
  31     11.80        0.9019        0.0000        5.4269        5.4269       4.524976       0.01338
  30     15.07        0.9019        0.0000        5.4224        5.4224       4.520448       0.01169
  29     18.79        0.9019        0.0000        5.4180        5.4180       4.516035       0.01001
  28     23.16        0.9019        0.0000        5.4135        5.4135       4.511547       0.00868
  27     28.12        0.9019        0.0000        5.4088        5.4088       4.506897       0.00791
  26     33.73        0.9019        0.0000        5.4036        5.4036       4.501653       0.00789
  25     40.54        0.9020        0.0000        5.3966        5.3967       4.494705       0.00862
  24     48.69        0.9020        0.0000        5.3872        5.3872       4.485219       0.00982
  23     57.69        0.9020        0.0000        5.3754        5.3754       4.473422       0.01106
  22     68.43        0.9020        0.0000        5.3599        5.3599       4.457916       0.01219
  21     81.20        0.9020        0.0000        5.3401        5.3401       4.438055       0.01312
  20     96.49        0.9021        0.0000        5.3155        5.3155       4.413450       0.01358
  19     114.6        0.9022        0.0000        5.2853        5.2854       4.383200       0.01412
  18     136.5        0.9022        0.0001        5.2504        5.2505       4.348217       0.01345
  17     162.9        0.9024        0.0001        5.2111        5.2112       4.308764       0.01261
  16     196.4        0.9026        0.0001        5.1640        5.1641       4.261487       0.01190
  15     218.7        0.9029        0.0001        5.1331        5.1332       4.230327       0.01183
  14     243.0        0.9033        0.0001        5.0962        5.0963       4.193037       0.01293
  13     269.0        0.9039        0.0001        5.0511        5.0512       4.147293       0.01484
  12     297.5        0.9049        0.0001        4.9956        4.9957       4.090860       0.01674
  11     328.5        0.9062        0.0001        4.9304        4.9305       4.024303       0.01810
  10     361.9        0.9080        0.0001        4.8511        4.8512       3.943207       0.02052
   9     398.1        0.9106        0.0001        4.7507        4.7508       3.840275       0.02398
   8     437.6        0.9141        0.0002        4.6220        4.6222       3.708137       0.02825
   7     480.5        0.9189        0.0002        4.4625        4.4626       3.543747       0.03229
   6     533.0        0.9268        0.0002        4.2460        4.2462       3.319450       0.03608
   5     589.8        0.9387        0.0002        3.9954        3.9956       3.056849       0.03898
   4     651.6        0.9584        0.0002        3.7089        3.7090       2.750623       0.04188
   3     718.7        0.9908        0.0002        3.4018        3.4020       2.411259       0.04265
   2     792.3        1.0489        0.0002        3.0564        3.0566       2.007722       0.04628
   1     891.5        0.3351        0.8031        1.0700        1.8731       1.538009       0.03997
   0    1013.0        0.3869        0.6643        0.8636        1.5280       1.141095       0.02756



 Wavenumbers:  3250. -  4000. cm-1, ATM      1
 LEVEL PRESSURE   UPWARD FLUX   DIFDOWN FLUX  DIRDOWN FLUX  DOWNWARD FLUX   NET FLUX    HEATING RATE
          mb          W/m2          W/m2          W/m2        W/m2          W/m2       degree/day
  51    .06700        0.0174        0.0000        9.1795        9.1795       9.162084       0.00000
  50    .07753        0.0174        0.0000        9.1747        9.1747       9.157241       3.88148
  49    .09103        0.0174        0.0000        9.1713        9.1713       9.153853       2.11747
  48    0.1069        0.0174        0.0000        9.1688        9.1688       9.151328       1.34402
  47    0.1255        0.0174        0.0000        9.1665        9.1665       9.149069       1.02422
  46    0.1487        0.0174        0.0000        9.1641        9.1641       9.146628       0.88991
  45    0.1794        0.0174        0.0000        9.1612        9.1612       9.143750       0.79008
  44    0.2165        0.0174        0.0000        9.1583        9.1583       9.140829       0.66430
  43    0.2613        0.0174        0.0000        9.1553        9.1553       9.137856       0.56041
  42    0.3336        0.0174        0.0000        9.1511        9.1511       9.133677       0.48723
  41    0.4307        0.0174        0.0000        9.1464        9.1464       9.128909       0.41459
  40    0.5894        0.0174        0.0000        9.1393        9.1394       9.121904       0.37255
  39     1.339        0.0174        0.0000        9.1127        9.1127       9.095290       0.29962
  38     1.782        0.0174        0.0000        9.1011        9.1011       9.083702       0.22062
  37     2.292        0.0174        0.0000        9.0901        9.0901       9.072635       0.18329
  36     2.964        0.0174        0.0000        9.0776        9.0776       9.060205       0.15603
  35     3.853        0.0174        0.0000        9.0629        9.0629       9.045415       0.14036
  34     5.035        0.0174        0.0000        9.0441        9.0441       9.026676       0.13386
  33     6.613        0.0174        0.0000        9.0191        9.0191       9.001675       0.13366
  32     8.786        0.0174        0.0000        8.9843        8.9843       8.966891       0.13509
  31     11.80        0.0174        0.0000        8.9327        8.9327       8.915275       0.14451
  30     15.07        0.0174        0.0000        8.8758        8.8759       8.858430       0.14676
  29     18.79        0.0174        0.0000        8.8110        8.8110       8.793603       0.14698
  28     23.16        0.0174        0.0000        8.7365        8.7366       8.719158       0.14395
  27     28.12        0.0174        0.0000        8.6554        8.6555       8.638045       0.13789
  26     33.73        0.0174        0.0000        8.5719        8.5719       8.554545       0.12554
  25     40.54        0.0174        0.0001        8.4812        8.4812       8.463821       0.11255
  24     48.69        0.0174        0.0001        8.3838        8.3839       8.366520       0.10069
  23     57.69        0.0174        0.0001        8.2861        8.2862       8.268785       0.09161
  22     68.43        0.0174        0.0001        8.1751        8.1751       8.157788       0.08726
  21     81.20        0.0173        0.0001        8.0457        8.0458       8.028430       0.08548
  20     96.49        0.0173        0.0001        7.8949        7.8950       7.877726       0.08318
  19     114.6        0.0173        0.0001        7.7162        7.7163       7.699017       0.08344
  18     136.5        0.0173        0.0002        7.5193        7.5195       7.502173       0.07569
  17     162.9        0.0172        0.0002        7.2913        7.2915       7.274281       0.07284
  16     196.4        0.0172        0.0002        6.9660        6.9662       6.949007       0.08188
  15     218.7        0.0172        0.0002        6.6648        6.6650       6.647816       0.11435
  14     243.0        0.0172        0.0002        6.2619        6.2622       6.245014       0.13970
  13     269.0        0.0172        0.0003        5.7576        5.7579       5.740698       0.16360
  12     297.5        0.0172        0.0003        5.1719        5.1722       5.154970       0.17372
  11     328.5        0.0172        0.0002        4.5757        4.5760       4.558746       0.16211
  10     361.9        0.0173        0.0002        3.9995        3.9998       3.982463       0.14581
   9     398.1        0.0175        0.0002        3.4655        3.4657       3.448231       0.12446
   8     437.6        0.0178        0.0002        2.9740        2.9743       2.956492       0.10514
   7     480.5        0.0182        0.0002        2.5307        2.5309       2.512647       0.08717
   6     533.0        0.0191        0.0002        2.0614        2.0616       2.042439       0.07564
   5     589.8        0.0208        0.0002        1.6150        1.6151       1.594345       0.06651
   4     651.6        0.0243        0.0001        1.1565        1.1566       1.132321       0.06318
   3     718.7        0.0319        0.0001        0.7390        0.7391       0.707156       0.05343
   2     792.3        0.0524        0.0001        0.3985        0.3985       0.346143       0.04140
   1     891.5        0.0005        0.0325        0.0472        0.0797       0.079255       0.02271
   0    1013.0        0.0045        0.0034        0.0039        0.0073       0.002727       0.00531



 Wavenumbers:  4000. -  4650. cm-1, ATM      1
 LEVEL PRESSURE   UPWARD FLUX   DIFDOWN FLUX  DIRDOWN FLUX  DOWNWARD FLUX   NET FLUX    HEATING RATE
          mb          W/m2          W/m2          W/m2        W/m2          W/m2       degree/day
  51    .06700        2.9234        0.0000       10.7795       10.7795       7.856113       0.00000
  50    .07753        2.9234        0.0000       10.7795       10.7795       7.856112       0.00080
  49    .09103        2.9234        0.0000       10.7795       10.7795       7.856111       0.00078
  48    0.1069        2.9234        0.0000       10.7795       10.7795       7.856109       0.00076
  47    0.1255        2.9234        0.0000       10.7795       10.7795       7.856108       0.00075
  46    0.1487        2.9234        0.0000       10.7795       10.7795       7.856105       0.00076
  45    0.1794        2.9234        0.0000       10.7795       10.7795       7.856103       0.00078
  44    0.2165        2.9234        0.0000       10.7795       10.7795       7.856099       0.00076
  43    0.2613        2.9234        0.0000       10.7795       10.7795       7.856095       0.00075
  42    0.3336        2.9234        0.0000       10.7795       10.7795       7.856089       0.00077
  41    0.4307        2.9234        0.0000       10.7795       10.7795       7.856080       0.00077
  40    0.5894        2.9234        0.0000       10.7795       10.7795       7.856065       0.00080
  39     1.339        2.9234        0.0000       10.7794       10.7794       7.855975       0.00101
  38     1.782        2.9234        0.0000       10.7793       10.7793       7.855906       0.00133
  37     2.292        2.9234        0.0000       10.7792       10.7792       7.855812       0.00156
  36     2.964        2.9234        0.0000       10.7791       10.7791       7.855671       0.00176
  35     3.853        2.9234        0.0000       10.7789       10.7789       7.855463       0.00197
  34     5.035        2.9234        0.0000       10.7786       10.7786       7.855156       0.00219
  33     6.613        2.9234        0.0000       10.7781       10.7781       7.854704       0.00242
  32     8.786        2.9234        0.0000       10.7774       10.7774       7.854037       0.00259
  31     11.80        2.9234        0.0000       10.7763       10.7764       7.852990       0.00293
  30     15.07        2.9234        0.0001       10.7751       10.7752       7.851760       0.00317
  29     18.79        2.9234        0.0001       10.7736       10.7737       7.850274       0.00337
  28     23.16        2.9234        0.0001       10.7717       10.7718       7.848429       0.00357
  27     28.12        2.9234        0.0001       10.7695       10.7696       7.846195       0.00380
  26     33.73        2.9234        0.0001       10.7667       10.7668       7.843441       0.00414
  25     40.54        2.9234        0.0002       10.7629       10.7631       7.839706       0.00463
  24     48.69        2.9234        0.0002       10.7579       10.7581       7.834730       0.00515
  23     57.69        2.9234        0.0002       10.7520       10.7522       7.828832       0.00553
  22     68.43        2.9234        0.0003       10.7446       10.7449       7.821441       0.00581
  21     81.20        2.9235        0.0003       10.7355       10.7358       7.812343       0.00601
  20     96.49        2.9236        0.0004       10.7245       10.7249       7.801276       0.00611
  19     114.6        2.9237        0.0005       10.7107       10.7112       7.787444       0.00646
  18     136.5        2.9240        0.0006       10.6942       10.6948       7.770786       0.00641
  17     162.9        2.9243        0.0007       10.6740       10.6747       7.750379       0.00652
  16     196.4        2.9249        0.0008       10.6464       10.6472       7.722258       0.00708
  15     218.7        2.9255        0.0009       10.6255       10.6264       7.700890       0.00811
  14     243.0        2.9263        0.0010       10.5980       10.5990       7.672750       0.00976
  13     269.0        2.9275        0.0011       10.5611       10.5622       7.634638       0.01236
  12     297.5        2.9294        0.0012       10.5119       10.5132       7.583741       0.01510
  11     328.5        2.9320        0.0013       10.4499       10.4512       7.519218       0.01754
  10     361.9        2.9354        0.0015       10.3702       10.3716       7.436256       0.02099
   9     398.1        2.9396        0.0016       10.2678       10.2694       7.329724       0.02482
   8     437.6        2.9451        0.0017       10.1390       10.1407       7.195632       0.02867
   7     480.5        2.9520        0.0019        9.9877        9.9896       7.037529       0.03105
   6     533.0        2.9627        0.0021        9.7937        9.7957       6.833005       0.03290
   5     589.8        2.9781        0.0022        9.5752        9.5774       6.599276       0.03469
   4     651.6        3.0028        0.0024        9.2958        9.2982       6.295442       0.04155
   3     718.7        3.0438        0.0026        8.9267        8.9293       5.885504       0.05152
   2     792.3        3.1196        0.0027        8.4542        8.4569       5.337344       0.06287
   1     891.5        0.9672        2.4243        3.2298        5.6541       4.686905       0.05535
   0    1013.0        1.0304        2.2257        2.9322        5.1579       4.127558       0.03884



 Wavenumbers:  4650. -  5150. cm-1, ATM      1
 LEVEL PRESSURE   UPWARD FLUX   DIFDOWN FLUX  DIRDOWN FLUX  DOWNWARD FLUX   NET FLUX    HEATING RATE
          mb          W/m2          W/m2          W/m2        W/m2          W/m2       degree/day
  51    .06700        2.1070        0.0000       10.2033       10.2033       8.096293       0.00000
  50    .07753        2.1070        0.0000       10.2031       10.2031       8.096057       0.18901
  49    .09103        2.1070        0.0000       10.2028       10.2028       8.095762       0.18428
  48    0.1069        2.1070        0.0000       10.2025       10.2025       8.095425       0.17931
  47    0.1255        2.1070        0.0000       10.2021       10.2021       8.095041       0.17426
  46    0.1487        2.1070        0.0000       10.2016       10.2016       8.094560       0.17536
  45    0.1794        2.1070        0.0000       10.2010       10.2010       8.093910       0.17850
  44    0.2165        2.1070        0.0000       10.2002       10.2002       8.093150       0.17277
  43    0.2613        2.1070        0.0000       10.1993       10.1993       8.092265       0.16690
  42    0.3336        2.1070        0.0000       10.1979       10.1979       8.090832       0.16702
  41    0.4307        2.1070        0.0000       10.1960       10.1960       8.088992       0.16002
  40    0.5894        2.1070        0.0000       10.1932       10.1932       8.086118       0.15283
  39     1.339        2.1070        0.0000       10.1816       10.1816       8.074526       0.13050
  38     1.782        2.1070        0.0000       10.1760       10.1760       8.068998       0.10526
  37     2.292        2.1070        0.0000       10.1706       10.1706       8.063541       0.09037
  36     2.964        2.1070        0.0000       10.1646       10.1647       8.057618       0.07435
  35     3.853        2.1070        0.0000       10.1584       10.1584       8.051404       0.05898
  34     5.035        2.1070        0.0000       10.1521       10.1521       8.045068       0.04526
  33     6.613        2.1070        0.0000       10.1456       10.1456       8.038611       0.03452
  32     8.786        2.1070        0.0001       10.1386       10.1386       8.031599       0.02723
  31     11.80        2.1070        0.0001       10.1295       10.1296       8.022557       0.02532
  30     15.07        2.1070        0.0001       10.1196       10.1197       8.012676       0.02551
  29     18.79        2.1070        0.0001       10.1076       10.1077       8.000664       0.02723
  28     23.16        2.1070        0.0001       10.0923       10.0924       7.985353       0.02961
  27     28.12        2.1071        0.0002       10.0731       10.0733       7.966250       0.03247
  26     33.73        2.1071        0.0002       10.0500       10.0502       7.943143       0.03474
  25     40.54        2.1072        0.0003       10.0201       10.0204       7.913220       0.03712
  24     48.69        2.1072        0.0003        9.9820        9.9823       7.875020       0.03953
  23     57.69        2.1074        0.0004        9.9384        9.9388       7.831443       0.04085
  22     68.43        2.1075        0.0004        9.8858        9.8862       7.778656       0.04150
  21     81.20        2.1078        0.0005        9.8234        9.8239       7.716187       0.04128
  20     96.49        2.1081        0.0006        9.7518        9.7523       7.644259       0.03970
  19     114.6        2.1086        0.0007        9.6719        9.6726       7.564051       0.03745
  18     136.5        2.1092        0.0008        9.5858        9.5866       7.477392       0.03332
  17     162.9        2.1102        0.0010        9.4940        9.4950       7.384848       0.02958
  16     196.4        2.1116        0.0011        9.3883        9.3894       7.277814       0.02694
  15     218.7        2.1128        0.0013        9.3229        9.3242       7.211416       0.02521
  14     243.0        2.1143        0.0014        9.2520        9.2534       7.139086       0.02509
  13     269.0        2.1163        0.0015        9.1717        9.1732       7.056849       0.02668
  12     297.5        2.1193        0.0017        9.0763        9.0780       6.958708       0.02911
  11     328.5        2.1231        0.0018        8.9650        8.9668       6.843745       0.03126
  10     361.9        2.1280        0.0020        8.8349        8.8369       6.708924       0.03411
   9     398.1        2.1344        0.0022        8.6820        8.6842       6.549766       0.03708
   8     437.6        2.1428        0.0023        8.5028        8.5051       6.362345       0.04007
   7     480.5        2.1537        0.0025        8.2948        8.2973       6.143615       0.04296
   6     533.0        2.1704        0.0027        8.0209        8.0236       5.853208       0.04672
   5     589.8        2.1936        0.0029        7.7063        7.7092       5.515621       0.05011
   4     651.6        2.2280        0.0031        7.3412        7.3443       5.116318       0.05461
   3     718.7        2.2799        0.0033        6.9387        6.9419       4.661980       0.05710
   2     792.3        2.3624        0.0034        6.5066        6.5100       4.147557       0.05900
   1     891.5        0.7239        1.8416        2.4596        4.3012       3.577288       0.04853
   0    1013.0        0.7842        1.6669        2.1971        3.8640       3.079869       0.03454



 Wavenumbers:  5150. -  6150. cm-1, ATM      1
 LEVEL PRESSURE   UPWARD FLUX   DIFDOWN FLUX  DIRDOWN FLUX  DOWNWARD FLUX   NET FLUX    HEATING RATE
          mb          W/m2          W/m2          W/m2        W/m2          W/m2       degree/day
  51    .06700        5.1129        0.0000       25.5798       25.5798      20.466909       0.00000
  50    .07753        5.1129        0.0000       25.5798       25.5798      20.466870       0.03158
  49    .09103        5.1129        0.0000       25.5797       25.5797      20.466818       0.03207
  48    0.1069        5.1129        0.0000       25.5797       25.5797      20.466757       0.03258
  47    0.1255        5.1129        0.0000       25.5796       25.5796      20.466684       0.03308
  46    0.1487        5.1129        0.0000       25.5795       25.5795      20.466588       0.03485
  45    0.1794        5.1129        0.0000       25.5794       25.5794      20.466453       0.03709
  44    0.2165        5.1129        0.0000       25.5792       25.5792      20.466288       0.03766
  43    0.2613        5.1129        0.0000       25.5790       25.5790      20.466085       0.03823
  42    0.3336        5.1129        0.0000       25.5786       25.5786      20.465738       0.04040
  41    0.4307        5.1129        0.0000       25.5782       25.5782      20.465268       0.04094
  40    0.5894        5.1129        0.0000       25.5774       25.5774      20.464479       0.04195
  39     1.339        5.1129        0.0000       25.5735       25.5736      20.460679       0.04278
  38     1.782        5.1129        0.0000       25.5713       25.5714      20.458467       0.04211
  37     2.292        5.1129        0.0001       25.5688       25.5688      20.455964       0.04146
  36     2.964        5.1129        0.0001       25.5656       25.5657      20.452784       0.03992
  35     3.853        5.1129        0.0001       25.5615       25.5616      20.448742       0.03835
  34     5.035        5.1128        0.0001       25.5562       25.5564      20.443539       0.03717
  33     6.613        5.1128        0.0002       25.5494       25.5496      20.436788       0.03609
  32     8.786        5.1128        0.0002       25.5406       25.5408      20.428042       0.03397
  31     11.80        5.1128        0.0003       25.5287       25.5290      20.416215       0.03311
  30     15.07        5.1128        0.0004       25.5167       25.5171      20.404356       0.03062
  29     18.79        5.1127        0.0005       25.5042       25.5047      20.391960       0.02810
  28     23.16        5.1127        0.0007       25.4907       25.4913      20.378610       0.02581
  27     28.12        5.1127        0.0008       25.4764       25.4772      20.364536       0.02392
  26     33.73        5.1127        0.0009       25.4620       25.4630      20.350278       0.02144
  25     40.54        5.1127        0.0011       25.4463       25.4474      20.334694       0.01933
  24     48.69        5.1127        0.0014       25.4294       25.4307      20.318013       0.01726
  23     57.69        5.1128        0.0016       25.4126       25.4142      20.301460       0.01552
  22     68.43        5.1128        0.0019       25.3944       25.3963      20.283496       0.01412
  21     81.20        5.1130        0.0023       25.3744       25.3767      20.263736       0.01306
  20     96.49        5.1131        0.0027       25.3519       25.3546      20.241537       0.01225
  19     114.6        5.1133        0.0032       25.3262       25.3294      20.216085       0.01188
  18     136.5        5.1135        0.0038       25.2962       25.3000      20.186464       0.01139
  17     162.9        5.1139        0.0045       25.2521       25.2566      20.142761       0.01397
  16     196.4        5.1143        0.0054       25.1593       25.1647      20.050404       0.02325
  15     218.7        5.1147        0.0060       25.0159       25.0220      19.907257       0.05435
  14     243.0        5.1152        0.0066       24.7089       24.7155      19.600348       0.10645
  13     269.0        5.1159        0.0072       24.1619       24.1691      19.053173       0.17750
  12     297.5        5.1169        0.0078       23.4544       23.4622      18.345238       0.20997
  11     328.5        5.1183        0.0084       22.7355       22.7438      17.625478       0.19570
  10     361.9        5.1203        0.0089       21.9224       21.9314      16.811058       0.20606
   9     398.1        5.1230        0.0095       20.9939       21.0034      15.880384       0.21683
   8     437.6        5.1269        0.0100       19.9833       19.9933      14.866460       0.21678
   7     480.5        5.1323        0.0105       18.9483       18.9588      13.826504       0.20424
   6     533.0        5.1416        0.0110       17.7796       17.7906      12.649061       0.18941
   5     589.8        5.1567        0.0116       16.6726       16.6841      11.527423       0.16649
   4     651.6        5.1846        0.0121       15.6343       15.6464      10.461848       0.14572
   3     718.7        5.2356        0.0127       14.7738       14.7865       9.550946       0.11448
   2     792.3        5.3366        0.0134       14.0291       14.0425       8.705948       0.09691
   1     891.5        1.7448        4.1082        5.4204        9.5286       7.783783       0.07847
   0    1013.0        1.8214        3.8232        4.9880        8.8112       6.989823       0.05513



 Wavenumbers:  6150. -  7700. cm-1, ATM      1
 LEVEL PRESSURE   UPWARD FLUX   DIFDOWN FLUX  DIRDOWN FLUX  DOWNWARD FLUX   NET FLUX    HEATING RATE
          mb          W/m2          W/m2          W/m2        W/m2          W/m2       degree/day
  51    .06700        8.0424        0.0000       47.3109       47.3109      39.268480       0.00000
  50    .07753        8.0424        0.0000       47.3108       47.3108      39.268423       0.04553
  49    .09103        8.0424        0.0000       47.3107       47.3107      39.268350       0.04583
  48    0.1069        8.0424        0.0000       47.3106       47.3106      39.268263       0.04614
  47    0.1255        8.0424        0.0000       47.3105       47.3105      39.268161       0.04645
  46    0.1487        8.0424        0.0000       47.3104       47.3104      39.268028       0.04852
  45    0.1794        8.0424        0.0000       47.3102       47.3102      39.267841       0.05127
  44    0.2165        8.0424        0.0000       47.3100       47.3100      39.267614       0.05167
  43    0.2613        8.0424        0.0000       47.3097       47.3097      39.267337       0.05210
  42    0.3336        8.0424        0.0000       47.3092       47.3092      39.266868       0.05471
  41    0.4307        8.0423        0.0000       47.3085       47.3086      39.266233       0.05521
  40    0.5894        8.0423        0.0001       47.3074       47.3075      39.265174       0.05633
  39     1.339        8.0423        0.0002       47.3022       47.3023      39.260082       0.05733
  38     1.782        8.0422        0.0002       47.2991       47.2993      39.257111       0.05655
  37     2.292        8.0422        0.0003       47.2956       47.2959      39.253736       0.05591
  36     2.964        8.0421        0.0003       47.2912       47.2915      39.249417       0.05421
  35     3.853        8.0420        0.0004       47.2855       47.2859      39.243883       0.05252
  34     5.035        8.0419        0.0006       47.2780       47.2786      39.236702       0.05129
  33     6.613        8.0418        0.0008       47.2683       47.2691      39.227315       0.05019
  32     8.786        8.0416        0.0010       47.2556       47.2566      39.215016       0.04777
  31     11.80        8.0413        0.0014       47.2380       47.2394      39.198112       0.04732
  30     15.07        8.0410        0.0018       47.2201       47.2218      39.180825       0.04463
  29     18.79        8.0407        0.0022       47.2008       47.2030      39.162346       0.04190
  28     23.16        8.0403        0.0027       47.1795       47.1822      39.141956       0.03943
  27     28.12        8.0398        0.0033       47.1565       47.1598      39.119963       0.03739
  26     33.73        8.0393        0.0039       47.1324       47.1363      39.097043       0.03446
  25     40.54        8.0387        0.0047       47.1054       47.1101      39.071408       0.03180
  24     48.69        8.0379        0.0057       47.0754       47.0811      39.043157       0.02924
  23     57.69        8.0371        0.0067       47.0449       47.0517      39.014538       0.02683
  22     68.43        8.0361        0.0080       47.0110       47.0189      38.982804       0.02495
  21     81.20        8.0350        0.0094       46.9729       46.9823      38.947315       0.02345
  20     96.49        8.0336        0.0112       46.9294       46.9406      38.906981       0.02226
  19     114.6        8.0320        0.0133       46.8790       46.8923      38.860359       0.02177
  18     136.5        8.0300        0.0158       46.8200       46.8358      38.805752       0.02100
  17     162.9        8.0277        0.0188       46.7361       46.7549      38.727160       0.02512
  16     196.4        8.0248        0.0226       46.5703       46.5928      38.568038       0.04005
  15     218.7        8.0230        0.0250       46.3473       46.3723      38.349372       0.08302
  14     243.0        8.0211        0.0276       45.9299       45.9575      37.936329       0.14326
  13     269.0        8.0195        0.0302       45.1708       45.2009      37.181424       0.24489
  12     297.5        8.0184        0.0326       44.0115       44.0441      36.025690       0.34278
  11     328.5        8.0180        0.0351       42.7242       42.7594      34.741337       0.34921
  10     361.9        8.0187        0.0376       41.3539       41.3916      33.372849       0.34624
   9     398.1        8.0212        0.0401       39.7953       39.8353      31.814120       0.36315
   8     437.6        8.0266        0.0423       37.9948       38.0371      30.010461       0.38563
   7     480.5        8.0363        0.0444       36.0647       36.1091      28.072823       0.38054
   6     533.0        8.0557        0.0465       33.7773       33.8238      25.768095       0.37076
   5     589.8        8.0912        0.0484       31.4082       31.4566      23.365451       0.35663
   4     651.6        8.1611        0.0498       28.8834       28.9332      20.772070       0.35465
   3     718.7        8.2952        0.0510       26.4104       26.4613      18.166131       0.32749
   2     792.3        8.5744        0.0518       24.0056       24.0574      15.482967       0.30773
   1     891.5        2.6429        6.6384        8.7986       15.4370      12.794108       0.22881
   0    1013.0        2.8428        5.9185        7.7132       13.6317      10.788883       0.13923



 Wavenumbers:  7700. -  8050. cm-1, ATM      1
 LEVEL PRESSURE   UPWARD FLUX   DIFDOWN FLUX  DIRDOWN FLUX  DOWNWARD FLUX   NET FLUX    HEATING RATE
          mb          W/m2          W/m2          W/m2        W/m2          W/m2       degree/day
  51    .06700        3.8856        0.0000       11.1810       11.1810       7.295376       0.00000
  50    .07753        3.8856        0.0000       11.1809       11.1809       7.295356       0.01638
  49    .09103        3.8856        0.0000       11.1809       11.1809       7.295330       0.01605
  48    0.1069        3.8856        0.0000       11.1809       11.1809       7.295301       0.01571
  47    0.1255        3.8856        0.0000       11.1809       11.1809       7.295267       0.01537
  46    0.1487        3.8856        0.0000       11.1808       11.1808       7.295224       0.01560
  45    0.1794        3.8856        0.0000       11.1808       11.1808       7.295166       0.01605
  44    0.2165        3.8856        0.0000       11.1807       11.1807       7.295096       0.01575
  43    0.2613        3.8856        0.0000       11.1806       11.1806       7.295014       0.01545
  42    0.3336        3.8856        0.0000       11.1805       11.1805       7.294879       0.01581
  41    0.4307        3.8857        0.0000       11.1803       11.1804       7.294699       0.01564
  40    0.5894        3.8857        0.0000       11.1801       11.1801       7.294405       0.01562
  39     1.339        3.8859        0.0001       11.1788       11.1789       7.293016       0.01564
  38     1.782        3.8860        0.0001       11.1781       11.1782       7.292199       0.01554
  37     2.292        3.8861        0.0001       11.1772       11.1773       7.291255       0.01565
  36     2.964        3.8862        0.0001       11.1761       11.1762       7.290014       0.01557
  35     3.853        3.8864        0.0002       11.1746       11.1748       7.288376       0.01555
  34     5.035        3.8867        0.0003       11.1726       11.1729       7.286199       0.01555
  33     6.613        3.8870        0.0003       11.1700       11.1703       7.283293       0.01554
  32     8.786        3.8874        0.0004       11.1664       11.1668       7.279378       0.01520
  31     11.80        3.8881        0.0006       11.1613       11.1619       7.273782       0.01567
  30     15.07        3.8888        0.0008       11.1558       11.1566       7.267780       0.01550
  29     18.79        3.8896        0.0009       11.1497       11.1506       7.261008       0.01535
  28     23.16        3.8906        0.0012       11.1425       11.1437       7.253111       0.01527
  27     28.12        3.8916        0.0014       11.1343       11.1357       7.244098       0.01532
  26     33.73        3.8928        0.0017       11.1252       11.1269       7.234034       0.01513
  25     40.54        3.8943        0.0020       11.1142       11.1162       7.221908       0.01504
  24     48.69        3.8961        0.0024       11.1010       11.1034       7.207341       0.01508
  23     57.69        3.8981        0.0029       11.0866       11.0895       7.191403       0.01494
  22     68.43        3.9004        0.0034       11.0695       11.0729       7.172510       0.01485
  21     81.20        3.9033        0.0040       11.0494       11.0534       7.150128       0.01479
  20     96.49        3.9067        0.0048       11.0255       11.0303       7.123637       0.01462
  19     114.6        3.9108        0.0057       10.9975       11.0032       7.092434       0.01457
  18     136.5        3.9157        0.0067       10.9648       10.9715       7.055790       0.01409
  17     162.9        3.9217        0.0080       10.9263       10.9343       7.012616       0.01380
  16     196.4        3.9295        0.0096       10.8773       10.8869       6.957332       0.01392
  15     218.7        3.9348        0.0107       10.8455       10.8562       6.921407       0.01364
  14     243.0        3.9406        0.0118       10.8114       10.8233       6.882640       0.01345
  13     269.0        3.9471        0.0131       10.7749       10.7879       6.840885       0.01355
  12     297.5        3.9542        0.0144       10.7357       10.7501       6.795938       0.01333
  11     328.5        3.9621        0.0159       10.6937       10.7096       6.747518       0.01317
  10     361.9        3.9709        0.0174       10.6489       10.6663       6.695422       0.01318
   9     398.1        3.9807        0.0191       10.6008       10.6199       6.639202       0.01310
   8     437.6        3.9917        0.0209       10.5491       10.5700       6.578300       0.01302
   7     480.5        4.0041        0.0228       10.4934       10.5163       6.512192       0.01298
   6     533.0        4.0203        0.0252       10.4243       10.4495       6.429185       0.01335
   5     589.8        4.0393        0.0277       10.3479       10.3756       6.336340       0.01378
   4     651.6        4.0622        0.0305       10.2613       10.2918       6.229584       0.01460
   3     718.7        4.0905        0.0333       10.1618       10.1951       6.104613       0.01571
   2     792.3        4.1266        0.0364       10.0439       10.0803       5.953620       0.01732
   1     891.5        1.4789        3.1576        4.0875        7.2450       5.766089       0.01596
   0    1013.0        1.5091        3.0884        3.9829        7.0714       5.562232       0.01415



 Wavenumbers:  8050. - 12850. cm-1, ATM      1
 LEVEL PRESSURE   UPWARD FLUX   DIFDOWN FLUX  DIRDOWN FLUX  DOWNWARD FLUX   NET FLUX    HEATING RATE
          mb          W/m2          W/m2          W/m2        W/m2          W/m2       degree/day
  51    .06700       53.9708        0.0000      156.5418      156.5418     102.570915       0.00000
  50    .07753       53.9708        0.0000      156.5417      156.5417     102.570915      -0.00000
  49    .09103       53.9708        0.0001      156.5417      156.5417     102.570915       0.00000
  48    0.1069       53.9708        0.0001      156.5416      156.5417     102.570915       0.00000
  47    0.1255       53.9707        0.0001      156.5415      156.5417     102.570915      -0.00000
  46    0.1487       53.9707        0.0002      156.5414      156.5416     102.570915      -0.00000
  45    0.1794       53.9707        0.0003      156.5413      156.5416     102.570915       0.00000
  44    0.2165       53.9706        0.0004      156.5412      156.5415     102.570915      -0.00000
  43    0.2613       53.9705        0.0005      156.5410      156.5415     102.570915       0.00000
  42    0.3336       53.9704        0.0007      156.5407      156.5414     102.570915      -0.00000
  41    0.4307       53.9703        0.0009      156.5403      156.5412     102.570915       0.00000
  40    0.5894       53.9701        0.0013      156.5397      156.5410     102.570915       0.00000
  39     1.339       53.9690        0.0031      156.5367      156.5399     102.570915      -0.00000
  38     1.782       53.9683        0.0042      156.5350      156.5392     102.570915       0.00000
  37     2.292       53.9675        0.0055      156.5330      156.5385     102.570915      -0.00000
  36     2.964       53.9666        0.0071      156.5303      156.5375     102.570915      -0.00000
  35     3.853       53.9652        0.0093      156.5268      156.5362     102.570915       0.00000
  34     5.035       53.9635        0.0122      156.5222      156.5344     102.570915       0.00000
  33     6.613       53.9612        0.0161      156.5160      156.5321     102.570915      -0.00000
  32     8.786       53.9580        0.0213      156.5076      156.5290     102.570915       0.00000
  31     11.80       53.9535        0.0288      156.4957      156.5245     102.570915       0.00000
  30     15.07       53.9487        0.0369      156.4828      156.5196     102.570915      -0.00000
  29     18.79       53.9433        0.0459      156.4682      156.5142     102.570915       0.00000
  28     23.16       53.9369        0.0566      156.4512      156.5078     102.570915       0.00000
  27     28.12       53.9296        0.0688      156.4317      156.5005     102.570915       0.00000
  26     33.73       53.9214        0.0824      156.4099      156.4923     102.570915       0.00000
  25     40.54       53.9114        0.0989      156.3834      156.4824     102.570915       0.00000
  24     48.69       53.8995        0.1189      156.3515      156.4704     102.570915       0.00000
  23     57.69       53.8863        0.1408      156.3164      156.4572     102.570915      -0.00000
  22     68.43       53.8706        0.1669      156.2746      156.4415     102.570915       0.00000
  21     81.20       53.8518        0.1982      156.2246      156.4227     102.570915       0.00000
  20     96.49       53.8294        0.2354      156.1649      156.4003     102.570915       0.00000
  19     114.6       53.8029        0.2797      156.0879      156.3677     102.564766       0.00287
  18     136.5       53.7714        0.3323      155.9962      156.3285     102.557131       0.00294
  17     162.9       53.7337        0.3951      155.8831      156.2782     102.544437       0.00406
  16     196.4       53.6849        0.4768      155.7199      156.1967     102.511806       0.00821
  15     218.7       53.6529        0.5304      155.5733      156.1037     102.450802       0.02316
  14     243.0       53.6186        0.5887      155.3367      155.9254     102.306775       0.04995
  13     269.0       53.5826        0.6517      154.9514      155.6032     102.020526       0.09286
  12     297.5       53.5460        0.7195      154.3896      155.1091     101.563108       0.13567
  11     328.5       53.5093        0.7925      153.7151      154.5076     100.998250       0.15358
  10     361.9       53.4741        0.8707      152.9087      153.7795     100.305344       0.17531
   9     398.1       53.4428        0.9543      151.8986      152.8529      99.410038       0.20859
   8     437.6       53.4199        1.0429      150.6031      151.6461      98.226190       0.25311
   7     480.5       53.4106        1.1364      149.0014      150.1378      96.727193       0.29440
   6     533.0       53.4281        1.2490      146.7375      147.9865      94.558449       0.34888
   5     589.8       53.5006        1.3662      143.8730      145.2392      91.738628       0.41855
   4     651.6       53.6932        1.4855      140.0955      141.5810      87.887761       0.52662
   3     718.7       54.0997        1.6053      135.5278      137.1330      83.033377       0.61006
   2     792.3       54.9502        1.7223      130.0690      131.7913      76.841080       0.71019
   1     891.5       22.5998       41.1039       50.6026       91.7066      69.106771       0.65815
   0    1013.0       23.5847       38.6128       46.8006       85.4134      61.828684       0.50535



 Wavenumbers: 12850. - 16000. cm-1, ATM      1
 LEVEL PRESSURE   UPWARD FLUX   DIFDOWN FLUX  DIRDOWN FLUX  DOWNWARD FLUX   NET FLUX    HEATING RATE
          mb          W/m2          W/m2          W/m2        W/m2          W/m2       degree/day
  51    .06700       54.8914        0.0000       98.0872       98.0872      43.195803       0.00000
  50    .07753       54.8914        0.0001       98.0864       98.0864      43.195016       0.63033
  49    .09103       54.8914        0.0001       98.0853       98.0854      43.194029       0.61670
  48    0.1069       54.8914        0.0002       98.0841       98.0843      43.192897       0.60271
  47    0.1255       54.8914        0.0003       98.0826       98.0830      43.191598       0.58893
  46    0.1487       54.8914        0.0005       98.0809       98.0813      43.189961       0.59658
  45    0.1794       54.8914        0.0007       98.0784       98.0791      43.187739       0.61013
  44    0.2165       54.8914        0.0009       98.0756       98.0765      43.185130       0.59348
  43    0.2613       54.8914        0.0011       98.0723       98.0735      43.182070       0.57691
  42    0.3336       54.8915        0.0015       98.0670       98.0686      43.177089       0.58064
  41    0.4307       54.8916        0.0021       98.0602       98.0623      43.170672       0.55797
  40    0.5894       54.8920        0.0030       98.0496       98.0526      43.160614       0.53490
  39     1.339       54.8957        0.0073       98.0043       98.0116      43.115922       0.50314
  38     1.782       54.8994        0.0098       97.9793       97.9891      43.089669       0.49982
  37     2.292       54.9052        0.0127       97.9498       97.9625      43.057366       0.53502
  36     2.964       54.9148        0.0166       97.9088       97.9254      43.010564       0.58751
  35     3.853       54.9307        0.0216       97.8503       97.8720      42.941319       0.65714
  34     5.035       54.9547        0.0284       97.7680       97.7963      42.841661       0.71191
  33     6.613       54.9883        0.0373       97.6562       97.6935      42.705202       0.72951
  32     8.786       55.0320        0.0494       97.5107       97.5601      42.528062       0.68795
  31     11.80       55.0886        0.0666       97.3179       97.3845      42.295929       0.64990
  30     15.07       55.1424        0.0851       97.1283       97.2135      42.071091       0.58049
  29     18.79       55.1969        0.1060       96.9300       97.0360      41.839110       0.52597
  28     23.16       55.2534        0.1304       96.7166       96.8469      41.593487       0.47496
  27     28.12       55.3097        0.1582       96.4935       96.6517      41.341988       0.42753
  26     33.73       55.3606        0.1893       96.2731       96.4624      41.101789       0.36115
  25     40.54       55.4082        0.2269       96.0408       96.2677      40.859441       0.30066
  24     48.69       55.4522        0.2722       95.7946       96.0668      40.614630       0.25334
  23     57.69       55.4873        0.3220       95.5573       95.8792      40.391931       0.20875
  22     68.43       55.5150        0.3812       95.3106       95.6919      40.176817       0.16911
  21     81.20       55.5287        0.4519       95.0643       95.5163      39.987603       0.12503
  20     96.49       55.5270        0.5363       94.8153       95.3515      39.824517       0.09001
  19     114.6       55.5246        0.6371       94.5411       95.1782      39.653581       0.07981
  18     136.5       55.5139        0.7567       94.2320       94.9887      39.474833       0.06873
  17     162.9       55.4939        0.8990       93.8753       94.7743      39.280394       0.06215
  16     196.4       55.4526        1.0834       93.4347       94.5181      39.065428       0.05411
  15     218.7       55.4200        1.2044       93.1513       94.3557      38.935667       0.04927
  14     243.0       55.3823        1.3359       92.8439       94.1799      38.797537       0.04791
  13     269.0       55.3394        1.4783       92.5111       93.9895      38.650100       0.04783
  12     297.5       55.2915        1.6321       92.1495       93.7816      38.490166       0.04743
  11     328.5       55.2398        1.7982       91.7554       93.5536      38.313791       0.04796
  10     361.9       55.1851        1.9769       91.3262       93.3031      38.118048       0.04953
   9     398.1       55.1280        2.1690       90.8575       93.0265      37.898518       0.05115
   8     437.6       55.0707        2.3750       90.3418       92.7168      37.646086       0.05397
   7     480.5       55.0151        2.5954       89.7728       92.3682      37.353103       0.05754
   6     533.0       54.9580        2.8660       89.0428       91.9088      36.950845       0.06471
   5     589.8       54.9177        3.1563       88.2038       91.3601      36.442406       0.07547
   4     651.6       54.9181        3.4657       87.1979       90.6636      35.745555       0.09530
   3     718.7       54.9766        3.7928       86.0161       89.8089      34.832320       0.11477
   2     792.3       55.1471        4.1338       84.5970       88.7309      33.583742       0.14320
   1     891.5       37.8874       35.5084       34.1613       69.6697      31.782267       0.15330
   0    1013.0       38.4155       34.9753       32.9931       67.9684      29.552834       0.15480



 Wavenumbers: 16000. - 22650. cm-1, ATM      1
 LEVEL PRESSURE   UPWARD FLUX   DIFDOWN FLUX  DIRDOWN FLUX  DOWNWARD FLUX   NET FLUX    HEATING RATE
          mb          W/m2          W/m2          W/m2        W/m2          W/m2       degree/day
  51    .06700      118.5236        0.0000      156.3892      156.3892      37.865620       0.00000
  50    .07753      118.5236        0.0004      156.3887      156.3890      37.865482       0.11003
  49    .09103      118.5235        0.0008      156.3879      156.3888      37.865283       0.12479
  48    0.1069      118.5234        0.0014      156.3871      156.3885      37.865015       0.14231
  47    0.1255      118.5234        0.0020      156.3861      156.3880      37.864657       0.16221
  46    0.1487      118.5234        0.0028      156.3847      156.3875      37.864130       0.19222
  45    0.1794      118.5234        0.0038      156.3828      156.3867      37.863306       0.22632
  44    0.2165      118.5234        0.0051      156.3805      156.3856      37.862188       0.25436
  43    0.2613      118.5235        0.0066      156.3776      156.3842      37.860670       0.28596
  42    0.3336      118.5239        0.0091      156.3726      156.3817      37.857786       0.33628
  41    0.4307      118.5246        0.0123      156.3657      156.3781      37.853438       0.37802
  40    0.5894      118.5262        0.0177      156.3537      156.3714      37.845147       0.44094
  39     1.339      118.5426        0.0430      156.2834      156.3265      37.783889       0.68966
  38     1.782      118.5586        0.0579      156.2324      156.2903      37.731706       0.99348
  37     2.292      118.5830        0.0751      156.1641      156.2392      37.656173       1.25101
  36     2.964      118.6244        0.0977      156.0605      156.1582      37.533817       1.53594
  35     3.853      118.6919        0.1275      155.9041      156.0316      37.339684       1.84236
  34     5.035      118.7944        0.1671      155.6774      155.8445      37.050091       2.06873
  33     6.613      118.9378        0.2199      155.3656      155.5855      36.647715       2.15110
  32     8.786      119.1244        0.2910      154.9577      155.2486      36.124264       2.03290
  31     11.80      119.3662        0.3925      154.4153      154.8077      35.441519       1.91147
  30     15.07      119.5966        0.5012      153.8804      154.3816      34.784982       1.69505
  29     18.79      119.8307        0.6239      153.3191      153.9430      34.112344       1.52508
  28     23.16      120.0736        0.7669      152.7126      153.4795      33.405853       1.36612
  27     28.12      120.3160        0.9302      152.0755      153.0057      32.689652       1.21749
  26     33.73      120.5364        1.1127      151.4409      152.5536      32.017205       1.01104
  25     40.54      120.7437        1.3329      150.7637      152.0966      31.352866       0.82419
  24     48.69      120.9364        1.5980      150.0338      151.6319      30.695449       0.68032
  23     57.69      121.0927        1.8888      149.3151      151.2039      30.111195       0.54765
  22     68.43      121.2192        2.2346      148.5476      150.7822      29.562972       0.43098
  21     81.20      121.2882        2.6462      147.7517      150.3979      29.109661       0.29954
  20     96.49      121.2945        3.1360      146.9127      150.0486      28.754076       0.19626
  19     114.6      121.2631        3.7155      145.9763      149.6918      28.428754       0.15190
  18     136.5      121.1994        4.3995      144.9088      149.3083      28.108871       0.12300
  17     162.9      121.0997        5.2097      143.6785      148.8883      27.788612       0.10237
  16     196.4      120.9186        6.2543      142.1651      148.4194      27.500751       0.07246
  15     218.7      120.7808        6.9365      141.2033      148.1398      27.359013       0.05381
  14     243.0      120.6223        7.6744      140.1753      147.8497      27.227418       0.04564
  13     269.0      120.4415        8.4700      139.0797      147.5496      27.108180       0.03868
  12     297.5      120.2374        9.3250      137.9141      147.2391      27.001624       0.03160
  11     328.5      120.0130       10.2433      136.6676      146.9109      26.897942       0.02819
  10     361.9      119.7676       11.2257      135.3392      146.5649      26.797251       0.02548
   9     398.1      119.5004       12.2756      133.9235      146.1991      26.698711       0.02296
   8     437.6      119.2117       13.3948      132.4163      145.8111      26.599404       0.02123
   7     480.5      118.9007       14.5850      130.8147      145.3997      26.499034       0.01971
   6     533.0      118.5175       16.0369      128.8599      144.8968      26.379301       0.01926
   5     589.8      118.1073       17.5860      126.7679      144.3539      26.246596       0.01970
   4     651.6      117.6746       19.2331      124.5274      143.7606      26.085922       0.02197
   3     718.7      117.2239       20.9794      122.1285      143.1078      25.883908       0.02539
   2     792.3      116.7686       22.8219      119.5548      142.3767      25.608088       0.03163
   1     891.5       97.7289       74.7974       48.0855      122.8829      25.154034       0.03864
   0    1013.0       97.4586       75.6278       46.3386      121.9664      24.507760       0.04487



 Wavenumbers: 22650. - 29000. cm-1, ATM      1
 LEVEL PRESSURE   UPWARD FLUX   DIFDOWN FLUX  DIRDOWN FLUX  DOWNWARD FLUX   NET FLUX    HEATING RATE
          mb          W/m2          W/m2          W/m2        W/m2          W/m2       degree/day
  51    .06700       50.1719        0.0000       59.0156       59.0156       8.843735       0.00000
  50    .07753       50.1718        0.0004       59.0151       59.0155       8.843735       0.00000
  49    .09103       50.1716        0.0010       59.0144       59.0153       8.843735      -0.00000
  48    0.1069       50.1714        0.0016       59.0136       59.0152       8.843735       0.00000
  47    0.1255       50.1713        0.0023       59.0127       59.0150       8.843735       0.00000
  46    0.1487       50.1710        0.0032       59.0115       59.0147       8.843735       0.00000
  45    0.1794       50.1707        0.0045       59.0099       59.0144       8.843735      -0.00000
  44    0.2165       50.1703        0.0060       59.0080       59.0140       8.843735       0.00000
  43    0.2613       50.1698        0.0077       59.0058       59.0135       8.843735       0.00000
  42    0.3336       50.1690        0.0106       59.0022       59.0128       8.843735       0.00000
  41    0.4307       50.1680        0.0145       58.9973       59.0118       8.843735      -0.00000
  40    0.5894       50.1663        0.0207       58.9894       59.0101       8.843735       0.00000
  39     1.339       50.1584        0.0504       58.9518       59.0022       8.843735      -0.00000
  38     1.782       50.1538        0.0678       58.9297       58.9975       8.843735       0.00000
  37     2.292       50.1484        0.0880       58.9042       58.9921       8.843735       0.00000
  36     2.964       50.1413        0.1144       58.8706       58.9851       8.843735      -0.00000
  35     3.853       50.1320        0.1494       58.8264       58.9758       8.843735       0.00000
  34     5.035       50.1196        0.1958       58.7676       58.9634       8.843735       0.00000
  33     6.613       50.1031        0.2577       58.6891       58.9468       8.843735      -0.00000
  32     8.786       50.0808        0.3411       58.5834       58.9245       8.843735       0.00000
  31     11.80       50.0489        0.4602       58.4324       58.8927       8.843735       0.00000
  30     15.07       50.0148        0.5879       58.2706       58.8585       8.843735      -0.00000
  29     18.79       49.9762        0.7317       58.0882       58.8200       8.843735       0.00000
  28     23.16       49.9313        0.8993       57.8757       58.7750       8.843735      -0.00000
  27     28.12       49.8799        1.0903       57.6333       58.7237       8.843735       0.00000
  26     33.73       49.8227        1.3033       57.3631       58.6664       8.843735      -0.00000
  25     40.54       49.7536        1.5595       57.0379       58.5974       8.843735       0.00000
  24     48.69       49.6707        1.8665       56.6479       58.5144       8.843735       0.00000
  23     57.69       49.5800        2.2016       56.2221       58.4237       8.843735      -0.00000
  22     68.43       49.4724        2.5976       55.7186       58.3162       8.843735       0.00000
  21     81.20       49.3451        3.0649       55.1239       58.1888       8.843735       0.00000
  20     96.49       49.1945        3.6154       54.4228       58.0382       8.843735      -0.00000
  19     114.6       49.0172        4.2599       53.6010       57.8609       8.843735       0.00000
  18     136.5       48.8093        5.0113       52.6418       57.6530       8.843735      -0.00000
  17     162.9       48.5649        5.8883       51.5203       57.4086       8.843735       0.00000
  16     196.4       48.2529        6.9972       50.0994       57.0966       8.843735      -0.00000
  15     218.7       48.0510        7.7085       49.1863       56.8947       8.843735       0.00000
  14     243.0       47.8342        8.4666       48.2113       56.6779       8.843735      -0.00000
  13     269.0       47.6022        9.2710       47.1749       56.4459       8.843735      -0.00000
  12     297.5       47.3549       10.1204       46.0783       56.1987       8.843735       0.00000
  11     328.5       47.0917       11.0159       44.9195       55.9354       8.843735       0.00000
  10     361.9       46.8126       11.9545       43.7018       55.6563       8.843735       0.00000
   9     398.1       46.5171       12.9358       42.4250       55.3609       8.843735      -0.00000
   8     437.6       46.2053       13.9574       41.0916       55.0491       8.843735      -0.00000
   7     480.5       45.8772       15.0164       39.7045       54.7209       8.843735       0.00000
   6     533.0       45.4814       16.2709       38.0543       54.3251       8.843735       0.00000
   5     589.8       45.0643       17.5650       36.3431       53.9080       8.843735       0.00000
   4     651.6       44.6265       18.8906       34.5795       53.4702       8.843735      -0.00000
   3     718.7       44.1680       20.2415       32.7702       53.0117       8.843735       0.00000
   2     792.3       43.6897       21.6079       30.9256       52.5334       8.843735       0.00000
   1     891.5       37.7403       34.7435       11.8405       46.5840       8.843662       0.00001
   0    1013.0       37.2593       35.3444       10.7585       46.1030       8.843662       0.00000



 Wavenumbers: 29000. - 38000. cm-1, ATM      1
 LEVEL PRESSURE   UPWARD FLUX   DIFDOWN FLUX  DIRDOWN FLUX  DOWNWARD FLUX   NET FLUX    HEATING RATE
          mb          W/m2          W/m2          W/m2        W/m2          W/m2       degree/day
  51    .06700        7.5746        0.0000       20.8114       20.8114      13.236802       0.00000
  50    .07753        7.5744        0.0003       20.8070       20.8074      13.232996       3.05030
  49    .09103        7.5741        0.0007       20.8009       20.8016      13.227462       3.45941
  48    0.1069        7.5739        0.0012       20.7928       20.7939      13.220055       3.94263
  47    0.1255        7.5736        0.0017       20.7820       20.7837      13.210154       4.48842
  46    0.1487        7.5732        0.0023       20.7665       20.7688      13.195598       5.30612
  45    0.1794        7.5727        0.0032       20.7424       20.7456      13.172943       6.21927
  44    0.2165        7.5721        0.0042       20.7103       20.7146      13.142434       6.94023
  43    0.2613        7.5715        0.0055       20.6675       20.6730      13.101458       7.72370
  42    0.3336        7.5705        0.0075       20.5880       20.5955      13.024935       8.92190
  41    0.4307        7.5693        0.0101       20.4722       20.4824      12.913040       9.72903
  40    0.5894        7.5675        0.0143       20.2637       20.2780      12.710468      10.77250
  39     1.339        7.5628        0.0322       19.0984       19.1306      11.567842      12.86389
  38     1.782        7.5622        0.0415       18.4394       18.4809      10.918638      12.35981
  37     2.292        7.5635        0.0514       17.7714       17.8228      10.259314      10.92012
  36     2.964        7.5680        0.0637       17.0421       17.1058       9.537816       9.05699
  35     3.853        7.5776        0.0790       16.2678       16.3468       8.769181       7.29448
  34     5.035        7.5942        0.0983       15.4803       15.5786       7.984445       5.60583
  33     6.613        7.6187        0.1230       14.7157       14.8387       7.220058       4.08641
  32     8.786        7.6510        0.1553       13.9936       14.1489       6.497879       2.80468
  31     11.80        7.6930        0.2003       13.2835       13.4838       5.790823       1.97953
  30     15.07        7.7331        0.2468       12.7394       12.9862       5.253057       1.38841
  29     18.79        7.7742        0.2983       12.2666       12.5649       4.790707       1.04829
  28     23.16        7.8174        0.3568       11.8300       12.1868       4.369364       0.81474
  27     28.12        7.8611        0.4222       11.4279       11.8500       3.988900       0.64676
  26     33.73        7.9003        0.4941       11.0695       11.5636       3.663309       0.48954
  25     40.54        7.9356        0.5800       10.7209       11.3009       3.365266       0.36976
  24     48.69        7.9668        0.6817       10.3742       11.0559       3.089096       0.28579
  23     57.69        7.9897        0.7917       10.0549       10.8466       2.856909       0.21764
  22     68.43        8.0040        0.9204        9.7327       10.6532       2.649190       0.16330
  21     81.20        8.0016        1.0723        9.4134       10.4857       2.484117       0.10908
  20     96.49        7.9803        1.2504        9.0887       10.3391       2.358872       0.06913
  19     114.6        7.9467        1.4557        8.7388       10.1945       2.247760       0.05188
  18     136.5        7.9031        1.6898        8.3549       10.0446       2.141543       0.04084
  17     162.9        7.8487        1.9555        7.9311        9.8867       2.037981       0.03310
  16     196.4        7.7693        2.2832        7.4333        9.7165       1.947279       0.02283
  15     218.7        7.7148        2.4885        7.1295        9.6180       1.903238       0.01672
  14     243.0        7.6556        2.7022        6.8161        9.5183       1.862716       0.01405
  13     269.0        7.5913        2.9235        6.4943        9.4178       1.826470       0.01176
  12     297.5        7.5221        3.1510        6.1657        9.3168       1.794648       0.00944
  11     328.5        7.4490        3.3839        5.8295        9.2133       1.764315       0.00825
  10     361.9        7.3723        3.6193        5.4886        9.1079       1.735604       0.00726
   9     398.1        7.2921        3.8566        5.1440        9.0006       1.708537       0.00631
   8     437.6        7.2086        4.0942        4.7969        8.8912       1.682589       0.00555
   7     480.5        7.1221        4.3298        4.4504        8.7802       1.658107       0.00481
   6     533.0        7.0196        4.5949        4.0563        8.6512       1.631607       0.00426
   5     589.8        6.9140        4.8520        3.6682        8.5202       1.606160       0.00378
   4     651.6        6.8061        5.0970        3.2905        8.3876       1.581486       0.00337
   3     718.7        6.6958        5.3281        2.9252        8.2533       1.557557       0.00301
   2     792.3        6.5837        5.5416        2.5764        8.1181       1.534384       0.00266
   1     891.5        5.7816        6.3918        0.8975        7.2892       1.507628       0.00228
   0    1013.0        5.6584        6.4122        0.7262        7.1384       1.479956       0.00192



 Wavenumbers: 38000. - 50000. cm-1, ATM      1
 LEVEL PRESSURE   UPWARD FLUX   DIFDOWN FLUX  DIRDOWN FLUX  DOWNWARD FLUX   NET FLUX    HEATING RATE
          mb          W/m2          W/m2          W/m2        W/m2          W/m2       degree/day
  51    .06700        0.0061        0.0000        1.2836        1.2836       1.277518       0.00000
  50    .07753        0.0061        0.0001        1.2812        1.2812       1.275183       1.87150
  49    .09103        0.0060        0.0002        1.2777        1.2778       1.271851       2.08247
  48    0.1069        0.0059        0.0002        1.2731        1.2734       1.267473       2.33059
  47    0.1255        0.0058        0.0004        1.2672        1.2675       1.261717       2.60908
  46    0.1487        0.0057        0.0005        1.2586        1.2591       1.253391       3.03499
  45    0.1794        0.0055        0.0007        1.2455        1.2462       1.240623       3.50520
  44    0.2165        0.0054        0.0009        1.2282        1.2291       1.223697       3.85037
  43    0.2613        0.0052        0.0011        1.2054        1.2065       1.201348       4.21261
  42    0.3336        0.0049        0.0015        1.1639        1.1654       1.160524       4.75970
  41    0.4307        0.0045        0.0020        1.1051        1.1070       1.102565       5.03943
  40    0.5894        0.0039        0.0026        1.0039        1.0064       1.002524       5.32007
  39     1.339        0.0022        0.0035        0.5438        0.5473       0.545104       5.14971
  38     1.782        0.0016        0.0032        0.3635        0.3666       0.365006       3.42879
  37     2.292        0.0012        0.0027        0.2356        0.2383       0.237058       2.11916
  36     2.964        0.0009        0.0022        0.1455        0.1477       0.146786       1.13318
  35     3.853        0.0006        0.0017        0.0858        0.0875       0.086906       0.56828
  34     5.035        0.0004        0.0013        0.0488        0.0501       0.049701       0.26578
  33     6.613        0.0003        0.0010        0.0273        0.0282       0.027974       0.11615
  32     8.786        0.0002        0.0007        0.0144        0.0151       0.014928       0.05067
  31     11.80        0.0001        0.0004        0.0065        0.0070       0.006903       0.02247
  30     15.07        0.0000        0.0003        0.0031        0.0034       0.003329       0.00923
  29     18.79        0.0000        0.0002        0.0014        0.0016       0.001583       0.00396
  28     23.16        0.0000        0.0001        0.0006        0.0007       0.000720       0.00167
  27     28.12        0.0000        0.0001        0.0003        0.0003       0.000317       0.00069
  26     33.73        0.0000        0.0000        0.0001        0.0001       0.000140       0.00027
  25     40.54        0.0000        0.0000        0.0000        0.0001       0.000057       0.00010
  24     48.69        0.0000        0.0000        0.0000        0.0000       0.000021       0.00004
  23     57.69        0.0000        0.0000        0.0000        0.0000       0.000008       0.00001
  22     68.43        0.0000        0.0000        0.0000        0.0000       0.000003       0.00000
  21     81.20        0.0000        0.0000        0.0000        0.0000       0.000001       0.00000
  20     96.49        0.0000        0.0000        0.0000        0.0000       0.000000       0.00000
  19     114.6        0.0000        0.0000        0.0000        0.0000       0.000000       0.00000
  18     136.5        0.0000        0.0000        0.0000        0.0000       0.000000       0.00000
  17     162.9        0.0000        0.0000        0.0000        0.0000       0.000000       0.00000
  16     196.4        0.0000        0.0000        0.0000        0.0000       0.000000       0.00000
  15     218.7        0.0000        0.0000        0.0000        0.0000       0.000000       0.00000
  14     243.0        0.0000        0.0000        0.0000        0.0000       0.000000       0.00000
  13     269.0        0.0000        0.0000        0.0000        0.0000       0.000000       0.00000
  12     297.5        0.0000        0.0000        0.0000        0.0000       0.000000       0.00000
  11     328.5        0.0000        0.0000        0.0000        0.0000       0.000000       0.00000
  10     361.9        0.0000        0.0000        0.0000        0.0000       0.000000       0.00000
   9     398.1        0.0000        0.0000        0.0000        0.0000       0.000000       0.00000
   8     437.6        0.0000        0.0000        0.0000        0.0000       0.000000       0.00000
   7     480.5        0.0000        0.0000        0.0000        0.0000       0.000000       0.00000
   6     533.0        0.0000        0.0000        0.0000        0.0000       0.000000       0.00000
   5     589.8        0.0000        0.0000        0.0000        0.0000       0.000000       0.00000
   4     651.6        0.0000        0.0000        0.0000        0.0000       0.000000       0.00000
   3     718.7        0.0000        0.0000        0.0000        0.0000       0.000000       0.00000
   2     792.3        0.0000        0.0000        0.0000        0.0000       0.000000       0.00000
   1     891.5        0.0000        0.0000        0.0000        0.0000       0.000000       0.00000
   0    1013.0        0.0000        0.0000        0.0000        0.0000       0.000000       0.00000



 Wavenumbers:   820. -  2600. cm-1, ATM      1
 LEVEL PRESSURE   UPWARD FLUX   DIFDOWN FLUX  DIRDOWN FLUX  DOWNWARD FLUX   NET FLUX    HEATING RATE
          mb          W/m2          W/m2          W/m2        W/m2          W/m2       degree/day
  51    .06700        0.6621        0.0000        6.0047        6.0047       5.342570       0.00000
  50    .07753        0.6621        0.0000        6.0008        6.0008       5.338717       3.08821
  49    .09103        0.6621        0.0000        5.9999        5.9999       5.337831       0.55358
  48    0.1069        0.6621        0.0000        5.9989        5.9989       5.336842       0.52652
  47    0.1255        0.6621        0.0000        5.9978        5.9978       5.335725       0.50650
  46    0.1487        0.6621        0.0000        5.9964        5.9964       5.334368       0.49457
  45    0.1794        0.6621        0.0000        5.9947        5.9947       5.332649       0.47200
  44    0.2165        0.6621        0.0000        5.9929        5.9929       5.330806       0.41910
  43    0.2613        0.6621        0.0000        5.9909        5.9909       5.328847       0.36933
  42    0.3336        0.6621        0.0000        5.9880        5.9880       5.325969       0.33556
  41    0.4307        0.6621        0.0000        5.9846        5.9846       5.322499       0.30165
  40    0.5894        0.6621        0.0000        5.9791        5.9791       5.316994       0.29276
  39     1.339        0.6621        0.0000        5.9536        5.9536       5.291507       0.28694
  38     1.782        0.6621        0.0000        5.9395        5.9395       5.277368       0.26917
  37     2.292        0.6621        0.0000        5.9237        5.9237       5.261617       0.26088
  36     2.964        0.6621        0.0000        5.9039        5.9039       5.241843       0.24823
  35     3.853        0.6621        0.0000        5.8793        5.8793       5.217186       0.23399
  34     5.035        0.6621        0.0000        5.8487        5.8487       5.186623       0.21833
  33     6.613        0.6621        0.0000        5.8108        5.8108       5.148657       0.20296
  32     8.786        0.6621        0.0000        5.7631        5.7631       5.101032       0.18496
  31     11.80        0.6621        0.0000        5.7039        5.7039       5.041773       0.16591
  30     15.07        0.6621        0.0000        5.6539        5.6539       4.991731       0.12920
  29     18.79        0.6621        0.0000        5.6127        5.6127       4.950591       0.09328
  28     23.16        0.6622        0.0000        5.5794        5.5794       4.917209       0.06455
  27     28.12        0.6622        0.0000        5.5518        5.5518       4.889634       0.04687
  26     33.73        0.6622        0.0000        5.5268        5.5268       4.864571       0.03768
  25     40.54        0.6622        0.0000        5.4993        5.4993       4.837113       0.03406
  24     48.69        0.6622        0.0000        5.4678        5.4678       4.805553       0.03266
  23     57.69        0.6623        0.0000        5.4340        5.4340       4.771742       0.03169
  22     68.43        0.6623        0.0000        5.3947        5.3948       4.732440       0.03090
  21     81.20        0.6624        0.0000        5.3497        5.3497       4.687370       0.02978
  20     96.49        0.6624        0.0000        5.2982        5.2982       4.635811       0.02846
  19     114.6        0.6625        0.0000        5.2389        5.2389       4.576431       0.02773
  18     136.5        0.6626        0.0000        5.1716        5.1717       4.509101       0.02589
  17     162.9        0.6627        0.0000        5.0890        5.0890       4.426364       0.02645
  16     196.4        0.6629        0.0000        4.9668        4.9668       4.303941       0.03082
  15     218.7        0.6631        0.0000        4.8585        4.8585       4.195377       0.04122
  14     243.0        0.6634        0.0000        4.7078        4.7079       4.044433       0.05235
  13     269.0        0.6639        0.0000        4.5343        4.5343       3.870362       0.05647
  12     297.5        0.6647        0.0000        4.3419        4.3420       3.677256       0.05727
  11     328.5        0.6658        0.0000        4.1281        4.1281       3.462373       0.05843
  10     361.9        0.6672        0.0000        3.8786        3.8787       3.211493       0.06348
   9     398.1        0.6690        0.0000        3.6159        3.6159       2.946932       0.06164
   8     437.6        0.6714        0.0000        3.3759        3.3759       2.704491       0.05184
   7     480.5        0.6743        0.0000        3.1957        3.1958       2.521466       0.03595
   6     533.0        0.6788        0.0000        3.0467        3.0467       2.367940       0.02470
   5     589.8        0.6853        0.0000        2.9023        2.9023       2.216986       0.02241
   4     651.6        0.6968        0.0000        2.7183        2.7184       2.021572       0.02672
   3     718.7        0.7165        0.0000        2.5058        2.5059       1.789326       0.02919
   2     792.3        0.7539        0.0000        2.2756        2.2757       1.521806       0.03068
   1     891.5        0.2031        0.5980        0.8129        1.4108       1.207782       0.02672
   0    1013.0        0.2457        0.4828        0.6408        1.1236       0.877946       0.02290

  Modules and versions used in this calculation:

       rrtmg_sw.1col.f90:  $Revision$                    rrtmg_sw_init.f90:  $Revision$        
     rrtmgsw_cldprop.f90:  $Revision$                  rrtmgsw_cldprmc.f90:  NOT USED          
     rrtmg_sw_reftra.f90:  $Revision$                  rrtmg_sw_spcvrt.f90:  NOT USED          
     rrtmg_sw_spcvmc.f90:  NOT USED                    rrtmgsw_setcoef.f90:  NOT USED          
     rrtmg_sw_taumol.f90:  $Revision$                  rrtmg_sw_vrtqdr.f90:  NOT USED          
                rrtatm.f:  NOT USED                             util_xxx.f:  NOT USED          
                 extra.f:  NOT USED                       rrtmg_sw_k_g.f90:  $Revision$        

