

 Wavenumbers:   820. - 50000. cm-1, ATM      1
 LEVEL PRESSURE   UPWARD FLUX   DIFDOWN FLUX  DIRDOWN FLUX  DOWNWARD FLUX   NET FLUX    HEATING RATE
          mb          W/m2          W/m2          W/m2        W/m2          W/m2       degree/day
  51    .06700      374.6306        0.0000      617.8126      617.8126     243.181944       0.00000
  50    .07753      374.6302        0.0013      617.7947      617.7960     243.165815      12.92759
  49    .09103      374.6297        0.0029      617.7778      617.7807     243.151021       9.24631
  48    0.1069      374.6291        0.0048      617.7581      617.7629     243.133782       9.17670
  47    0.1255      374.6285        0.0069      617.7340      617.7409     243.112467       9.66332
  46    0.1487      374.6277        0.0097      617.7009      617.7105     243.082824      10.80486
  45    0.1794      374.6268        0.0134      617.6521      617.6654     243.038662      12.12368
  44    0.2165      374.6258        0.0177      617.5895      617.6072     242.981434      13.01843
  43    0.2613      374.6247        0.0229      617.5089      617.5318     242.907048      14.02147
  42    0.3336      374.6233        0.0314      617.3641      617.3955     242.772204      15.72141
  41    0.4307      374.6217        0.0425      617.1591      617.2016     242.579946      16.71639
  40    0.5894      374.6201        0.0605      616.8005      616.8610     242.240955      18.02713
  39     1.339      374.6285        0.1418      614.9443      615.0861     240.457548      20.07792
  38     1.782      374.6447        0.1875      613.9670      614.1545     239.509728      18.04497
  37     2.292      374.6737        0.2393      613.0059      613.2452     238.571534      15.53894
  36     2.964      374.7270        0.3068      611.9577      612.2644     237.537442      12.98097
  35     3.853      374.8187        0.3952      610.8024      611.1976     236.378899      10.99479
  34     5.035      374.9614        0.5117      609.5327      610.0445     235.083091       9.25671
  33     6.613      375.1632        0.6664      608.1464      608.8129     233.649665       7.66310
  32     8.786      375.4257        0.8740      606.6250      607.4990     232.073254       6.12221
  31     11.80      375.7635        1.1693      604.8486      606.0179     230.254437       5.09211
  30     15.07      376.0821        1.4843      603.2440      604.7283     228.646127       4.15234
  29     18.79      376.4028        1.8387      601.6511      603.4898     227.087022       3.53497
  28     23.16      376.7320        2.2502      599.9927      602.2429     225.510962       3.04759
  27     28.12      377.0554        2.7185      598.2881      601.0066     223.951216       2.65146
  26     33.73      377.3396        3.2404      596.5951      599.8355     222.495933       2.18806
  25     40.54      377.5924        3.8686      594.7727      598.6413     221.048839       1.79528
  24     48.69      377.8096        4.6220      592.7865      597.4084     219.598889       1.50047
  23     57.69      377.9631        5.4451      590.7959      596.2410     218.277979       1.23815
  22     68.43      378.0537        6.4199      588.6191      595.0390     216.985335       1.01619
  21     81.20      378.0334        7.5750      586.2690      593.8440     215.810565       0.77627
  20     96.49      377.8905        8.9418      583.6961      592.6379     214.747405       0.58679
  19     114.6      377.6718       10.5485      580.7708      591.3193     213.647562       0.51355
  18     136.5      377.3744       12.4282      577.4359      589.8641     212.489748       0.44521
  17     162.9      376.9881       14.6318      573.5624      588.1942     211.206167       0.41028
  16     196.4      376.4126       17.4384      568.5907      586.0291     209.616474       0.40014
  15     218.7      376.0110       19.2508      565.0572      584.3081     208.297013       0.50095
  14     243.0      375.5686       21.1929      560.7495      581.9424     206.373778       0.66704
  13     269.0      375.0862       23.2653      555.3947      578.6600     203.573833       0.90829
  12     297.5      374.5683       25.4683      548.9964      574.4647     199.896343       1.09070
  11     328.5      374.0227       27.8073      542.0895      569.8968     195.874139       1.09363
  10     361.9      373.4560       30.2780      534.6242      564.9022     191.446163       1.12032
   9     398.1      372.8772       32.8839      526.4204      559.3044     186.427107       1.16933
   8     437.6      372.3054       35.6230      517.3907      553.0137     180.708301       1.22272
   7     480.5      371.7608       38.4924      507.7216      546.2140     174.453138       1.22849
   6     533.0      371.2182       41.9342      495.9006      537.8348     166.616627       1.26065
   5     589.8      370.8657       45.5358      483.0788      528.6146     157.748858       1.31627
   4     651.6      370.9694       49.2828      468.6907      517.9734     147.003980       1.46939
   3     718.7      371.9049       53.1655      453.2257      506.3913     134.486363       1.57312
   2     792.3      374.6690       57.1607      436.4928      493.6535     118.984588       1.77788
   1     891.5      144.2493      244.7790        5.0542      249.8332     105.583907       1.14033
   0    1013.0      144.9247      238.4118        4.7426      243.1544      98.229742       0.51064



 Wavenumbers:  2600. -  3250. cm-1, ATM      1
 LEVEL PRESSURE   UPWARD FLUX   DIFDOWN FLUX  DIRDOWN FLUX  DOWNWARD FLUX   NET FLUX    HEATING RATE
          mb          W/m2          W/m2          W/m2        W/m2          W/m2       degree/day
  51    .06700        1.5876        0.0000        5.4450        5.4450       3.857480       0.00000
  50    .07753        1.5876        0.0000        5.4450        5.4450       3.857472       0.00640
  49    .09103        1.5876        0.0000        5.4450        5.4450       3.857462       0.00627
  48    0.1069        1.5876        0.0000        5.4450        5.4450       3.857451       0.00613
  47    0.1255        1.5876        0.0000        5.4450        5.4450       3.857438       0.00599
  46    0.1487        1.5876        0.0000        5.4450        5.4450       3.857421       0.00608
  45    0.1794        1.5876        0.0000        5.4450        5.4450       3.857398       0.00625
  44    0.2165        1.5876        0.0000        5.4449        5.4449       3.857371       0.00612
  43    0.2613        1.5876        0.0000        5.4449        5.4449       3.857339       0.00600
  42    0.3336        1.5876        0.0000        5.4448        5.4448       3.857286       0.00617
  41    0.4307        1.5876        0.0000        5.4448        5.4448       3.857215       0.00620
  40    0.5894        1.5876        0.0000        5.4446        5.4446       3.857095       0.00637
  39     1.339        1.5876        0.0000        5.4439        5.4439       3.856388       0.00797
  38     1.782        1.5876        0.0000        5.4434        5.4434       3.855845       0.01034
  37     2.292        1.5876        0.0000        5.4427        5.4427       3.855129       0.01186
  36     2.964        1.5876        0.0000        5.4416        5.4416       3.854090       0.01304
  35     3.853        1.5876        0.0000        5.4402        5.4402       3.852613       0.01402
  34     5.035        1.5876        0.0000        5.4381        5.4381       3.850557       0.01469
  33     6.613        1.5876        0.0000        5.4353        5.4353       3.847776       0.01487
  32     8.786        1.5876        0.0000        5.4317        5.4317       3.844143       0.01411
  31     11.80        1.5876        0.0000        5.4269        5.4269       3.839361       0.01339
  30     15.07        1.5876        0.0000        5.4224        5.4224       3.834832       0.01169
  29     18.79        1.5876        0.0000        5.4180        5.4180       3.830417       0.01001
  28     23.16        1.5876        0.0000        5.4135        5.4135       3.825927       0.00868
  27     28.12        1.5876        0.0000        5.4088        5.4088       3.821273       0.00791
  26     33.73        1.5876        0.0000        5.4036        5.4036       3.816023       0.00789
  25     40.54        1.5876        0.0000        5.3966        5.3967       3.809066       0.00863
  24     48.69        1.5876        0.0000        5.3872        5.3872       3.799567       0.00983
  23     57.69        1.5877        0.0000        5.3754        5.3754       3.787752       0.01108
  22     68.43        1.5877        0.0000        5.3599        5.3599       3.772219       0.01221
  21     81.20        1.5878        0.0000        5.3401        5.3401       3.752321       0.01315
  20     96.49        1.5879        0.0000        5.3155        5.3155       3.727663       0.01361
  19     114.6        1.5880        0.0001        5.2853        5.2854       3.697340       0.01416
  18     136.5        1.5882        0.0001        5.2504        5.2505       3.662255       0.01349
  17     162.9        1.5885        0.0001        5.2111        5.2112       3.622655       0.01266
  16     196.4        1.5890        0.0001        5.1640        5.1641       3.575136       0.01196
  15     218.7        1.5895        0.0001        5.1331        5.1332       3.543740       0.01192
  14     243.0        1.5903        0.0001        5.0962        5.0963       3.506060       0.01307
  13     269.0        1.5915        0.0001        5.0511        5.0512       3.459714       0.01503
  12     297.5        1.5934        0.0001        4.9956        4.9957       3.402369       0.01701
  11     328.5        1.5960        0.0001        4.9304        4.9305       3.334532       0.01844
  10     361.9        1.5996        0.0001        4.8511        4.8512       3.251667       0.02097
   9     398.1        1.6046        0.0002        4.7507        4.7508       3.146278       0.02455
   8     437.6        1.6115        0.0002        4.6220        4.6222       3.010700       0.02899
   7     480.5        1.6212        0.0002        4.4625        4.4627       2.841501       0.03323
   6     533.0        1.6369        0.0002        4.2460        4.2462       2.609291       0.03736
   5     589.8        1.6611        0.0002        3.9954        3.9956       2.334477       0.04079
   4     651.6        1.7013        0.0002        3.7089        3.7091       2.007765       0.04468
   3     718.7        1.7682        0.0002        3.4018        3.4020       1.633785       0.04700
   2     792.3        1.8914        0.0002        3.0564        3.0566       1.165281       0.05373
   1     891.5        0.1719        0.9141        0.0315        0.9456       0.773712       0.03332
   0    1013.0        0.1975        0.7620        0.0255        0.7875       0.589929       0.01276



 Wavenumbers:  3250. -  4000. cm-1, ATM      1
 LEVEL PRESSURE   UPWARD FLUX   DIFDOWN FLUX  DIRDOWN FLUX  DOWNWARD FLUX   NET FLUX    HEATING RATE
          mb          W/m2          W/m2          W/m2        W/m2          W/m2       degree/day
  51    .06700        0.0475        0.0000        9.1795        9.1795       9.131992       0.00000
  50    .07753        0.0475        0.0000        9.1747        9.1747       9.127149       3.88148
  49    .09103        0.0475        0.0000        9.1713        9.1713       9.123762       2.11747
  48    0.1069        0.0475        0.0000        9.1688        9.1688       9.121237       1.34402
  47    0.1255        0.0475        0.0000        9.1665        9.1665       9.118977       1.02422
  46    0.1487        0.0475        0.0000        9.1641        9.1641       9.116536       0.88991
  45    0.1794        0.0475        0.0000        9.1612        9.1612       9.113658       0.79008
  44    0.2165        0.0475        0.0000        9.1583        9.1583       9.110738       0.66430
  43    0.2613        0.0475        0.0000        9.1553        9.1553       9.107765       0.56041
  42    0.3336        0.0475        0.0000        9.1511        9.1511       9.103586       0.48723
  41    0.4307        0.0475        0.0000        9.1464        9.1464       9.098818       0.41459
  40    0.5894        0.0475        0.0000        9.1393        9.1394       9.091812       0.37255
  39     1.339        0.0475        0.0000        9.1127        9.1127       9.065198       0.29962
  38     1.782        0.0475        0.0000        9.1011        9.1011       9.053610       0.22062
  37     2.292        0.0475        0.0000        9.0901        9.0901       9.042543       0.18329
  36     2.964        0.0475        0.0000        9.0776        9.0776       9.030114       0.15603
  35     3.853        0.0475        0.0000        9.0629        9.0629       9.015323       0.14036
  34     5.035        0.0475        0.0000        9.0441        9.0441       8.996585       0.13386
  33     6.613        0.0475        0.0000        9.0191        9.0191       8.971583       0.13366
  32     8.786        0.0475        0.0000        8.9843        8.9843       8.936799       0.13509
  31     11.80        0.0475        0.0000        8.9327        8.9327       8.885183       0.14451
  30     15.07        0.0475        0.0000        8.8758        8.8759       8.828338       0.14676
  29     18.79        0.0475        0.0000        8.8110        8.8110       8.763511       0.14698
  28     23.16        0.0475        0.0000        8.7365        8.7366       8.689066       0.14395
  27     28.12        0.0475        0.0000        8.6554        8.6555       8.607953       0.13789
  26     33.73        0.0475        0.0000        8.5719        8.5719       8.524453       0.12554
  25     40.54        0.0475        0.0001        8.4812        8.4812       8.433730       0.11255
  24     48.69        0.0475        0.0001        8.3838        8.3839       8.336428       0.10069
  23     57.69        0.0475        0.0001        8.2861        8.2862       8.238693       0.09161
  22     68.43        0.0474        0.0001        8.1751        8.1751       8.127696       0.08726
  21     81.20        0.0474        0.0001        8.0457        8.0458       7.998338       0.08548
  20     96.49        0.0474        0.0001        7.8949        7.8951       7.847634       0.08318
  19     114.6        0.0474        0.0001        7.7162        7.7163       7.668924       0.08344
  18     136.5        0.0474        0.0002        7.5193        7.5195       7.472080       0.07569
  17     162.9        0.0473        0.0002        7.2913        7.2915       7.244187       0.07284
  16     196.4        0.0473        0.0002        6.9660        6.9662       6.918911       0.08188
  15     218.7        0.0473        0.0002        6.6648        6.6650       6.617715       0.11435
  14     243.0        0.0473        0.0002        6.2619        6.2622       6.214900       0.13971
  13     269.0        0.0473        0.0003        5.7576        5.7579       5.710553       0.16361
  12     297.5        0.0474        0.0003        5.1719        5.1722       5.124759       0.17374
  11     328.5        0.0476        0.0002        4.5757        4.5760       4.528420       0.16214
  10     361.9        0.0478        0.0002        3.9995        3.9998       3.951947       0.14585
   9     398.1        0.0483        0.0002        3.4655        3.4657       3.417402       0.12454
   8     437.6        0.0491        0.0002        2.9740        2.9743       2.925143       0.10525
   7     480.5        0.0504        0.0002        2.5307        2.5309       2.480457       0.08733
   6     533.0        0.0529        0.0002        2.0614        2.0616       2.008628       0.07590
   5     589.8        0.0576        0.0002        1.6150        1.6151       1.557569       0.06695
   4     651.6        0.0672        0.0001        1.1565        1.1566       1.089352       0.06403
   3     718.7        0.0886        0.0001        0.7390        0.7391       0.650536       0.05515
   2     792.3        0.1455        0.0001        0.3985        0.3985       0.253062       0.04559
   1     891.5        0.0001        0.0314        0.0014        0.0328       0.032734       0.01875
   0    1013.0        0.0009        0.0033        0.0001        0.0034       0.002448       0.00210



 Wavenumbers:  4000. -  4650. cm-1, ATM      1
 LEVEL PRESSURE   UPWARD FLUX   DIFDOWN FLUX  DIRDOWN FLUX  DOWNWARD FLUX   NET FLUX    HEATING RATE
          mb          W/m2          W/m2          W/m2        W/m2          W/m2       degree/day
  51    .06700        5.1674        0.0000       10.7795       10.7795       5.612151       0.00000
  50    .07753        5.1674        0.0000       10.7795       10.7795       5.612150       0.00080
  49    .09103        5.1674        0.0000       10.7795       10.7795       5.612149       0.00078
  48    0.1069        5.1674        0.0000       10.7795       10.7795       5.612148       0.00077
  47    0.1255        5.1674        0.0000       10.7795       10.7795       5.612146       0.00075
  46    0.1487        5.1674        0.0000       10.7795       10.7795       5.612144       0.00076
  45    0.1794        5.1674        0.0000       10.7795       10.7795       5.612141       0.00078
  44    0.2165        5.1674        0.0000       10.7795       10.7795       5.612138       0.00076
  43    0.2613        5.1674        0.0000       10.7795       10.7795       5.612134       0.00075
  42    0.3336        5.1674        0.0000       10.7795       10.7795       5.612127       0.00077
  41    0.4307        5.1674        0.0000       10.7795       10.7795       5.612118       0.00077
  40    0.5894        5.1674        0.0000       10.7795       10.7795       5.612103       0.00080
  39     1.339        5.1674        0.0000       10.7794       10.7794       5.612014       0.00101
  38     1.782        5.1674        0.0000       10.7793       10.7793       5.611944       0.00133
  37     2.292        5.1674        0.0000       10.7792       10.7792       5.611850       0.00156
  36     2.964        5.1674        0.0000       10.7791       10.7791       5.611709       0.00176
  35     3.853        5.1674        0.0000       10.7789       10.7789       5.611501       0.00198
  34     5.035        5.1674        0.0000       10.7786       10.7786       5.611193       0.00220
  33     6.613        5.1674        0.0000       10.7781       10.7781       5.610741       0.00242
  32     8.786        5.1674        0.0000       10.7774       10.7774       5.610072       0.00260
  31     11.80        5.1674        0.0001       10.7763       10.7764       5.609022       0.00294
  30     15.07        5.1674        0.0001       10.7751       10.7752       5.607789       0.00318
  29     18.79        5.1674        0.0001       10.7736       10.7737       5.606298       0.00338
  28     23.16        5.1674        0.0001       10.7717       10.7718       5.604445       0.00358
  27     28.12        5.1674        0.0001       10.7695       10.7696       5.602201       0.00381
  26     33.73        5.1674        0.0002       10.7667       10.7668       5.599432       0.00416
  25     40.54        5.1674        0.0002       10.7629       10.7631       5.595674       0.00466
  24     48.69        5.1675        0.0002       10.7579       10.7581       5.590663       0.00519
  23     57.69        5.1676        0.0003       10.7520       10.7523       5.584715       0.00557
  22     68.43        5.1677        0.0003       10.7446       10.7449       5.577254       0.00587
  21     81.20        5.1678        0.0004       10.7355       10.7359       5.568054       0.00608
  20     96.49        5.1681        0.0004       10.7245       10.7249       5.556844       0.00619
  19     114.6        5.1684        0.0005       10.7107       10.7112       5.542803       0.00656
  18     136.5        5.1690        0.0006       10.6942       10.6948       5.525855       0.00652
  17     162.9        5.1697        0.0008       10.6740       10.6748       5.505031       0.00666
  16     196.4        5.1710        0.0009       10.6464       10.6473       5.476221       0.00725
  15     218.7        5.1722        0.0010       10.6255       10.6265       5.454251       0.00834
  14     243.0        5.1739        0.0011       10.5980       10.5992       5.425248       0.01006
  13     269.0        5.1764        0.0012       10.5611       10.5623       5.385875       0.01277
  12     297.5        5.1802        0.0014       10.5119       10.5133       5.333149       0.01564
  11     328.5        5.1852        0.0015       10.4499       10.4514       5.266126       0.01822
  10     361.9        5.1919        0.0016       10.3702       10.3718       5.179889       0.02182
   9     398.1        5.2003        0.0018       10.2678       10.2696       5.069224       0.02578
   8     437.6        5.2111        0.0020       10.1390       10.1409       4.929815       0.02981
   7     480.5        5.2250        0.0021        9.9877        9.9898       4.764831       0.03240
   6     533.0        5.2464        0.0023        9.7937        9.7960       4.549584       0.03463
   5     589.8        5.2776        0.0025        9.5752        9.5777       4.300108       0.03703
   4     651.6        5.3282        0.0027        9.2958        9.2985       3.970358       0.04509
   3     718.7        5.4140        0.0029        8.9267        8.9296       3.515662       0.05714
   2     792.3        5.5773        0.0031        8.4542        8.4573       2.879970       0.07291
   1     891.5        0.6391        2.8760        0.0952        2.9712       2.332044       0.04663
   0    1013.0        0.6790        2.6530        0.0864        2.7395       2.060414       0.01886



 Wavenumbers:  4650. -  5150. cm-1, ATM      1
 LEVEL PRESSURE   UPWARD FLUX   DIFDOWN FLUX  DIRDOWN FLUX  DOWNWARD FLUX   NET FLUX    HEATING RATE
          mb          W/m2          W/m2          W/m2        W/m2          W/m2       degree/day
  51    .06700        3.7322        0.0000       10.2033       10.2033       6.471182       0.00000
  50    .07753        3.7322        0.0000       10.2031       10.2031       6.470946       0.18901
  49    .09103        3.7322        0.0000       10.2028       10.2028       6.470651       0.18428
  48    0.1069        3.7322        0.0000       10.2025       10.2025       6.470314       0.17931
  47    0.1255        3.7322        0.0000       10.2021       10.2021       6.469930       0.17426
  46    0.1487        3.7322        0.0000       10.2016       10.2016       6.469449       0.17536
  45    0.1794        3.7322        0.0000       10.2010       10.2010       6.468799       0.17850
  44    0.2165        3.7322        0.0000       10.2002       10.2002       6.468039       0.17277
  43    0.2613        3.7322        0.0000       10.1993       10.1993       6.467154       0.16690
  42    0.3336        3.7322        0.0000       10.1979       10.1979       6.465721       0.16702
  41    0.4307        3.7322        0.0000       10.1960       10.1960       6.463881       0.16002
  40    0.5894        3.7322        0.0000       10.1932       10.1932       6.461007       0.15283
  39     1.339        3.7322        0.0000       10.1816       10.1816       6.449415       0.13050
  38     1.782        3.7322        0.0000       10.1760       10.1760       6.443886       0.10527
  37     2.292        3.7322        0.0000       10.1706       10.1706       6.438429       0.09038
  36     2.964        3.7322        0.0000       10.1646       10.1647       6.432505       0.07436
  35     3.853        3.7322        0.0000       10.1584       10.1584       6.426289       0.05899
  34     5.035        3.7322        0.0000       10.1521       10.1521       6.419951       0.04528
  33     6.613        3.7322        0.0000       10.1456       10.1456       6.413489       0.03454
  32     8.786        3.7322        0.0001       10.1386       10.1386       6.406471       0.02726
  31     11.80        3.7322        0.0001       10.1295       10.1296       6.397416       0.02535
  30     15.07        3.7322        0.0001       10.1196       10.1197       6.387517       0.02556
  29     18.79        3.7322        0.0001       10.1076       10.1077       6.375482       0.02729
  28     23.16        3.7323        0.0002       10.0923       10.0924       6.360137       0.02967
  27     28.12        3.7323        0.0002       10.0731       10.0733       6.340988       0.03255
  26     33.73        3.7324        0.0002       10.0500       10.0503       6.317820       0.03483
  25     40.54        3.7326        0.0003       10.0201       10.0204       6.287810       0.03723
  24     48.69        3.7328        0.0003        9.9820        9.9823       6.249488       0.03966
  23     57.69        3.7331        0.0004        9.9384        9.9388       6.205754       0.04099
  22     68.43        3.7335        0.0005        9.8858        9.8862       6.152752       0.04167
  21     81.20        3.7340        0.0005        9.8234        9.8240       6.089987       0.04147
  20     96.49        3.7348        0.0006        9.7518        9.7524       6.017651       0.03992
  19     114.6        3.7358        0.0008        9.6719        9.6727       5.936884       0.03771
  18     136.5        3.7372        0.0009        9.5858        9.5867       5.849457       0.03362
  17     162.9        3.7392        0.0011        9.4940        9.4951       5.755851       0.02992
  16     196.4        3.7423        0.0013        9.3883        9.3895       5.647196       0.02735
  15     218.7        3.7448        0.0014        9.3229        9.3243       5.579531       0.02569
  14     243.0        3.7479        0.0015        9.2520        9.2535       5.505573       0.02565
  13     269.0        3.7522        0.0017        9.1717        9.1734       5.421167       0.02738
  12     297.5        3.7581        0.0019        9.0763        9.0781       5.320025       0.03000
  11     328.5        3.7658        0.0020        8.9650        8.9670       5.201164       0.03232
  10     361.9        3.7758        0.0022        8.8349        8.8371       5.061322       0.03538
   9     398.1        3.7888        0.0024        8.6820        8.6844       4.895645       0.03860
   8     437.6        3.8057        0.0026        8.5028        8.5054       4.699741       0.04189
   7     480.5        3.8277        0.0028        8.2948        8.2976       4.469957       0.04513
   6     533.0        3.8613        0.0030        8.0209        8.0239       4.162633       0.04944
   5     589.8        3.9082        0.0033        7.7063        7.7096       3.801424       0.05362
   4     651.6        3.9778        0.0035        7.3412        7.3447       3.366918       0.05942
   3     718.7        4.0836        0.0037        6.9387        6.9423       2.858706       0.06387
   2     792.3        4.2540        0.0038        6.5066        6.5104       2.256416       0.06908
   1     891.5        0.4683        2.1702        0.0725        2.2426       1.774312       0.04102
   0    1013.0        0.5055        1.9733        0.0647        2.0380       1.532511       0.01679



 Wavenumbers:  5150. -  6150. cm-1, ATM      1
 LEVEL PRESSURE   UPWARD FLUX   DIFDOWN FLUX  DIRDOWN FLUX  DOWNWARD FLUX   NET FLUX    HEATING RATE
          mb          W/m2          W/m2          W/m2        W/m2          W/m2       degree/day
  51    .06700        8.8552        0.0000       25.5798       25.5798      16.724628       0.00000
  50    .07753        8.8552        0.0000       25.5798       25.5798      16.724588       0.03161
  49    .09103        8.8552        0.0000       25.5797       25.5797      16.724537       0.03209
  48    0.1069        8.8552        0.0000       25.5797       25.5797      16.724476       0.03260
  47    0.1255        8.8552        0.0000       25.5796       25.5796      16.724403       0.03310
  46    0.1487        8.8552        0.0000       25.5795       25.5795      16.724307       0.03487
  45    0.1794        8.8552        0.0000       25.5794       25.5794      16.724172       0.03712
  44    0.2165        8.8552        0.0000       25.5792       25.5792      16.724006       0.03768
  43    0.2613        8.8552        0.0000       25.5790       25.5790      16.723803       0.03826
  42    0.3336        8.8552        0.0000       25.5786       25.5786      16.723456       0.04042
  41    0.4307        8.8552        0.0000       25.5782       25.5782      16.722985       0.04096
  40    0.5894        8.8552        0.0000       25.5774       25.5774      16.722196       0.04197
  39     1.339        8.8552        0.0000       25.5735       25.5736      16.718393       0.04281
  38     1.782        8.8552        0.0001       25.5713       25.5714      16.716179       0.04216
  37     2.292        8.8552        0.0001       25.5688       25.5688      16.713672       0.04151
  36     2.964        8.8552        0.0001       25.5656       25.5657      16.710488       0.03998
  35     3.853        8.8552        0.0001       25.5615       25.5616      16.706439       0.03842
  34     5.035        8.8552        0.0002       25.5562       25.5564      16.701225       0.03725
  33     6.613        8.8552        0.0002       25.5494       25.5496      16.694460       0.03617
  32     8.786        8.8552        0.0003       25.5406       25.5409      16.685691       0.03406
  31     11.80        8.8552        0.0004       25.5287       25.5290      16.673828       0.03321
  30     15.07        8.8552        0.0005       25.5167       25.5172      16.661928       0.03072
  29     18.79        8.8553        0.0006       25.5042       25.5047      16.649482       0.02822
  28     23.16        8.8553        0.0007       25.4907       25.4914      16.636069       0.02594
  27     28.12        8.8554        0.0009       25.4764       25.4773      16.621918       0.02406
  26     33.73        8.8555        0.0010       25.4620       25.4630      16.607565       0.02158
  25     40.54        8.8556        0.0012       25.4463       25.4475      16.591849       0.01950
  24     48.69        8.8559        0.0015       25.4294       25.4309      16.574993       0.01744
  23     57.69        8.8561        0.0018       25.4126       25.4144      16.558229       0.01571
  22     68.43        8.8565        0.0021       25.3944       25.3965      16.539997       0.01433
  21     81.20        8.8570        0.0025       25.3744       25.3769      16.519903       0.01328
  20     96.49        8.8576        0.0029       25.3519       25.3549      16.497291       0.01248
  19     114.6        8.8583        0.0035       25.3262       25.3297      16.471332       0.01212
  18     136.5        8.8592        0.0041       25.2962       25.3003      16.441090       0.01163
  17     162.9        8.8604        0.0049       25.2521       25.2570      16.396624       0.01421
  16     196.4        8.8620        0.0059       25.1593       25.1652      16.303226       0.02351
  15     218.7        8.8631        0.0066       25.0159       25.0225      16.159342       0.05463
  14     243.0        8.8646        0.0072       24.7089       24.7161      15.851541       0.10676
  13     269.0        8.8665        0.0079       24.1619       24.1697      15.303249       0.17786
  12     297.5        8.8691        0.0085       23.4544       23.4629      14.593832       0.21041
  11     328.5        8.8725        0.0092       22.7355       22.7446      13.872158       0.19622
  10     361.9        8.8770        0.0098       21.9224       21.9323      13.055232       0.20669
   9     398.1        8.8832        0.0105       20.9939       21.0044      12.121207       0.21761
   8     437.6        8.8918        0.0111       19.9833       19.9944      11.102642       0.21778
   7     480.5        8.9037        0.0117       18.9483       18.9600      10.056254       0.20551
   6     533.0        8.9241        0.0123       17.7796       17.7919       8.867867       0.19117
   5     589.8        8.9572        0.0130       16.6726       16.6856       7.728415       0.16913
   4     651.6        9.0180        0.0137       15.6343       15.6480       6.630021       0.15021
   3     718.7        9.1299        0.0145       14.7738       14.7882       5.658369       0.12211
   2     792.3        9.3545        0.0153       14.0291       14.0444       4.689897       0.11107
   1     891.5        1.1232        4.8754        0.1597        5.0351       3.911945       0.06620
   0    1013.0        1.1693        4.5626        0.1470        4.7096       3.540303       0.02581



 Wavenumbers:  6150. -  7700. cm-1, ATM      1
 LEVEL PRESSURE   UPWARD FLUX   DIFDOWN FLUX  DIRDOWN FLUX  DOWNWARD FLUX   NET FLUX    HEATING RATE
          mb          W/m2          W/m2          W/m2        W/m2          W/m2       degree/day
  51    .06700       14.1665        0.0000       47.3109       47.3109      33.144346       0.00000
  50    .07753       14.1665        0.0000       47.3108       47.3108      33.144289       0.04553
  49    .09103       14.1665        0.0000       47.3107       47.3107      33.144216       0.04583
  48    0.1069       14.1665        0.0000       47.3106       47.3106      33.144129       0.04614
  47    0.1255       14.1665        0.0000       47.3105       47.3105      33.144027       0.04645
  46    0.1487       14.1665        0.0000       47.3104       47.3104      33.143893       0.04852
  45    0.1794       14.1665        0.0000       47.3102       47.3102      33.143707       0.05127
  44    0.2165       14.1665        0.0000       47.3100       47.3100      33.143480       0.05167
  43    0.2613       14.1665        0.0000       47.3097       47.3097      33.143203       0.05210
  42    0.3336       14.1665        0.0000       47.3092       47.3092      33.142734       0.05471
  41    0.4307       14.1665        0.0000       47.3085       47.3086      33.142099       0.05521
  40    0.5894       14.1665        0.0001       47.3074       47.3075      33.141040       0.05633
  39     1.339       14.1664        0.0002       47.3022       47.3024      33.135947       0.05733
  38     1.782       14.1664        0.0002       47.2991       47.2993      33.132977       0.05655
  37     2.292       14.1663        0.0003       47.2956       47.2959      33.129601       0.05591
  36     2.964       14.1663        0.0004       47.2912       47.2916      33.125283       0.05421
  35     3.853       14.1662        0.0005       47.2855       47.2859      33.119749       0.05252
  34     5.035       14.1661        0.0006       47.2780       47.2787      33.112568       0.05129
  33     6.613       14.1660        0.0008       47.2683       47.2692      33.103180       0.05019
  32     8.786       14.1658        0.0011       47.2556       47.2567      33.090881       0.04777
  31     11.80       14.1655        0.0015       47.2380       47.2395      33.073977       0.04733
  30     15.07       14.1653        0.0019       47.2201       47.2220      33.056689       0.04463
  29     18.79       14.1650        0.0024       47.2008       47.2032      33.038209       0.04190
  28     23.16       14.1646        0.0029       47.1795       47.1824      33.017818       0.03943
  27     28.12       14.1642        0.0035       47.1565       47.1600      32.995823       0.03739
  26     33.73       14.1637        0.0042       47.1324       47.1366      32.972901       0.03446
  25     40.54       14.1632        0.0051       47.1054       47.1105      32.947263       0.03181
  24     48.69       14.1625        0.0061       47.0754       47.0815      32.919008       0.02924
  23     57.69       14.1618        0.0072       47.0449       47.0522      32.890384       0.02683
  22     68.43       14.1609        0.0086       47.0110       47.0196      32.858643       0.02495
  21     81.20       14.1599        0.0102       46.9729       46.9830      32.823145       0.02346
  20     96.49       14.1587        0.0121       46.9294       46.9415      32.782799       0.02227
  19     114.6       14.1572        0.0144       46.8790       46.8934      32.736157       0.02178
  18     136.5       14.1555        0.0170       46.8200       46.8370      32.681522       0.02101
  17     162.9       14.1535        0.0203       46.7361       46.7564      32.602880       0.02514
  16     196.4       14.1510        0.0244       46.5703       46.5946      32.443629       0.04009
  15     218.7       14.1495        0.0270       46.3473       46.3743      32.224803       0.08308
  14     243.0       14.1483        0.0298       45.9299       45.9597      31.811434       0.14337
  13     269.0       14.1476        0.0326       45.1708       45.2034      31.055844       0.24511
  12     297.5       14.1481        0.0354       44.0115       44.0468      29.898737       0.34319
  11     328.5       14.1503        0.0381       42.7242       42.7624      28.612091       0.34984
  10     361.9       14.1550        0.0410       41.3539       41.3949      27.239933       0.34717
   9     398.1       14.1636        0.0437       39.7953       39.8390      25.675393       0.36450
   8     437.6       14.1786        0.0463       37.9948       38.0411      23.862466       0.38762
   7     480.5       14.2030        0.0488       36.0647       36.1135      21.910478       0.38336
   6     533.0       14.2494        0.0514       33.7773       33.8287      19.579323       0.37501
   5     589.8       14.3308        0.0538       31.4082       31.4620      17.131195       0.36338
   4     651.6       14.4886        0.0557       28.8834       28.9391      14.450460       0.36660
   3     718.7       14.7912        0.0574       26.4104       26.4677      11.676573       0.34860
   2     792.3       15.4344        0.0587       24.0056       24.0643       8.629946       0.34941
   1     891.5        1.6749        7.7876        0.2592        8.0468       6.371839       0.19215
   0    1013.0        1.7946        6.9987        0.2272        7.2259       5.431275       0.06531



 Wavenumbers:  7700. -  8050. cm-1, ATM      1
 LEVEL PRESSURE   UPWARD FLUX   DIFDOWN FLUX  DIRDOWN FLUX  DOWNWARD FLUX   NET FLUX    HEATING RATE
          mb          W/m2          W/m2          W/m2        W/m2          W/m2       degree/day
  51    .06700        6.5340        0.0000       11.1810       11.1810       4.646917       0.00000
  50    .07753        6.5341        0.0000       11.1809       11.1809       4.646895       0.01793
  49    .09103        6.5341        0.0000       11.1809       11.1809       4.646867       0.01757
  48    0.1069        6.5341        0.0000       11.1809       11.1809       4.646834       0.01720
  47    0.1255        6.5341        0.0000       11.1809       11.1809       4.646797       0.01683
  46    0.1487        6.5341        0.0000       11.1808       11.1808       4.646750       0.01708
  45    0.1794        6.5341        0.0000       11.1808       11.1808       4.646686       0.01757
  44    0.2165        6.5341        0.0000       11.1807       11.1807       4.646611       0.01724
  43    0.2613        6.5341        0.0000       11.1806       11.1806       4.646521       0.01692
  42    0.3336        6.5342        0.0000       11.1805       11.1805       4.646372       0.01731
  41    0.4307        6.5342        0.0000       11.1803       11.1804       4.646176       0.01712
  40    0.5894        6.5343        0.0000       11.1801       11.1801       4.645854       0.01710
  39     1.339        6.5346        0.0001       11.1788       11.1789       4.644332       0.01713
  38     1.782        6.5347        0.0001       11.1781       11.1782       4.643439       0.01702
  37     2.292        6.5349        0.0001       11.1772       11.1773       4.642404       0.01713
  36     2.964        6.5352        0.0002       11.1761       11.1762       4.641046       0.01705
  35     3.853        6.5355        0.0002       11.1746       11.1748       4.639252       0.01703
  34     5.035        6.5360        0.0003       11.1726       11.1729       4.636868       0.01703
  33     6.613        6.5366        0.0004       11.1700       11.1703       4.633684       0.01702
  32     8.786        6.5375        0.0005       11.1664       11.1669       4.629395       0.01666
  31     11.80        6.5387        0.0007       11.1613       11.1620       4.623262       0.01717
  30     15.07        6.5400        0.0009       11.1558       11.1567       4.616682       0.01699
  29     18.79        6.5415        0.0011       11.1497       11.1507       4.609256       0.01684
  28     23.16        6.5432        0.0013       11.1425       11.1438       4.600592       0.01675
  27     28.12        6.5452        0.0016       11.1343       11.1359       4.590698       0.01682
  26     33.73        6.5475        0.0019       11.1252       11.1271       4.579645       0.01662
  25     40.54        6.5502        0.0023       11.1142       11.1165       4.566319       0.01653
  24     48.69        6.5535        0.0027       11.1010       11.1038       4.550296       0.01658
  23     57.69        6.5571        0.0032       11.0866       11.0898       4.532750       0.01645
  22     68.43        6.5615        0.0038       11.0695       11.0734       4.511928       0.01637
  21     81.20        6.5667        0.0046       11.0494       11.0539       4.487231       0.01632
  20     96.49        6.5730        0.0054       11.0255       11.0309       4.457957       0.01616
  19     114.6        6.5806        0.0064       10.9975       11.0040       4.423412       0.01613
  18     136.5        6.5896        0.0076       10.9648       10.9724       4.382758       0.01563
  17     162.9        6.6006        0.0090       10.9263       10.9353       4.334737       0.01535
  16     196.4        6.6151        0.0109       10.8773       10.8881       4.273052       0.01553
  15     218.7        6.6248        0.0121       10.8455       10.8576       4.232847       0.01526
  14     243.0        6.6355        0.0134       10.8114       10.8248       4.189355       0.01508
  13     269.0        6.6473        0.0148       10.7749       10.7897       4.142382       0.01524
  12     297.5        6.6604        0.0164       10.7357       10.7521       4.091668       0.01504
  11     328.5        6.6749        0.0180       10.6937       10.7117       4.036857       0.01490
  10     361.9        6.6910        0.0198       10.6489       10.6687       3.977679       0.01497
   9     398.1        6.7089        0.0217       10.6008       10.6225       3.913572       0.01494
   8     437.6        6.7290        0.0238       10.5491       10.5728       3.843838       0.01491
   7     480.5        6.7516        0.0260       10.4934       10.5194       3.767814       0.01493
   6     533.0        6.7811        0.0287       10.4243       10.4530       3.671881       0.01543
   5     589.8        6.8155        0.0316       10.3479       10.3795       3.563971       0.01602
   4     651.6        6.8569        0.0347       10.2613       10.2960       3.439136       0.01707
   3     718.7        6.9078        0.0380       10.1618       10.1998       3.291992       0.01849
   2     792.3        6.9727        0.0415       10.0439       10.0854       3.112734       0.02056
   1     891.5        0.9231        3.7557        0.1205        3.8762       2.953135       0.01358
   0    1013.0        0.9422        3.6721        0.1174        3.7895       2.847211       0.00735



 Wavenumbers:  8050. - 12850. cm-1, ATM      1
 LEVEL PRESSURE   UPWARD FLUX   DIFDOWN FLUX  DIRDOWN FLUX  DOWNWARD FLUX   NET FLUX    HEATING RATE
          mb          W/m2          W/m2          W/m2        W/m2          W/m2       degree/day
  51    .06700       85.1409        0.0000      156.5418      156.5418      71.400831       0.00000
  50    .07753       85.1409        0.0000      156.5417      156.5417      71.400831      -0.00000
  49    .09103       85.1409        0.0001      156.5417      156.5417      71.400831       0.00000
  48    0.1069       85.1409        0.0001      156.5416      156.5417      71.400831       0.00000
  47    0.1255       85.1408        0.0002      156.5415      156.5417      71.400831      -0.00000
  46    0.1487       85.1408        0.0002      156.5414      156.5417      71.400831       0.00000
  45    0.1794       85.1408        0.0003      156.5413      156.5416      71.400831       0.00000
  44    0.2165       85.1407        0.0004      156.5412      156.5416      71.400831      -0.00000
  43    0.2613       85.1407        0.0005      156.5410      156.5415      71.400831      -0.00000
  42    0.3336       85.1406        0.0007      156.5407      156.5414      71.400831       0.00000
  41    0.4307       85.1405        0.0010      156.5403      156.5413      71.400831       0.00000
  40    0.5894       85.1403        0.0014      156.5397      156.5411      71.400831       0.00000
  39     1.339       85.1394        0.0035      156.5367      156.5402      71.400831      -0.00000
  38     1.782       85.1389        0.0047      156.5350      156.5397      71.400831      -0.00000
  37     2.292       85.1383        0.0061      156.5330      156.5391      71.400831       0.00000
  36     2.964       85.1374        0.0079      156.5303      156.5383      71.400831       0.00000
  35     3.853       85.1364        0.0104      156.5268      156.5372      71.400831      -0.00000
  34     5.035       85.1350        0.0136      156.5222      156.5358      71.400831       0.00000
  33     6.613       85.1331        0.0179      156.5160      156.5339      71.400831       0.00000
  32     8.786       85.1305        0.0237      156.5076      156.5314      71.400831      -0.00000
  31     11.80       85.1269        0.0321      156.4957      156.5277      71.400831       0.00000
  30     15.07       85.1230        0.0410      156.4828      156.5238      71.400831       0.00000
  29     18.79       85.1186        0.0512      156.4682      156.5194      71.400831      -0.00000
  28     23.16       85.1134        0.0630      156.4512      156.5142      71.400831       0.00000
  27     28.12       85.1075        0.0766      156.4317      156.5083      71.400831      -0.00000
  26     33.73       85.1008        0.0918      156.4099      156.5016      71.400831       0.00000
  25     40.54       85.0928        0.1102      156.3834      156.4936      71.400831       0.00000
  24     48.69       85.0831        0.1324      156.3515      156.4839      71.400831      -0.00000
  23     57.69       85.0724        0.1568      156.3164      156.4732      71.400831       0.00000
  22     68.43       85.0597        0.1859      156.2746      156.4605      71.400831      -0.00000
  21     81.20       85.0445        0.2207      156.2246      156.4453      71.400831      -0.00000
  20     96.49       85.0263        0.2622      156.1649      156.4271      71.400831       0.00000
  19     114.6       85.0049        0.3116      156.0879      156.3995      71.394603       0.00291
  18     136.5       84.9795        0.3702      155.9962      156.3663      71.386877       0.00297
  17     162.9       84.9491        0.4401      155.8831      156.3232      71.374055       0.00410
  16     196.4       84.9099        0.5311      155.7199      156.2511      71.341190       0.00827
  15     218.7       84.8844        0.5909      155.5733      156.1642      71.279852       0.02329
  14     243.0       84.8576        0.6560      155.3367      155.9926      71.134992       0.05024
  13     269.0       84.8309        0.7262      154.9514      155.6777      70.846741       0.09351
  12     297.5       84.8065        0.8019      154.3896      155.1915      70.385029       0.13694
  11     328.5       84.7858        0.8835      153.7151      154.5986      69.812813       0.15558
  10     361.9       84.7718        0.9710      152.9087      153.8797      69.107960       0.17833
   9     398.1       84.7696        1.0645      151.8986      152.9631      68.193559       0.21303
   8     437.6       84.7880        1.1639      150.6031      151.7671      66.979103       0.25966
   7     480.5       84.8377        1.2690      149.0014      150.2704      65.432645       0.30372
   6     533.0       84.9559        1.3958      146.7375      148.1334      63.177535       0.36278
   5     589.8       85.1893        1.5285      143.8730      145.4015      60.212143       0.44016
   4     651.6       85.6688        1.6640      140.0955      141.7596      56.090746       0.56361
   3     718.7       86.5888        1.8010      135.5278      137.3288      50.739981       0.67244
   2     792.3       88.4417        1.9357      130.0690      132.0048      43.563038       0.82311
   1     891.5       10.9228       46.5574        1.4906       48.0480      37.125260       0.54782
   0    1013.0       11.3796       43.7576        1.3786       45.1363      33.756634       0.23390



 Wavenumbers: 12850. - 16000. cm-1, ATM      1
 LEVEL PRESSURE   UPWARD FLUX   DIFDOWN FLUX  DIRDOWN FLUX  DOWNWARD FLUX   NET FLUX    HEATING RATE
          mb          W/m2          W/m2          W/m2        W/m2          W/m2       degree/day
  51    .06700       65.8082        0.0000       98.0872       98.0872      32.279082       0.00000
  50    .07753       65.8081        0.0001       98.0864       98.0864      32.278292       0.63266
  49    .09103       65.8081        0.0002       98.0853       98.0854      32.277301       0.61934
  48    0.1069       65.8081        0.0002       98.0841       98.0843      32.276163       0.60572
  47    0.1255       65.8081        0.0004       98.0826       98.0830      32.274857       0.59236
  46    0.1487       65.8081        0.0005       98.0809       98.0813      32.273209       0.60065
  45    0.1794       65.8082        0.0007       98.0784       98.0791      32.270969       0.61492
  44    0.2165       65.8082        0.0009       98.0756       98.0765      32.268336       0.59886
  43    0.2613       65.8083        0.0012       98.0723       98.0735      32.265244       0.58296
  42    0.3336       65.8084        0.0016       98.0670       98.0686      32.260202       0.58777
  41    0.4307       65.8087        0.0022       98.0602       98.0624      32.253693       0.56598
  40    0.5894       65.8093        0.0032       98.0496       98.0528      32.243459       0.54425
  39     1.339       65.8146        0.0077       98.0043       98.0121      32.197468       0.51777
  38     1.782       65.8195        0.0104       97.9793       97.9897      32.170107       0.52090
  37     2.292       65.8270        0.0135       97.9498       97.9632      32.136201       0.56157
  36     2.964       65.8395        0.0175       97.9088       97.9263      32.086801       0.62012
  35     3.853       65.8598        0.0228       97.8503       97.8732      32.013431       0.69630
  34     5.035       65.8903        0.0299       97.7680       97.7979      31.907610       0.75594
  33     6.613       65.9330        0.0394       97.6562       97.6956      31.762568       0.77539
  32     8.786       65.9886        0.0522       97.5107       97.5628      31.574229       0.73144
  31     11.80       66.0608        0.0704       97.3179       97.3882      31.327428       0.69097
  30     15.07       66.1298        0.0899       97.1283       97.2182      31.088416       0.61708
  29     18.79       66.2001        0.1120       96.9300       97.0420      30.841841       0.55906
  28     23.16       66.2734        0.1377       96.7166       96.8543      30.580808       0.50475
  27     28.12       66.3470        0.1671       96.4935       96.6606      30.313598       0.45424
  26     33.73       66.4145        0.2000       96.2731       96.4731      30.058553       0.38347
  25     40.54       66.4791        0.2397       96.0408       96.2805      29.801439       0.31898
  24     48.69       66.5403        0.2876       95.7946       96.0822      29.541895       0.26859
  23     57.69       66.5916        0.3403       95.5573       95.8975      29.305968       0.22115
  22     68.43       66.6353        0.4030       95.3106       95.7136      29.078290       0.17899
  21     81.20       66.6636        0.4778       95.0643       95.5421      28.878487       0.13203
  20     96.49       66.6754        0.5670       94.8153       95.3823      28.706817       0.09475
  19     114.6       66.6876        0.6738       94.5411       95.2148      28.527264       0.08384
  18     136.5       66.6927        0.8003       94.2320       95.0324      28.339694       0.07213
  17     162.9       66.6904        0.9510       93.8753       94.8263      28.135959       0.06512
  16     196.4       66.6694        1.1463       93.4347       94.5810      27.911608       0.05647
  15     218.7       66.6493        1.2746       93.1513       94.4258      27.776537       0.05128
  14     243.0       66.6250        1.4139       92.8439       94.2579      27.632853       0.04983
  13     269.0       66.5965        1.5649       92.5111       94.0760      27.479491       0.04975
  12     297.5       66.5644        1.7279       92.1495       93.8774      27.312977       0.04939
  11     328.5       66.5305        1.9041       91.7554       93.6594      27.128907       0.05005
  10     361.9       66.4958        2.0936       91.3262       93.4198      26.923960       0.05185
   9     398.1       66.4618        2.2974       90.8575       93.1549      26.693132       0.05378
   8     437.6       66.4315        2.5160       90.3418       92.8578      26.426307       0.05705
   7     480.5       66.4080        2.7500       89.7728       92.5228      26.114749       0.06119
   6     533.0       66.3964        3.0374       89.0428       92.0802      25.683856       0.06932
   5     589.8       66.4154        3.3458       88.2038       91.5497      25.134289       0.08157
   4     651.6       66.4997        3.6747       87.1979       90.8726      24.372931       0.10412
   3     718.7       66.6768        4.0226       86.0161       90.0388      23.361917       0.12706
   2     792.3       67.0280        4.3858       84.5970       88.9829      21.954838       0.16138
   1     891.5       22.5829       42.0694        1.0068       43.0762      20.493362       0.12436
   0    1013.0       22.8959       41.2000        0.9724       42.1724      19.276520       0.08449



 Wavenumbers: 16000. - 22650. cm-1, ATM      1
 LEVEL PRESSURE   UPWARD FLUX   DIFDOWN FLUX  DIRDOWN FLUX  DOWNWARD FLUX   NET FLUX    HEATING RATE
          mb          W/m2          W/m2          W/m2        W/m2          W/m2       degree/day
  51    .06700      123.2472        0.0000      156.3892      156.3892      33.142055       0.00000
  50    .07753      123.2471        0.0004      156.3887      156.3891      33.141915       0.11189
  49    .09103      123.2471        0.0009      156.3879      156.3888      33.141712       0.12691
  48    0.1069      123.2470        0.0014      156.3871      156.3885      33.141440       0.14472
  47    0.1255      123.2470        0.0020      156.3861      156.3881      33.141077       0.16496
  46    0.1487      123.2470        0.0028      156.3847      156.3875      33.140540       0.19547
  45    0.1794      123.2470        0.0039      156.3828      156.3867      33.139702       0.23015
  44    0.2165      123.2471        0.0052      156.3805      156.3857      33.138565       0.25867
  43    0.2613      123.2473        0.0067      156.3776      156.3843      33.137022       0.29080
  42    0.3336      123.2477        0.0092      156.3726      156.3818      33.134089       0.34198
  41    0.4307      123.2486        0.0125      156.3657      156.3782      33.129668       0.38442
  40    0.5894      123.2504        0.0179      156.3537      156.3716      33.121236       0.44841
  39     1.339      123.2681        0.0436      156.2834      156.3270      33.058939       0.70134
  38     1.782      123.2852        0.0587      156.2324      156.2910      33.005872       1.01032
  37     2.292      123.3112        0.0761      156.1641      156.2402      32.929058       1.27223
  36     2.964      123.3549        0.0990      156.0605      156.1595      32.804624       1.56202
  35     3.853      123.4261        0.1293      155.9041      156.0333      32.607191       1.87368
  34     5.035      123.5341        0.1694      155.6774      155.8467      32.312666       2.10397
  33     6.613      123.6851        0.2229      155.3656      155.5885      31.903419       2.18784
  32     8.786      123.8816        0.2949      154.9577      155.2526      31.370996       2.06774
  31     11.80      124.1365        0.3978      154.4153      154.8130      30.676493       1.94439
  30     15.07      124.3798        0.5080      153.8804      154.3884      30.008590       1.72439
  29     18.79      124.6272        0.6324      153.3191      153.9515      29.324245       1.55162
  28     23.16      124.8845        0.7774      152.7126      153.4899      28.605388       1.39004
  27     28.12      125.1418        0.9429      152.0755      153.0184      27.876577       1.23893
  26     33.73      125.3766        1.1279      151.4409      152.5688      27.192221       1.02895
  25     40.54      125.5988        1.3512      150.7637      152.1149      26.516047       0.83887
  24     48.69      125.8070        1.6200      150.0338      151.6539      25.846847       0.69252
  23     57.69      125.9780        1.9149      149.3151      151.2300      25.252058       0.55753
  22     68.43      126.1193        2.2656      148.5476      150.8132      24.693891       0.43879
  21     81.20      126.2024        2.6831      147.7517      150.4347      24.232309       0.30501
  20     96.49      126.2223        3.1798      146.9127      150.0925      23.870199       0.19986
  19     114.6      126.2051        3.7678      145.9763      149.7441      23.538997       0.15465
  18     136.5      126.1572        4.4617      144.9088      149.3705      23.213297       0.12524
  17     162.9      126.0752        5.2838      143.6785      148.9624      22.887174       0.10424
  16     196.4      125.9150        6.3440      142.1651      148.5090      22.593998       0.07380
  15     218.7      125.7901        7.0364      141.2033      148.2397      22.449621       0.05481
  14     243.0      125.6452        7.7854      140.1753      147.9608      22.315553       0.04650
  13     269.0      125.4788        8.5932      139.0797      147.6728      22.194035       0.03942
  12     297.5      125.2901        9.4614      137.9141      147.3755      22.085387       0.03222
  11     328.5      125.0820       10.3940      136.6676      147.0616      21.979607       0.02876
  10     361.9      124.8543       11.3919      135.3392      146.7311      21.876800       0.02601
   9     398.1      124.6060       12.4586      133.9235      146.3821      21.776085       0.02346
   8     437.6      124.3377       13.5959      132.4163      146.0121      21.674442       0.02173
   7     480.5      124.0488       14.8056      130.8147      145.6203      21.571532       0.02021
   6     533.0      123.6931       16.2817      128.8599      145.1416      21.448487       0.01979
   5     589.8      123.3133       17.8571      126.7679      144.6250      21.311697       0.02030
   4     651.6      122.9148       19.5328      124.5274      144.0603      21.145411       0.02274
   3     718.7      122.5030       21.3100      122.1285      143.4384      20.935497       0.02638
   2     792.3      122.0930       23.1860      119.5548      142.7408      20.647816       0.03299
   1     891.5       72.5747       91.4306        1.4176       92.8482      20.273443       0.03186
   0    1013.0       72.5210       90.9869        1.3661       92.3529      19.831945       0.03066



 Wavenumbers: 22650. - 29000. cm-1, ATM      1
 LEVEL PRESSURE   UPWARD FLUX   DIFDOWN FLUX  DIRDOWN FLUX  DOWNWARD FLUX   NET FLUX    HEATING RATE
          mb          W/m2          W/m2          W/m2        W/m2          W/m2       degree/day
  51    .06700       51.3203        0.0000       59.0156       59.0156       7.695309       0.00000
  50    .07753       51.3202        0.0004       59.0151       59.0155       7.695309      -0.00000
  49    .09103       51.3200        0.0010       59.0144       59.0154       7.695309       0.00000
  48    0.1069       51.3199        0.0016       59.0136       59.0152       7.695309       0.00000
  47    0.1255       51.3197        0.0024       59.0127       59.0150       7.695309      -0.00000
  46    0.1487       51.3195        0.0033       59.0115       59.0148       7.695309       0.00000
  45    0.1794       51.3191        0.0045       59.0099       59.0144       7.695309       0.00000
  44    0.2165       51.3188        0.0060       59.0080       59.0141       7.695309      -0.00000
  43    0.2613       51.3183        0.0078       59.0058       59.0136       7.695309      -0.00000
  42    0.3336       51.3176        0.0107       59.0022       59.0129       7.695309       0.00000
  41    0.4307       51.3166        0.0146       58.9973       59.0119       7.695309      -0.00000
  40    0.5894       51.3150        0.0209       58.9894       59.0103       7.695309       0.00000
  39     1.339       51.3073        0.0508       58.9518       59.0026       7.695309       0.00000
  38     1.782       51.3028        0.0684       58.9297       58.9981       7.695309       0.00000
  37     2.292       51.2976        0.0887       58.9042       58.9929       7.695309       0.00000
  36     2.964       51.2908        0.1154       58.8706       58.9861       7.695309      -0.00000
  35     3.853       51.2817        0.1507       58.8264       58.9770       7.695309       0.00000
  34     5.035       51.2697        0.1975       58.7676       58.9651       7.695309       0.00000
  33     6.613       51.2537        0.2600       58.6891       58.9490       7.695309       0.00000
  32     8.786       51.2322        0.3441       58.5834       58.9275       7.695309      -0.00000
  31     11.80       51.2013        0.4642       58.4324       58.8967       7.695309       0.00000
  30     15.07       51.1683        0.5930       58.2706       58.8636       7.695309       0.00000
  29     18.79       51.1310        0.7381       58.0882       58.8263       7.695309      -0.00000
  28     23.16       51.0875        0.9071       57.8757       58.7828       7.695309       0.00000
  27     28.12       51.0379        1.0999       57.6333       58.7332       7.695309       0.00000
  26     33.73       50.9825        1.3147       57.3631       58.6778       7.695309      -0.00000
  25     40.54       50.9157        1.5732       57.0379       58.6110       7.695309       0.00000
  24     48.69       50.8356        1.8830       56.6479       58.5309       7.695309       0.00000
  23     57.69       50.7479        2.2211       56.2221       58.4432       7.695309      -0.00000
  22     68.43       50.6440        2.6207       55.7186       58.3393       7.695309       0.00000
  21     81.20       50.5209        3.0923       55.1239       58.2163       7.695309      -0.00000
  20     96.49       50.3755        3.6480       54.4228       58.0708       7.695309       0.00000
  19     114.6       50.2044        4.2987       53.6010       57.8997       7.695309       0.00000
  18     136.5       50.0038        5.0573       52.6418       57.6991       7.695309      -0.00000
  17     162.9       49.7681        5.9430       51.5203       57.4634       7.695309       0.00000
  16     196.4       49.4675        7.0633       50.0994       57.1628       7.695309      -0.00000
  15     218.7       49.2730        7.7821       49.1863       56.9684       7.695309       0.00000
  14     243.0       49.0644        8.5484       48.2113       56.7597       7.695309      -0.00000
  13     269.0       48.8413        9.3617       47.1749       56.5366       7.695309       0.00000
  12     297.5       48.6037       10.2207       46.0783       56.2990       7.695309      -0.00000
  11     328.5       48.3508       11.1266       44.9195       56.0461       7.695309       0.00000
  10     361.9       48.0830       12.0765       43.7018       55.7784       7.695309       0.00000
   9     398.1       47.7998       13.0701       42.4250       55.4951       7.695309      -0.00000
   8     437.6       47.5012       14.1049       41.0916       55.1965       7.695309       0.00000
   7     480.5       47.1873       15.1781       39.7045       54.8826       7.695309       0.00000
   6     533.0       46.8092       16.4502       38.0543       54.5045       7.695309       0.00000
   5     589.8       46.4113       17.7635       36.3431       54.1066       7.695309      -0.00000
   4     651.6       45.9943       19.1100       34.5795       53.6896       7.695309       0.00000
   3     718.7       45.5584       20.4835       32.7702       53.2537       7.695309       0.00000
   2     792.3       45.1046       21.8744       30.9256       52.7999       7.695309       0.00000
   1     891.5       28.4664       35.8125        0.3489       36.1614       7.694992       0.00003
   0    1013.0       28.1939       35.5719        0.3170       35.8889       7.694992       0.00000



 Wavenumbers: 29000. - 38000. cm-1, ATM      1
 LEVEL PRESSURE   UPWARD FLUX   DIFDOWN FLUX  DIRDOWN FLUX  DOWNWARD FLUX   NET FLUX    HEATING RATE
          mb          W/m2          W/m2          W/m2        W/m2          W/m2       degree/day
  51    .06700        7.7879        0.0000       20.8114       20.8114      13.023502       0.00000
  50    .07753        7.7877        0.0003       20.8070       20.8074      13.019696       3.05054
  49    .09103        7.7874        0.0007       20.8009       20.8016      13.014161       3.45969
  48    0.1069        7.7872        0.0012       20.7928       20.7939      13.006753       3.94295
  47    0.1255        7.7869        0.0017       20.7820       20.7837      12.996852       4.48879
  46    0.1487        7.7865        0.0023       20.7665       20.7688      12.982294       5.30658
  45    0.1794        7.7860        0.0032       20.7424       20.7456      12.959637       6.21981
  44    0.2165        7.7855        0.0043       20.7103       20.7146      12.929125       6.94085
  43    0.2613        7.7848        0.0055       20.6675       20.6730      12.888146       7.72440
  42    0.3336        7.7839        0.0075       20.5880       20.5955      12.811615       8.92274
  41    0.4307        7.7827        0.0102       20.4722       20.4824      12.699709       9.73000
  40    0.5894        7.7810        0.0144       20.2637       20.2781      12.497116      10.77366
  39     1.339        7.7764        0.0324       19.0984       19.1308      11.354325      12.86575
  38     1.782        7.7761        0.0417       18.4394       18.4811      10.704980      12.36247
  37     2.292        7.7777        0.0517       17.7714       17.8231      10.045458      10.92341
  36     2.964        7.7825        0.0640       17.0421       17.1062       9.323643       9.06096
  35     3.853        7.7928        0.0795       16.2678       16.3473       8.554512       7.29919
  34     5.035        7.8102        0.0990       15.4803       15.5793       7.769042       5.61107
  33     6.613        7.8359        0.1238       14.7157       14.8395       7.003637       4.09185
  32     8.786        7.8699        0.1564       13.9936       14.1500       6.280129       2.80985
  31     11.80        7.9140        0.2017       13.2835       13.4853       5.571315       1.98446
  30     15.07        7.9562        0.2487       12.7394       12.9880       5.031821       1.39287
  29     18.79        7.9996        0.3006       12.2666       12.5672       4.567658       1.05240
  28     23.16        8.0453        0.3597       11.8300       12.1897       4.144350       0.81854
  27     28.12        8.0917        0.4257       11.4279       11.8536       3.761822       0.65027
  26     33.73        8.1336        0.4984       11.0695       11.5678       3.434217       0.49256
  25     40.54        8.1719        0.5851       10.7209       11.3060       3.134104       0.37232
  24     48.69        8.2063        0.6879       10.3742       11.0621       2.855795       0.28801
  23     57.69        8.2324        0.7991       10.0549       10.8540       2.621623       0.21950
  22     68.43        8.2501        0.9293        9.7327       10.6620       2.411958       0.16482
  21     81.20        8.2511        1.0829        9.4134       10.4963       2.245206       0.11019
  20     96.49        8.2333        1.2631        9.0887       10.3518       2.118588       0.06988
  19     114.6        8.2036        1.4710        8.7388       10.2098       2.006170       0.05249
  18     136.5        8.1643        1.7081        8.3549       10.0629       1.898609       0.04136
  17     162.9        8.1150        1.9775        7.9311        9.9086       1.793632       0.03355
  16     196.4        8.0417        2.3100        7.4333        9.7433       1.701581       0.02317
  15     218.7        7.9911        2.5184        7.1295        9.6480       1.656837       0.01699
  14     243.0        7.9361        2.7356        6.8161        9.5517       1.615635       0.01429
  13     269.0        7.8763        2.9607        6.4943        9.4550       1.578746       0.01197
  12     297.5        7.8118        3.1924        6.1657        9.3582       1.546329       0.00961
  11     328.5        7.7438        3.4298        5.8295        9.2592       1.515396       0.00841
  10     361.9        7.6727        3.6701        5.4886        9.1587       1.486084       0.00742
   9     398.1        7.5983        3.9128        5.1440        9.0567       1.458416       0.00645
   8     437.6        7.5212        4.1561        4.7969        8.9531       1.431857       0.00568
   7     480.5        7.4415        4.3979        4.4504        8.8483       1.406762       0.00493
   6     533.0        7.3475        4.6708        4.0563        8.7271       1.379552       0.00438
   5     589.8        7.2511        4.9363        3.6682        8.6045       1.353370       0.00389
   4     651.6        7.1531        5.1905        3.2905        8.4811       1.327928       0.00348
   3     718.7        7.0537        5.4317        2.9252        8.3569       1.303193       0.00311
   2     792.3        6.9533        5.6560        2.5764        8.2325       1.279177       0.00275
   1     891.5        4.5832        5.8116        0.0265        5.8381       1.254933       0.00206
   0    1013.0        4.5019        5.7135        0.0214        5.7349       1.233051       0.00152



 Wavenumbers: 38000. - 50000. cm-1, ATM      1
 LEVEL PRESSURE   UPWARD FLUX   DIFDOWN FLUX  DIRDOWN FLUX  DOWNWARD FLUX   NET FLUX    HEATING RATE
          mb          W/m2          W/m2          W/m2        W/m2          W/m2       degree/day
  51    .06700        0.0061        0.0000        1.2836        1.2836       1.277518       0.00000
  50    .07753        0.0061        0.0001        1.2812        1.2812       1.275183       1.87150
  49    .09103        0.0060        0.0002        1.2777        1.2778       1.271851       2.08247
  48    0.1069        0.0059        0.0002        1.2731        1.2734       1.267473       2.33059
  47    0.1255        0.0058        0.0004        1.2672        1.2675       1.261717       2.60908
  46    0.1487        0.0057        0.0005        1.2586        1.2591       1.253391       3.03499
  45    0.1794        0.0055        0.0007        1.2455        1.2462       1.240623       3.50520
  44    0.2165        0.0054        0.0009        1.2282        1.2291       1.223697       3.85037
  43    0.2613        0.0052        0.0011        1.2054        1.2065       1.201348       4.21261
  42    0.3336        0.0049        0.0015        1.1639        1.1654       1.160524       4.75970
  41    0.4307        0.0045        0.0020        1.1051        1.1070       1.102565       5.03943
  40    0.5894        0.0039        0.0026        1.0039        1.0064       1.002524       5.32007
  39     1.339        0.0022        0.0035        0.5438        0.5473       0.545104       5.14971
  38     1.782        0.0016        0.0032        0.3635        0.3666       0.365006       3.42879
  37     2.292        0.0012        0.0027        0.2356        0.2383       0.237058       2.11916
  36     2.964        0.0009        0.0022        0.1455        0.1477       0.146786       1.13318
  35     3.853        0.0006        0.0017        0.0858        0.0875       0.086906       0.56828
  34     5.035        0.0004        0.0013        0.0488        0.0501       0.049701       0.26578
  33     6.613        0.0003        0.0010        0.0273        0.0282       0.027974       0.11615
  32     8.786        0.0002        0.0007        0.0144        0.0151       0.014928       0.05067
  31     11.80        0.0001        0.0004        0.0065        0.0070       0.006903       0.02247
  30     15.07        0.0000        0.0003        0.0031        0.0034       0.003329       0.00923
  29     18.79        0.0000        0.0002        0.0014        0.0016       0.001583       0.00396
  28     23.16        0.0000        0.0001        0.0006        0.0007       0.000720       0.00167
  27     28.12        0.0000        0.0001        0.0003        0.0003       0.000317       0.00069
  26     33.73        0.0000        0.0000        0.0001        0.0001       0.000140       0.00027
  25     40.54        0.0000        0.0000        0.0000        0.0001       0.000057       0.00010
  24     48.69        0.0000        0.0000        0.0000        0.0000       0.000021       0.00004
  23     57.69        0.0000        0.0000        0.0000        0.0000       0.000008       0.00001
  22     68.43        0.0000        0.0000        0.0000        0.0000       0.000003       0.00000
  21     81.20        0.0000        0.0000        0.0000        0.0000       0.000001       0.00000
  20     96.49        0.0000        0.0000        0.0000        0.0000       0.000000       0.00000
  19     114.6        0.0000        0.0000        0.0000        0.0000       0.000000       0.00000
  18     136.5        0.0000        0.0000        0.0000        0.0000       0.000000       0.00000
  17     162.9        0.0000        0.0000        0.0000        0.0000       0.000000       0.00000
  16     196.4        0.0000        0.0000        0.0000        0.0000       0.000000       0.00000
  15     218.7        0.0000        0.0000        0.0000        0.0000       0.000000       0.00000
  14     243.0        0.0000        0.0000        0.0000        0.0000       0.000000       0.00000
  13     269.0        0.0000        0.0000        0.0000        0.0000       0.000000       0.00000
  12     297.5        0.0000        0.0000        0.0000        0.0000       0.000000       0.00000
  11     328.5        0.0000        0.0000        0.0000        0.0000       0.000000       0.00000
  10     361.9        0.0000        0.0000        0.0000        0.0000       0.000000       0.00000
   9     398.1        0.0000        0.0000        0.0000        0.0000       0.000000       0.00000
   8     437.6        0.0000        0.0000        0.0000        0.0000       0.000000       0.00000
   7     480.5        0.0000        0.0000        0.0000        0.0000       0.000000       0.00000
   6     533.0        0.0000        0.0000        0.0000        0.0000       0.000000       0.00000
   5     589.8        0.0000        0.0000        0.0000        0.0000       0.000000       0.00000
   4     651.6        0.0000        0.0000        0.0000        0.0000       0.000000       0.00000
   3     718.7        0.0000        0.0000        0.0000        0.0000       0.000000       0.00000
   2     792.3        0.0000        0.0000        0.0000        0.0000       0.000000       0.00000
   1     891.5        0.0000        0.0000        0.0000        0.0000       0.000000       0.00000
   0    1013.0        0.0000        0.0000        0.0000        0.0000       0.000000       0.00000



 Wavenumbers:   820. -  2600. cm-1, ATM      1
 LEVEL PRESSURE   UPWARD FLUX   DIFDOWN FLUX  DIRDOWN FLUX  DOWNWARD FLUX   NET FLUX    HEATING RATE
          mb          W/m2          W/m2          W/m2        W/m2          W/m2       degree/day
  51    .06700        1.2297        0.0000        6.0047        6.0047       4.774952       0.00000
  50    .07753        1.2297        0.0000        6.0008        6.0008       4.771099       3.08824
  49    .09103        1.2297        0.0000        5.9999        5.9999       4.770213       0.55360
  48    0.1069        1.2297        0.0000        5.9989        5.9989       4.769224       0.52655
  47    0.1255        1.2297        0.0000        5.9978        5.9978       4.768107       0.50652
  46    0.1487        1.2297        0.0000        5.9964        5.9964       4.766750       0.49460
  45    0.1794        1.2297        0.0000        5.9947        5.9947       4.765030       0.47203
  44    0.2165        1.2297        0.0000        5.9929        5.9929       4.763188       0.41913
  43    0.2613        1.2297        0.0000        5.9909        5.9909       4.761228       0.36936
  42    0.3336        1.2297        0.0000        5.9880        5.9880       4.758350       0.33559
  41    0.4307        1.2297        0.0000        5.9846        5.9846       4.754880       0.30168
  40    0.5894        1.2297        0.0000        5.9791        5.9791       4.749374       0.29280
  39     1.339        1.2297        0.0000        5.9536        5.9536       4.723884       0.28698
  38     1.782        1.2297        0.0000        5.9395        5.9395       4.709744       0.26921
  37     2.292        1.2297        0.0000        5.9237        5.9237       4.693990       0.26092
  36     2.964        1.2297        0.0000        5.9039        5.9039       4.674213       0.24826
  35     3.853        1.2297        0.0000        5.8793        5.8793       4.649553       0.23403
  34     5.035        1.2297        0.0000        5.8487        5.8487       4.618985       0.21837
  33     6.613        1.2297        0.0000        5.8108        5.8108       4.581013       0.20300
  32     8.786        1.2298        0.0000        5.7631        5.7631       4.533380       0.18499
  31     11.80        1.2298        0.0000        5.7039        5.7039       4.474109       0.16594
  30     15.07        1.2298        0.0000        5.6539        5.6539       4.424055       0.12923
  29     18.79        1.2298        0.0000        5.6127        5.6127       4.382900       0.09331
  28     23.16        1.2299        0.0000        5.5794        5.5794       4.349502       0.06458
  27     28.12        1.2299        0.0000        5.5518        5.5518       4.321908       0.04691
  26     33.73        1.2299        0.0000        5.5268        5.5268       4.296824       0.03772
  25     40.54        1.2300        0.0000        5.4993        5.4993       4.269340       0.03410
  24     48.69        1.2301        0.0000        5.4678        5.4678       4.237750       0.03269
  23     57.69        1.2301        0.0000        5.4340        5.4340       4.203906       0.03172
  22     68.43        1.2302        0.0000        5.3947        5.3948       4.164563       0.03093
  21     81.20        1.2303        0.0000        5.3497        5.3497       4.119444       0.02981
  20     96.49        1.2304        0.0000        5.2982        5.2982       4.067824       0.02849
  19     114.6        1.2305        0.0000        5.2389        5.2389       4.008369       0.02776
  18     136.5        1.2307        0.0000        5.1716        5.1717       3.940944       0.02593
  17     162.9        1.2310        0.0000        5.0890        5.0891       3.858073       0.02649
  16     196.4        1.2314        0.0000        4.9668        4.9668       3.735417       0.03087
  15     218.7        1.2318        0.0000        4.8585        4.8585       3.626630       0.04130
  14     243.0        1.2325        0.0000        4.7078        4.7079       3.475327       0.05248
  13     269.0        1.2336        0.0000        4.5343        4.5343       3.300727       0.05664
  12     297.5        1.2352        0.0000        4.3419        4.3420       3.106774       0.05752
  11     328.5        1.2374        0.0000        4.1281        4.1281       2.890759       0.05873
  10     361.9        1.2403        0.0000        3.8786        3.8787       2.638381       0.06385
   9     398.1        1.2441        0.0000        3.6159        3.6160       2.371885       0.06209
   8     437.6        1.2490        0.0000        3.3759        3.3759       2.126939       0.05237
   7     480.5        1.2549        0.0000        3.1957        3.1958       1.940849       0.03655
   6     533.0        1.2640        0.0000        3.0467        3.0467       1.782682       0.02544
   5     589.8        1.2774        0.0000        2.9023        2.9023       1.624892       0.02342
   4     651.6        1.3007        0.0001        2.7183        2.7184       1.417645       0.02834
   3     718.7        1.3410        0.0001        2.5058        2.5059       1.164843       0.03177
   2     792.3        1.4186        0.0001        2.2756        2.2757       0.857105       0.03529
   1     891.5        0.1188        0.6870        0.0240        0.7109       0.592197       0.02254
   0    1013.0        0.1433        0.5569        0.0189        0.5758       0.432509       0.01109

  Modules and versions used in this calculation:

       rrtmg_sw.1col.f90:  $Revision$                    rrtmg_sw_init.f90:  $Revision$        
     rrtmgsw_cldprop.f90:  $Revision$                  rrtmgsw_cldprmc.f90:  NOT USED          
     rrtmg_sw_reftra.f90:  $Revision$                  rrtmg_sw_spcvrt.f90:  NOT USED          
     rrtmg_sw_spcvmc.f90:  NOT USED                    rrtmgsw_setcoef.f90:  NOT USED          
     rrtmg_sw_taumol.f90:  $Revision$                  rrtmg_sw_vrtqdr.f90:  NOT USED          
                rrtatm.f:  NOT USED                             util_xxx.f:  NOT USED          
                 extra.f:  NOT USED                       rrtmg_sw_k_g.f90:  $Revision$        

