

 Wavenumbers:   820. - 50000. cm-1, ATM      1
 LEVEL PRESSURE   UPWARD FLUX   DIFDOWN FLUX  DIRDOWN FLUX  DOWNWARD FLUX   NET FLUX    HEATING RATE
          mb          W/m2          W/m2          W/m2        W/m2          W/m2       degree/day
  51    .06700      229.9648        0.0000      397.8738      397.8738     167.909028       0.00000
  50    .07753      229.9642        0.0012      397.8577      397.8589     167.894737      11.45454
  49    .09103      229.9634        0.0027      397.8418      397.8445     167.881049       8.55569
  48    0.1069      229.9626        0.0044      397.8230      397.8273     167.864700       8.70218
  47    0.1255      229.9617        0.0063      397.7997      397.8060     167.844257       9.26789
  46    0.1487      229.9606        0.0088      397.7676      397.7764     167.815799      10.37329
  45    0.1794      229.9592        0.0122      397.7205      397.7327     167.773506      11.61047
  44    0.2165      229.9575        0.0161      397.6602      397.6764     167.718856      12.43189
  43    0.2613      229.9557        0.0208      397.5829      397.6037     167.648057      13.34536
  42    0.3336      229.9528        0.0285      397.4449      397.4734     167.520614      14.85865
  41    0.4307      229.9493        0.0386      397.2524      397.2910     167.341737      15.55291
  40    0.5894      229.9441        0.0548      396.9253      396.9801     167.036004      16.25847
  39     1.339      229.9317        0.1275      395.4254      395.5529     165.621135      15.92886
  38     1.782      229.9323        0.1683      394.7288      394.8970     164.964762      12.49628
  37     2.292      229.9398        0.2146      394.0572      394.2718     164.332002      10.48015
  36     2.964      229.9600        0.2749      393.3007      393.5756     163.615594       8.99309
  35     3.853      230.0009        0.3536      392.4318      392.7855     162.784553       7.88673
  34     5.035      230.0694        0.4573      391.4441      391.9014     161.831993       6.80470
  33     6.613      230.1686        0.5946      390.3268      390.9214     160.752754       5.76961
  32     8.786      230.2966        0.7783      389.0624      389.8407     159.544057       4.69414
  31     11.80      230.4557        1.0390      387.5500      388.5890     158.133310       3.94965
  30     15.07      230.5983        1.3167      386.1556      387.4723     156.874043       3.25118
  29     18.79      230.7342        1.6280      384.7502      386.3782     155.643952       2.78900
  28     23.16      230.8641        1.9887      383.2686      385.2573     154.393247       2.41846
  27     28.12      230.9787        2.3979      381.7329      384.1308     153.152051       2.10995
  26     33.73      231.0575        2.8525      380.1982      383.0507     151.993256       1.74228
  25     40.54      231.0952        3.3979      378.5384      381.9363     150.841116       1.42936
  24     48.69      231.0856        4.0497      376.7214      380.7712     149.685507       1.19587
  23     57.69      231.0224        4.7591      374.8959      379.6550     148.632555       0.98698
  22     68.43      230.8906        5.5956      372.8999      378.4955     147.604944       0.80784
  21     81.20      230.6554        6.5819      370.7496      377.3315     146.676098       0.61377
  20     96.49      230.3046        7.7425      368.4056      376.1481     145.843519       0.45952
  19     114.6      229.8663        9.0988      365.7513      374.8501     144.983798       0.40143
  18     136.5      229.3313       10.6747      362.7231      373.3978     144.066507       0.35272
  17     162.9      228.6861       12.5078      359.1748      371.6825     142.996394       0.34205
  16     196.4      227.8206       14.8205      354.5718      369.3923     141.571736       0.35860
  15     218.7      227.2477       16.3008      351.4437      367.7445     140.496775       0.40812
  14     243.0      226.6295       17.8761      347.7111      365.5873     138.957782       0.53377
  13     269.0      225.9668       19.5450      342.9441      362.4891     136.522312       0.79006
  12     297.5      225.2615       21.3053      337.4137      358.7190     133.457504       0.90899
  11     328.5      224.5191       23.1589      331.1302      354.2892     129.770092       1.00260
  10     361.9      223.7448       25.1006      324.1219      349.2226     125.477771       1.08600
   9     398.1      222.9427       27.1301      316.6066      343.7367     120.793971       1.09122
   8     437.6      222.1229       29.2430      308.5895      337.8325     115.709569       1.08708
   7     480.5      221.3018       31.4337      299.9349      331.3686     110.066764       1.10823
   6     533.0      220.3801       34.0321      289.7021      323.7342     103.354117       1.07985
   5     589.8      219.5055       36.7183      279.3388      316.0570      96.551491       1.00973
   4     651.6      218.7245       39.4804      268.7786      308.2590      89.534540       0.95959
   3     718.7      218.0644       42.3100      258.2837      300.5937      82.529342       0.88036
   2     792.3      217.5542       45.1932      248.0774      293.2706      75.716443       0.78136
   1     891.5      217.2508       48.8601      235.5216      284.3817      67.130931       0.73059
   0    1013.0      217.7729       52.9448      221.4731      274.4179      56.645039       0.72809



 Wavenumbers:  2600. -  3250. cm-1, ATM      1
 LEVEL PRESSURE   UPWARD FLUX   DIFDOWN FLUX  DIRDOWN FLUX  DOWNWARD FLUX   NET FLUX    HEATING RATE
          mb          W/m2          W/m2          W/m2        W/m2          W/m2       degree/day
  51    .06700        0.5439        0.0000        3.5066        3.5066       2.962744       0.00000
  50    .07753        0.5439        0.0000        3.5066        3.5066       2.962736       0.00640
  49    .09103        0.5439        0.0000        3.5066        3.5066       2.962726       0.00627
  48    0.1069        0.5439        0.0000        3.5066        3.5066       2.962714       0.00613
  47    0.1255        0.5439        0.0000        3.5066        3.5066       2.962701       0.00599
  46    0.1487        0.5439        0.0000        3.5066        3.5066       2.962684       0.00607
  45    0.1794        0.5439        0.0000        3.5065        3.5065       2.962662       0.00624
  44    0.2165        0.5439        0.0000        3.5065        3.5065       2.962635       0.00611
  43    0.2613        0.5439        0.0000        3.5065        3.5065       2.962603       0.00598
  42    0.3336        0.5439        0.0000        3.5064        3.5064       2.962550       0.00615
  41    0.4307        0.5439        0.0000        3.5064        3.5064       2.962479       0.00618
  40    0.5894        0.5439        0.0000        3.5062        3.5062       2.962360       0.00633
  39     1.339        0.5439        0.0000        3.5055        3.5055       2.961661       0.00787
  38     1.782        0.5439        0.0000        3.5050        3.5050       2.961130       0.01011
  37     2.292        0.5439        0.0000        3.5043        3.5043       2.960438       0.01147
  36     2.964        0.5439        0.0000        3.5033        3.5033       2.959446       0.01245
  35     3.853        0.5439        0.0000        3.5019        3.5019       2.958069       0.01307
  34     5.035        0.5439        0.0000        3.5001        3.5001       2.956208       0.01329
  33     6.613        0.5439        0.0000        3.4977        3.4977       2.953799       0.01288
  32     8.786        0.5439        0.0000        3.4947        3.4947       2.950828       0.01154
  31     11.80        0.5439        0.0000        3.4911        3.4911       2.947192       0.01018
  30     15.07        0.5439        0.0000        3.4878        3.4878       2.943971       0.00832
  29     18.79        0.5439        0.0000        3.4848        3.4848       2.940908       0.00695
  28     23.16        0.5439        0.0000        3.4816        3.4816       2.937687       0.00623
  27     28.12        0.5439        0.0000        3.4779        3.4779       2.934069       0.00615
  26     33.73        0.5439        0.0000        3.4735        3.4735       2.929601       0.00672
  25     40.54        0.5439        0.0000        3.4671        3.4671       2.923274       0.00785
  24     48.69        0.5439        0.0000        3.4582        3.4583       2.914377       0.00921
  23     57.69        0.5439        0.0000        3.4472        3.4472       2.903326       0.01036
  22     68.43        0.5439        0.0000        3.4329        3.4329       2.889061       0.01121
  21     81.20        0.5439        0.0000        3.4152        3.4152       2.871326       0.01172
  20     96.49        0.5439        0.0000        3.3940        3.3941       2.850172       0.01168
  19     114.6        0.5439        0.0000        3.3692        3.3692       2.825269       0.01163
  18     136.5        0.5440        0.0001        3.3419        3.3420       2.798031       0.01047
  17     162.9        0.5440        0.0001        3.3129        3.3129       2.768925       0.00930
  16     196.4        0.5441        0.0001        3.2793        3.2794       2.735291       0.00847
  15     218.7        0.5442        0.0001        3.2578        3.2578       2.713612       0.00823
  14     243.0        0.5444        0.0001        3.2320        3.2321       2.687638       0.00901
  13     269.0        0.5447        0.0001        3.1968        3.1969       2.652226       0.01149
  12     297.5        0.5452        0.0001        3.1489        3.1491       2.603892       0.01434
  11     328.5        0.5458        0.0001        3.0821        3.0822       2.536333       0.01837
  10     361.9        0.5468        0.0001        2.9902        2.9904       2.443521       0.02348
   9     398.1        0.5483        0.0001        2.8715        2.8716       2.323365       0.02799
   8     437.6        0.5503        0.0001        2.7276        2.7278       2.177534       0.03118
   7     480.5        0.5532        0.0002        2.5595        2.5597       2.006473       0.03360
   6     533.0        0.5580        0.0002        2.3617        2.3619       1.803847       0.03260
   5     589.8        0.5650        0.0002        2.1649        2.1651       1.600063       0.03025
   4     651.6        0.5751        0.0002        1.9608        1.9609       1.385870       0.02929
   3     718.7        0.5887        0.0002        1.7593        1.7595       1.170762       0.02703
   2     792.3        0.6066        0.0002        1.5761        1.5762       0.969668       0.02306
   1     891.5        0.6372        0.0002        1.3714        1.3716       0.734373       0.02002
   0    1013.0        0.6926        0.0002        1.1584        1.1586       0.465975       0.01864



 Wavenumbers:  3250. -  4000. cm-1, ATM      1
 LEVEL PRESSURE   UPWARD FLUX   DIFDOWN FLUX  DIRDOWN FLUX  DOWNWARD FLUX   NET FLUX    HEATING RATE
          mb          W/m2          W/m2          W/m2        W/m2          W/m2       degree/day
  51    .06700        0.0004        0.0000        5.9117        5.9117       5.911227       0.00000
  50    .07753        0.0004        0.0000        5.9075        5.9075       5.907038       3.35808
  49    .09103        0.0004        0.0000        5.9050        5.9050       5.904595       1.52677
  48    0.1069        0.0004        0.0000        5.9032        5.9032       5.902729       0.99346
  47    0.1255        0.0004        0.0000        5.9014        5.9014       5.900970       0.79708
  46    0.1487        0.0004        0.0000        5.8995        5.8995       5.899082       0.68848
  45    0.1794        0.0004        0.0000        5.8974        5.8974       5.896933       0.58983
  44    0.2165        0.0004        0.0000        5.8952        5.8952       5.894816       0.48155
  43    0.2613        0.0004        0.0000        5.8931        5.8931       5.892657       0.40696
  42    0.3336        0.0004        0.0000        5.8899        5.8899       5.889499       0.36820
  41    0.4307        0.0004        0.0000        5.8861        5.8861       5.885662       0.33365
  40    0.5894        0.0004        0.0000        5.8803        5.8803       5.879859       0.30857
  39     1.339        0.0004        0.0000        5.8597        5.8597       5.859262       0.23189
  38     1.782        0.0004        0.0000        5.8513        5.8513       5.850837       0.16039
  37     2.292        0.0004        0.0000        5.8431        5.8431       5.842666       0.13533
  36     2.964        0.0004        0.0000        5.8334        5.8334       5.833027       0.12100
  35     3.853        0.0004        0.0000        5.8213        5.8213       5.820851       0.11555
  34     5.035        0.0004        0.0000        5.8052        5.8052       5.804756       0.11498
  33     6.613        0.0004        0.0000        5.7833        5.7834       5.782935       0.11666
  32     8.786        0.0004        0.0000        5.7531        5.7531       5.752733       0.11729
  31     11.80        0.0004        0.0000        5.7090        5.7090       5.708564       0.12366
  30     15.07        0.0004        0.0000        5.6615        5.6615       5.661100       0.12254
  29     18.79        0.0004        0.0000        5.6093        5.6094       5.608964       0.11821
  28     23.16        0.0004        0.0000        5.5524        5.5524       5.552038       0.11008
  27     28.12        0.0004        0.0000        5.4935        5.4935       5.493159       0.10009
  26     33.73        0.0004        0.0000        5.4348        5.4349       5.434470       0.08824
  25     40.54        0.0004        0.0001        5.3707        5.3708       5.370409       0.07948
  24     48.69        0.0004        0.0001        5.2985        5.2985       5.298176       0.07475
  23     57.69        0.0004        0.0001        5.2215        5.2216       5.221237       0.07212
  22     68.43        0.0003        0.0001        5.1318        5.1319       5.131577       0.07048
  21     81.20        0.0003        0.0001        5.0284        5.0285       5.028147       0.06834
  20     96.49        0.0003        0.0001        4.9122        4.9123       4.912013       0.06410
  19     114.6        0.0003        0.0001        4.7780        4.7782       4.777902       0.06262
  18     136.5        0.0003        0.0002        4.6285        4.6287       4.628424       0.05748
  17     162.9        0.0002        0.0002        4.4406        4.4407       4.440511       0.06006
  16     196.4        0.0002        0.0002        4.1548        4.1550       4.154838       0.07191
  15     218.7        0.0002        0.0002        3.9564        3.9566       3.956457       0.07532
  14     243.0        0.0002        0.0002        3.7055        3.7058       3.705623       0.08700
  13     269.0        0.0001        0.0002        3.3399        3.3401       3.339984       0.11861
  12     297.5        0.0001        0.0002        2.8954        2.8956       2.895494       0.13183
  11     328.5        0.0001        0.0002        2.4388        2.4390       2.438953       0.12413
  10     361.9        0.0001        0.0002        2.0269        2.0271       2.027015       0.10422
   9     398.1        0.0001        0.0002        1.6753        1.6755       1.675427       0.08191
   8     437.6        0.0001        0.0002        1.3592        1.3594       1.359308       0.06759
   7     480.5        0.0000        0.0002        1.0616        1.0618       1.061725       0.05844
   6     533.0        0.0000        0.0001        0.7543        0.7544       0.754391       0.04944
   5     589.8        0.0000        0.0001        0.4951        0.4952       0.495197       0.03847
   4     651.6        0.0000        0.0001        0.2943        0.2943       0.294299       0.02747
   3     718.7        0.0001        0.0001        0.1528        0.1529       0.152801       0.01778
   2     792.3        0.0001        0.0000        0.0658        0.0658       0.065760       0.00998
   1     891.5        0.0002        0.0000        0.0157        0.0157       0.015476       0.00428
   0    1013.0        0.0008        0.0000        0.0013        0.0013       0.000540       0.00104



 Wavenumbers:  4000. -  4650. cm-1, ATM      1
 LEVEL PRESSURE   UPWARD FLUX   DIFDOWN FLUX  DIRDOWN FLUX  DOWNWARD FLUX   NET FLUX    HEATING RATE
          mb          W/m2          W/m2          W/m2        W/m2          W/m2       degree/day
  51    .06700        2.3330        0.0000        6.9421        6.9421       4.609058       0.00000
  50    .07753        2.3330        0.0000        6.9421        6.9421       4.609057       0.00079
  49    .09103        2.3330        0.0000        6.9421        6.9421       4.609056       0.00078
  48    0.1069        2.3330        0.0000        6.9421        6.9421       4.609055       0.00076
  47    0.1255        2.3330        0.0000        6.9421        6.9421       4.609053       0.00074
  46    0.1487        2.3330        0.0000        6.9421        6.9421       4.609051       0.00075
  45    0.1794        2.3330        0.0000        6.9421        6.9421       4.609048       0.00077
  44    0.2165        2.3330        0.0000        6.9421        6.9421       4.609045       0.00076
  43    0.2613        2.3330        0.0000        6.9420        6.9420       4.609041       0.00074
  42    0.3336        2.3330        0.0000        6.9420        6.9420       4.609034       0.00076
  41    0.4307        2.3330        0.0000        6.9420        6.9420       4.609025       0.00077
  40    0.5894        2.3330        0.0000        6.9420        6.9420       4.609010       0.00079
  39     1.339        2.3330        0.0000        6.9419        6.9419       4.608922       0.00100
  38     1.782        2.3330        0.0000        6.9418        6.9419       4.608852       0.00132
  37     2.292        2.3330        0.0000        6.9418        6.9418       4.608759       0.00155
  36     2.964        2.3330        0.0000        6.9416        6.9416       4.608619       0.00175
  35     3.853        2.3330        0.0000        6.9414        6.9414       4.608413       0.00196
  34     5.035        2.3330        0.0000        6.9411        6.9411       4.608108       0.00218
  33     6.613        2.3330        0.0000        6.9406        6.9407       4.607660       0.00239
  32     8.786        2.3330        0.0000        6.9399        6.9400       4.607000       0.00256
  31     11.80        2.3330        0.0000        6.9389        6.9389       4.605966       0.00290
  30     15.07        2.3330        0.0001        6.9377        6.9377       4.604756       0.00312
  29     18.79        2.3330        0.0001        6.9362        6.9363       4.603297       0.00331
  28     23.16        2.3329        0.0001        6.9343        6.9344       4.601493       0.00349
  27     28.12        2.3329        0.0001        6.9321        6.9323       4.599319       0.00370
  26     33.73        2.3329        0.0001        6.9294        6.9296       4.596651       0.00401
  25     40.54        2.3329        0.0002        6.9258        6.9260       4.593054       0.00446
  24     48.69        2.3329        0.0002        6.9210        6.9212       4.588292       0.00493
  23     57.69        2.3329        0.0002        6.9154        6.9156       4.582690       0.00525
  22     68.43        2.3329        0.0003        6.9083        6.9086       4.575725       0.00548
  21     81.20        2.3329        0.0003        6.8998        6.9001       4.567207       0.00563
  20     96.49        2.3329        0.0004        6.8894        6.8898       4.556918       0.00568
  19     114.6        2.3330        0.0005        6.8765        6.8770       4.544035       0.00602
  18     136.5        2.3330        0.0005        6.8610        6.8615       4.528488       0.00598
  17     162.9        2.3332        0.0006        6.8417        6.8423       4.509139       0.00618
  16     196.4        2.3335        0.0008        6.8147        6.8155       4.481976       0.00684
  15     218.7        2.3338        0.0009        6.7948        6.7957       4.461953       0.00760
  14     243.0        2.3342        0.0010        6.7698        6.7707       4.436539       0.00881
  13     269.0        2.3350        0.0011        6.7349        6.7359       4.400959       0.01154
  12     297.5        2.3361        0.0012        6.6869        6.6880       4.351908       0.01455
  11     328.5        2.3378        0.0013        6.6194        6.6206       4.282867       0.01877
  10     361.9        2.3400        0.0014        6.5295        6.5309       4.190869       0.02328
   9     398.1        2.3429        0.0015        6.4202        6.4217       4.078857       0.02610
   8     437.6        2.3467        0.0017        6.2962        6.2978       3.951149       0.02730
   7     480.5        2.3518        0.0018        6.1555        6.1573       3.805481       0.02861
   6     533.0        2.3600        0.0019        5.9675        5.9695       3.609507       0.03153
   5     589.8        2.3717        0.0021        5.7368        5.7388       3.367148       0.03597
   4     651.6        2.3886        0.0022        5.4662        5.4685       3.079838       0.03929
   3     718.7        2.4117        0.0024        5.1912        5.1936       2.781868       0.03745
   2     792.3        2.4414        0.0025        4.9395        4.9420       2.500590       0.03226
   1     891.5        2.4922        0.0027        4.6486        4.6513       2.159131       0.02906
   0    1013.0        2.5831        0.0029        4.3179        4.3208       1.737712       0.02926



 Wavenumbers:  4650. -  5150. cm-1, ATM      1
 LEVEL PRESSURE   UPWARD FLUX   DIFDOWN FLUX  DIRDOWN FLUX  DOWNWARD FLUX   NET FLUX    HEATING RATE
          mb          W/m2          W/m2          W/m2        W/m2          W/m2       degree/day
  51    .06700        1.5748        0.0000        6.5710        6.5710       4.996242       0.00000
  50    .07753        1.5748        0.0000        6.5708        6.5708       4.996006       0.18887
  49    .09103        1.5748        0.0000        6.5705        6.5705       4.995712       0.18362
  48    0.1069        1.5748        0.0000        6.5701        6.5701       4.995378       0.17806
  47    0.1255        1.5748        0.0000        6.5697        6.5697       4.994997       0.17238
  46    0.1487        1.5748        0.0000        6.5693        6.5693       4.994524       0.17268
  45    0.1794        1.5748        0.0000        6.5686        6.5686       4.993887       0.17473
  44    0.2165        1.5748        0.0000        6.5679        6.5679       4.993149       0.16788
  43    0.2613        1.5748        0.0000        6.5670        6.5670       4.992296       0.16078
  42    0.3336        1.5748        0.0000        6.5657        6.5657       4.990933       0.15894
  41    0.4307        1.5748        0.0000        6.5640        6.5640       4.989211       0.14971
  40    0.5894        1.5748        0.0000        6.5613        6.5613       4.986595       0.13913
  39     1.339        1.5747        0.0000        6.5516        6.5516       4.976817       0.11008
  38     1.782        1.5747        0.0000        6.5473        6.5473       4.972601       0.08026
  37     2.292        1.5747        0.0000        6.5434        6.5435       4.968714       0.06438
  36     2.964        1.5747        0.0000        6.5395        6.5395       4.964760       0.04964
  35     3.853        1.5747        0.0000        6.5355        6.5356       4.960817       0.03742
  34     5.035        1.5747        0.0000        6.5315        6.5315       4.956814       0.02859
  33     6.613        1.5747        0.0000        6.5271        6.5271       4.952420       0.02349
  32     8.786        1.5747        0.0001        6.5216        6.5216       4.946924       0.02134
  31     11.80        1.5747        0.0001        6.5135        6.5135       4.938844       0.02262
  30     15.07        1.5747        0.0001        6.5041        6.5042       4.929473       0.02419
  29     18.79        1.5747        0.0001        6.4925        6.4926       4.917954       0.02612
  28     23.16        1.5747        0.0001        6.4779        6.4780       4.903358       0.02822
  27     28.12        1.5747        0.0002        6.4599        6.4600       4.885377       0.03057
  26     33.73        1.5747        0.0002        6.4384        6.4386       4.863938       0.03223
  25     40.54        1.5747        0.0002        6.4112        6.4115       4.836803       0.03366
  24     48.69        1.5747        0.0003        6.3775        6.3778       4.803151       0.03482
  23     57.69        1.5747        0.0003        6.3404        6.3407       4.766041       0.03479
  22     68.43        1.5747        0.0004        6.2971        6.2975       4.722826       0.03397
  21     81.20        1.5748        0.0005        6.2483        6.2487       4.673977       0.03228
  20     96.49        1.5748        0.0006        6.1948        6.1954       4.620559       0.02948
  19     114.6        1.5749        0.0007        6.1381        6.1388       4.563859       0.02647
  18     136.5        1.5751        0.0008        6.0790        6.0798       4.504662       0.02276
  17     162.9        1.5754        0.0009        6.0160        6.0170       4.441577       0.02016
  16     196.4        1.5758        0.0011        5.9399        5.9410       4.365136       0.01924
  15     218.7        1.5762        0.0012        5.8896        5.8909       4.314637       0.01917
  14     243.0        1.5767        0.0013        5.8322        5.8335       4.256788       0.02006
  13     269.0        1.5775        0.0015        5.7624        5.7639       4.186341       0.02285
  12     297.5        1.5787        0.0016        5.6767        5.6783       4.099633       0.02572
  11     328.5        1.5804        0.0018        5.5726        5.5744       3.994001       0.02872
  10     361.9        1.5826        0.0019        5.4473        5.4492       3.866640       0.03222
   9     398.1        1.5856        0.0021        5.2995        5.3015       3.715917       0.03511
   8     437.6        1.5897        0.0022        5.1275        5.1297       3.539979       0.03762
   7     480.5        1.5952        0.0024        4.9290        4.9313       3.336089       0.04004
   6     533.0        1.6040        0.0025        4.6794        4.6819       3.077933       0.04153
   5     589.8        1.6161        0.0027        4.4188        4.4214       2.805391       0.04045
   4     651.6        1.6330        0.0028        4.1521        4.1549       2.521937       0.03876
   3     718.7        1.6555        0.0029        3.8929        3.8959       2.240433       0.03538
   2     792.3        1.6845        0.0031        3.6469        3.6500       1.965430       0.03154
   1     891.5        1.7340        0.0033        3.3535        3.3567       1.622775       0.02916
   0    1013.0        1.8185        0.0034        3.0383        3.0418       1.223277       0.02774



 Wavenumbers:  5150. -  6150. cm-1, ATM      1
 LEVEL PRESSURE   UPWARD FLUX   DIFDOWN FLUX  DIRDOWN FLUX  DOWNWARD FLUX   NET FLUX    HEATING RATE
          mb          W/m2          W/m2          W/m2        W/m2          W/m2       degree/day
  51    .06700        4.2506        0.0000       16.4735       16.4735      12.222877       0.00000
  50    .07753        4.2506        0.0000       16.4735       16.4735      12.222843       0.02762
  49    .09103        4.2506        0.0000       16.4734       16.4734      12.222798       0.02812
  48    0.1069        4.2506        0.0000       16.4734       16.4734      12.222744       0.02860
  47    0.1255        4.2506        0.0000       16.4733       16.4733      12.222680       0.02905
  46    0.1487        4.2506        0.0000       16.4732       16.4732      12.222596       0.03061
  45    0.1794        4.2506        0.0000       16.4731       16.4731      12.222477       0.03270
  44    0.2165        4.2506        0.0000       16.4730       16.4730      12.222331       0.03332
  43    0.2613        4.2506        0.0000       16.4728       16.4728      12.222151       0.03377
  42    0.3336        4.2506        0.0000       16.4725       16.4725      12.221846       0.03565
  41    0.4307        4.2506        0.0000       16.4720       16.4720      12.221426       0.03646
  40    0.5894        4.2506        0.0000       16.4713       16.4713      12.220725       0.03730
  39     1.339        4.2506        0.0000       16.4679       16.4679      12.217315       0.03839
  38     1.782        4.2506        0.0000       16.4659       16.4659      12.215314       0.03809
  37     2.292        4.2506        0.0001       16.4635       16.4636      12.213022       0.03797
  36     2.964        4.2506        0.0001       16.4605       16.4606      12.210050       0.03730
  35     3.853        4.2506        0.0001       16.4567       16.4568      12.206194       0.03660
  34     5.035        4.2505        0.0001       16.4516       16.4517      12.201193       0.03573
  33     6.613        4.2505        0.0002       16.4451       16.4452      12.194725       0.03457
  32     8.786        4.2505        0.0002       16.4367       16.4369      12.186404       0.03232
  31     11.80        4.2504        0.0003       16.4254       16.4257      12.175237       0.03126
  30     15.07        4.2504        0.0004       16.4141       16.4145      12.164132       0.02867
  29     18.79        4.2504        0.0005       16.4024       16.4030      12.152589       0.02617
  28     23.16        4.2503        0.0006       16.3900       16.3906      12.140301       0.02376
  27     28.12        4.2503        0.0008       16.3771       16.3779      12.127603       0.02158
  26     33.73        4.2502        0.0009       16.3641       16.3650      12.114835       0.01920
  25     40.54        4.2502        0.0011       16.3502       16.3513      12.101138       0.01699
  24     48.69        4.2501        0.0013       16.3354       16.3367      12.086590       0.01506
  23     57.69        4.2501        0.0016       16.3211       16.3227      12.072599       0.01311
  22     68.43        4.2500        0.0019       16.3062       16.3081      12.058097       0.01140
  21     81.20        4.2500        0.0022       16.2903       16.2925      12.042562       0.01027
  20     96.49        4.2500        0.0026       16.2726       16.2753      12.025313       0.00952
  19     114.6        4.2499        0.0031       16.2521       16.2552      12.005284       0.00935
  18     136.5        4.2499        0.0037       16.2245       16.2283      11.978360       0.01035
  17     162.9        4.2499        0.0044       16.1747       16.1792      11.929250       0.01570
  16     196.4        4.2499        0.0053       16.0518       16.0571      11.807201       0.03072
  15     218.7        4.2500        0.0059       15.8984       15.9042      11.654246       0.05807
  14     243.0        4.2501        0.0064       15.6153       15.6217      11.371585       0.09804
  13     269.0        4.2503        0.0070       15.1390       15.1460      10.895635       0.15440
  12     297.5        4.2507        0.0075       14.5779       14.5854      10.334657       0.16638
  11     328.5        4.2514        0.0080       13.8780       13.8860       9.634610       0.19034
  10     361.9        4.2525        0.0084       13.0814       13.0899       8.837429       0.20169
   9     398.1        4.2540        0.0088       12.2728       12.2817       8.027695       0.18865
   8     437.6        4.2562        0.0092       11.4776       11.4868       7.230529       0.17044
   7     480.5        4.2596        0.0095       10.7300       10.7395       6.479878       0.14743
   6     533.0        4.2654        0.0099       10.0326       10.0425       5.777095       0.11306
   5     589.8        4.2743        0.0105        9.5050        9.5155       5.241159       0.07955
   4     651.6        4.2878        0.0111        9.0814        9.0925       4.804615       0.05970
   3     718.7        4.3071        0.0118        8.7024        8.7142       4.407120       0.04995
   2     792.3        4.3332        0.0126        8.3379        8.3505       4.017376       0.04470
   1     891.5        4.3807        0.0136        7.9064        7.9200       3.539226       0.04069
   0    1013.0        4.4774        0.0147        7.4741        7.4888       3.011487       0.03664



 Wavenumbers:  6150. -  7700. cm-1, ATM      1
 LEVEL PRESSURE   UPWARD FLUX   DIFDOWN FLUX  DIRDOWN FLUX  DOWNWARD FLUX   NET FLUX    HEATING RATE
          mb          W/m2          W/m2          W/m2        W/m2          W/m2       degree/day
  51    .06700        6.2296        0.0000       30.4684       30.4684      24.238744       0.00000
  50    .07753        6.2296        0.0000       30.4683       30.4683      24.238692       0.04144
  49    .09103        6.2296        0.0000       30.4683       30.4683      24.238626       0.04174
  48    0.1069        6.2296        0.0000       30.4682       30.4682      24.238547       0.04202
  47    0.1255        6.2296        0.0000       30.4681       30.4681      24.238453       0.04227
  46    0.1487        6.2296        0.0000       30.4680       30.4680      24.238332       0.04411
  45    0.1794        6.2296        0.0000       30.4678       30.4678      24.238162       0.04669
  44    0.2165        6.2296        0.0000       30.4676       30.4676      24.237955       0.04715
  43    0.2613        6.2296        0.0000       30.4673       30.4673      24.237703       0.04744
  42    0.3336        6.2296        0.0000       30.4669       30.4669      24.237277       0.04974
  41    0.4307        6.2296        0.0000       30.4663       30.4663      24.236696       0.05052
  40    0.5894        6.2296        0.0001       30.4653       30.4653      24.235728       0.05146
  39     1.339        6.2295        0.0001       30.4604       30.4606      24.231044       0.05273
  38     1.782        6.2295        0.0002       30.4576       30.4578      24.228295       0.05235
  37     2.292        6.2294        0.0003       30.4543       30.4546      24.225136       0.05231
  36     2.964        6.2294        0.0003       30.4501       30.4504      24.221029       0.05156
  35     3.853        6.2293        0.0004       30.4445       30.4450      24.215672       0.05084
  34     5.035        6.2292        0.0006       30.4373       30.4378      24.208672       0.05000
  33     6.613        6.2290        0.0008       30.4278       30.4285      24.199524       0.04890
  32     8.786        6.2288        0.0010       30.4154       30.4164      24.187572       0.04642
  31     11.80        6.2285        0.0013       30.3984       30.3997      24.171186       0.04587
  30     15.07        6.2282        0.0017       30.3810       30.3827      24.154472       0.04315
  29     18.79        6.2279        0.0021       30.3623       30.3644      24.136572       0.04059
  28     23.16        6.2275        0.0026       30.3417       30.3443      24.116889       0.03806
  27     28.12        6.2270        0.0032       30.3196       30.3228      24.095788       0.03587
  26     33.73        6.2265        0.0038       30.2965       30.3003      24.073869       0.03296
  25     40.54        6.2258        0.0046       30.2708       30.2754      24.049532       0.03019
  24     48.69        6.2251        0.0055       30.2423       30.2478      24.022755       0.02771
  23     57.69        6.2242        0.0065       30.2139       30.2204      23.996188       0.02490
  22     68.43        6.2232        0.0078       30.1834       30.1911      23.967912       0.02223
  21     81.20        6.2220        0.0092       30.1500       30.1592      23.937181       0.02031
  20     96.49        6.2206        0.0109       30.1126       30.1235      23.902961       0.01889
  19     114.6        6.2189        0.0130       30.0695       30.0825      23.863572       0.01839
  18     136.5        6.2169        0.0154       30.0139       30.0293      23.812412       0.01967
  17     162.9        6.2145        0.0183       29.9225       29.9407      23.726222       0.02755
  16     196.4        6.2115        0.0219       29.7333       29.7553      23.543807       0.04592
  15     218.7        6.2095        0.0243       29.5259       29.5502      23.340648       0.07713
  14     243.0        6.2075        0.0268       29.1375       29.1642      22.956767       0.13314
  13     269.0        6.2055        0.0291       28.3800       28.4092      22.203664       0.24430
  12     297.5        6.2037        0.0314       27.3895       27.4209      21.217237       0.29256
  11     328.5        6.2023        0.0335       26.2257       26.2592      20.056916       0.31549
  10     361.9        6.2017        0.0355       24.8453       24.8808      18.679167       0.34858
   9     398.1        6.2021        0.0372       23.3471       23.3843      17.182162       0.34877
   8     437.6        6.2044        0.0387       21.7966       21.8354      15.630966       0.33166
   7     480.5        6.2098        0.0399       20.1977       20.2376      14.027893       0.31484
   6     533.0        6.2215        0.0412       18.4969       18.5381      12.316646       0.27529
   5     589.8        6.2419        0.0424       16.9754       17.0178      10.775906       0.22870
   4     651.6        6.2758        0.0437       15.6022       15.6459       9.370069       0.19225
   3     718.7        6.3263        0.0451       14.4232       14.4683       8.141999       0.15433
   2     792.3        6.3963        0.0468       13.4386       13.4854       7.089154       0.12075
   1     891.5        6.5253        0.0492       12.3736       12.4228       5.897417       0.10141
   0    1013.0        6.7826        0.0518       11.2911       11.3429       4.560280       0.09284



 Wavenumbers:  7700. -  8050. cm-1, ATM      1
 LEVEL PRESSURE   UPWARD FLUX   DIFDOWN FLUX  DIRDOWN FLUX  DOWNWARD FLUX   NET FLUX    HEATING RATE
          mb          W/m2          W/m2          W/m2        W/m2          W/m2       degree/day
  51    .06700        3.2348        0.0000        7.2006        7.2006       3.965810       0.00000
  50    .07753        3.2348        0.0000        7.2006        7.2006       3.965790       0.01586
  49    .09103        3.2348        0.0000        7.2005        7.2005       3.965765       0.01555
  48    0.1069        3.2348        0.0000        7.2005        7.2005       3.965737       0.01522
  47    0.1255        3.2348        0.0000        7.2005        7.2005       3.965704       0.01489
  46    0.1487        3.2348        0.0000        7.2004        7.2005       3.965662       0.01511
  45    0.1794        3.2348        0.0000        7.2004        7.2004       3.965606       0.01555
  44    0.2165        3.2348        0.0000        7.2003        7.2003       3.965539       0.01525
  43    0.2613        3.2348        0.0000        7.2003        7.2003       3.965459       0.01497
  42    0.3336        3.2348        0.0000        7.2001        7.2001       3.965328       0.01531
  41    0.4307        3.2348        0.0000        7.2000        7.2000       3.965154       0.01515
  40    0.5894        3.2349        0.0000        7.1997        7.1997       3.964869       0.01513
  39     1.339        3.2350        0.0001        7.1984        7.1985       3.963524       0.01515
  38     1.782        3.2350        0.0001        7.1977        7.1978       3.962734       0.01504
  37     2.292        3.2351        0.0001        7.1968        7.1969       3.961819       0.01514
  36     2.964        3.2352        0.0001        7.1957        7.1958       3.960619       0.01506
  35     3.853        3.2354        0.0002        7.1942        7.1944       3.959035       0.01504
  34     5.035        3.2355        0.0002        7.1922        7.1925       3.956931       0.01503
  33     6.613        3.2358        0.0003        7.1896        7.1899       3.954124       0.01501
  32     8.786        3.2361        0.0004        7.1860        7.1865       3.950345       0.01467
  31     11.80        3.2366        0.0006        7.1810        7.1815       3.944952       0.01510
  30     15.07        3.2371        0.0007        7.1755        7.1763       3.939176       0.01491
  29     18.79        3.2377        0.0009        7.1694        7.1703       3.932670       0.01475
  28     23.16        3.2384        0.0011        7.1623        7.1635       3.925098       0.01464
  27     28.12        3.2391        0.0014        7.1542        7.1556       3.916474       0.01466
  26     33.73        3.2400        0.0016        7.1452        7.1469       3.906869       0.01444
  25     40.54        3.2411        0.0020        7.1344        7.1364       3.895329       0.01432
  24     48.69        3.2423        0.0023        7.1215        7.1239       3.881511       0.01430
  23     57.69        3.2438        0.0028        7.1074        7.1102       3.866452       0.01412
  22     68.43        3.2455        0.0033        7.0909        7.0941       3.848677       0.01397
  21     81.20        3.2475        0.0039        7.0713        7.0752       3.827726       0.01384
  20     96.49        3.2500        0.0046        7.0484        7.0530       3.803073       0.01361
  19     114.6        3.2529        0.0055        7.0217        7.0271       3.774227       0.01347
  18     136.5        3.2565        0.0065        6.9906        6.9971       3.740610       0.01293
  17     162.9        3.2607        0.0077        6.9544        6.9621       3.701339       0.01255
  16     196.4        3.2664        0.0092        6.9087        6.9180       3.651580       0.01253
  15     218.7        3.2702        0.0103        6.8794        6.8897       3.619505       0.01218
  14     243.0        3.2743        0.0114        6.8481        6.8595       3.585124       0.01192
  13     269.0        3.2790        0.0125        6.8147        6.8273       3.548296       0.01195
  12     297.5        3.2841        0.0138        6.7791        6.7929       3.508811       0.01171
  11     328.5        3.2898        0.0152        6.7409        6.7562       3.466337       0.01155
  10     361.9        3.2963        0.0167        6.7002        6.7168       3.420597       0.01157
   9     398.1        3.3035        0.0183        6.6563        6.6746       3.371032       0.01155
   8     437.6        3.3118        0.0200        6.6089        6.6288       3.317055       0.01154
   7     480.5        3.3213        0.0218        6.5570        6.5788       3.257459       0.01170
   6     533.0        3.3341        0.0240        6.4915        6.5155       3.181346       0.01224
   5     589.8        3.3495        0.0264        6.4182        6.4446       3.095177       0.01279
   4     651.6        3.3679        0.0289        6.3359        6.3648       2.996934       0.01344
   3     718.7        3.3898        0.0316        6.2441        6.2757       2.885907       0.01395
   2     792.3        3.4156        0.0344        6.1437        6.1782       2.762567       0.01415
   1     891.5        3.4543        0.0382        6.0042        6.0423       2.588059       0.01485
   0    1013.0        3.5090        0.0425        5.8249        5.8674       2.358351       0.01595



 Wavenumbers:  8050. - 12850. cm-1, ATM      1
 LEVEL PRESSURE   UPWARD FLUX   DIFDOWN FLUX  DIRDOWN FLUX  DOWNWARD FLUX   NET FLUX    HEATING RATE
          mb          W/m2          W/m2          W/m2        W/m2          W/m2       degree/day
  51    .06700       41.1030        0.0000      100.8135      100.8135      59.710487       0.00000
  50    .07753       41.1030        0.0000      100.8135      100.8135      59.710487       0.00000
  49    .09103       41.1030        0.0001      100.8134      100.8135      59.710487      -0.00000
  48    0.1069       41.1030        0.0001      100.8134      100.8135      59.710487       0.00000
  47    0.1255       41.1029        0.0001      100.8133      100.8134      59.710487       0.00000
  46    0.1487       41.1029        0.0002      100.8132      100.8134      59.710487      -0.00000
  45    0.1794       41.1028        0.0003      100.8131      100.8133      59.710487       0.00000
  44    0.2165       41.1028        0.0004      100.8129      100.8133      59.710487       0.00000
  43    0.2613       41.1027        0.0005      100.8127      100.8132      59.710487       0.00000
  42    0.3336       41.1026        0.0006      100.8125      100.8131      59.710487      -0.00000
  41    0.4307       41.1024        0.0009      100.8121      100.8129      59.710487      -0.00000
  40    0.5894       41.1022        0.0012      100.8115      100.8127      59.710487      -0.00000
  39     1.339       41.1010        0.0030      100.8085      100.8115      59.710487       0.00000
  38     1.782       41.1003        0.0040      100.8068      100.8108      59.710487       0.00000
  37     2.292       41.0995        0.0052      100.8047      100.8100      59.710487       0.00000
  36     2.964       41.0984        0.0068      100.8021      100.8089      59.710487       0.00000
  35     3.853       41.0970        0.0089      100.7986      100.8075      59.710487       0.00000
  34     5.035       41.0951        0.0117      100.7940      100.8056      59.710487      -0.00000
  33     6.613       41.0926        0.0154      100.7878      100.8031      59.710487      -0.00000
  32     8.786       41.0893        0.0203      100.7794      100.7998      59.710487       0.00000
  31     11.80       41.0844        0.0275      100.7674      100.7949      59.710487      -0.00000
  30     15.07       41.0792        0.0352      100.7546      100.7897      59.710487       0.00000
  29     18.79       41.0734        0.0439      100.7400      100.7839      59.710487      -0.00000
  28     23.16       41.0665        0.0540      100.7230      100.7770      59.710487      -0.00000
  27     28.12       41.0586        0.0656      100.7035      100.7691      59.710487       0.00000
  26     33.73       41.0498        0.0786      100.6817      100.7603      59.710487       0.00000
  25     40.54       41.0392        0.0944      100.6552      100.7496      59.710487       0.00000
  24     48.69       41.0263        0.1134      100.6234      100.7368      59.710487      -0.00000
  23     57.69       41.0121        0.1343      100.5883      100.7226      59.710487       0.00000
  22     68.43       40.9952        0.1593      100.5464      100.7057      59.710487      -0.00000
  21     81.20       40.9751        0.1890      100.4965      100.6856      59.710487      -0.00000
  20     96.49       40.9510        0.2245      100.4370      100.6615      59.710487       0.00000
  19     114.6       40.9225        0.2668      100.3585      100.6252      59.702759       0.00361
  18     136.5       40.8886        0.3169      100.2634      100.5803      59.691641       0.00428
  17     162.9       40.8483        0.3767      100.1407      100.5174      59.669095       0.00721
  16     196.4       40.7959        0.4544       99.9505      100.4049      59.608932       0.01514
  15     218.7       40.7615        0.5054       99.7889      100.2943      59.532803       0.02890
  14     243.0       40.7243        0.5608       99.5472      100.1080      59.383684       0.05172
  13     269.0       40.6846        0.6205       99.1452       99.7657      59.081108       0.09815
  12     297.5       40.6430        0.6846       98.5975       99.2820      58.639009       0.13112
  11     328.5       40.6003        0.7532       97.8659       98.6191      58.018727       0.16865
  10     361.9       40.5579        0.8261       96.8848       97.7109      57.152957       0.21905
   9     398.1       40.5177        0.9032       95.6330       96.5361      56.018460       0.26431
   8     437.6       40.4829        0.9838       94.0655       95.0493      54.566374       0.31046
   7     480.5       40.4605        1.0672       92.0807       93.1480      52.687532       0.36900
   6     533.0       40.4577        1.1658       89.4449       90.6107      50.153027       0.40772
   5     589.8       40.4915        1.2677       86.5544       87.8221      47.330600       0.41894
   4     651.6       40.5825        1.3724       83.4174       84.7898      44.207330       0.42712
   3     718.7       40.7432        1.4807       80.2037       81.6844      40.941224       0.41046
   2     792.3       40.9849        1.5932       77.0811       78.6743      37.689378       0.37295
   1     891.5       41.4594        1.7387       73.2645       75.0032      33.543830       0.35277
   0    1013.0       42.4180        1.9011       68.9425       70.8436      28.425615       0.35538



 Wavenumbers: 12850. - 16000. cm-1, ATM      1
 LEVEL PRESSURE   UPWARD FLUX   DIFDOWN FLUX  DIRDOWN FLUX  DOWNWARD FLUX   NET FLUX    HEATING RATE
          mb          W/m2          W/m2          W/m2        W/m2          W/m2       degree/day
  51    .06700       41.9792        0.0000       63.1686       63.1686      21.189344       0.00000
  50    .07753       41.9792        0.0001       63.1677       63.1678      21.188563       0.62596
  49    .09103       41.9792        0.0001       63.1666       63.1668      21.187589       0.60852
  48    0.1069       41.9792        0.0002       63.1654       63.1656      21.186480       0.59031
  47    0.1255       41.9791        0.0003       63.1640       63.1643      21.185219       0.57205
  46    0.1487       41.9791        0.0004       63.1623       63.1627      21.183644       0.57392
  45    0.1794       41.9790        0.0006       63.1600       63.1606      21.181532       0.57994
  44    0.2165       41.9790        0.0008       63.1573       63.1581      21.179087       0.55610
  43    0.2613       41.9790        0.0010       63.1542       63.1553      21.176265       0.53193
  42    0.3336       41.9790        0.0014       63.1493       63.1507      21.171764       0.52474
  41    0.4307       41.9790        0.0020       63.1431       63.1451      21.166128       0.49004
  40    0.5894       41.9791        0.0028       63.1338       63.1366      21.157574       0.45488
  39     1.339       41.9810        0.0068       63.0956       63.1024      21.121398       0.40728
  38     1.782       41.9832        0.0092       63.0740       63.0832      21.099957       0.40819
  37     2.292       41.9869        0.0119       63.0477       63.0596      21.072682       0.45176
  36     2.964       41.9933        0.0155       63.0095       63.0250      21.031755       0.51375
  35     3.853       42.0039        0.0202       62.9533       62.9735      20.969563       0.59022
  34     5.035       42.0202        0.0265       62.8725       62.8990      20.878736       0.64883
  33     6.613       42.0432        0.0348       62.7621       62.7969      20.753704       0.66842
  32     8.786       42.0730        0.0461       62.6182       62.6643      20.591382       0.63040
  31     11.80       42.1112        0.0621       62.4284       62.4905      20.379333       0.59367
  30     15.07       42.1471        0.0793       62.2426       62.3220      20.174812       0.52803
  29     18.79       42.1832        0.0987       62.0493       62.1480      19.964811       0.47614
  28     23.16       42.2201        0.1213       61.8424       61.9638      19.743665       0.42762
  27     28.12       42.2562        0.1471       61.6278       61.7749      19.518756       0.38233
  26     33.73       42.2878        0.1759       61.4177       61.5936      19.305827       0.32014
  25     40.54       42.3158        0.2107       61.1983       61.4090      19.093185       0.26381
  24     48.69       42.3397        0.2525       60.9680       61.2205      18.880781       0.21980
  23     57.69       42.3564        0.2984       60.7478       61.0462      18.689773       0.17904
  22     68.43       42.3660        0.3530       60.5202       60.8732      18.507211       0.14352
  21     81.20       42.3632        0.4180       60.2938       60.7119      18.348667       0.10476
  20     96.49       42.3468        0.4955       60.0643       60.5598      18.213000       0.07488
  19     114.6       42.3287        0.5881       59.8078       60.3959      18.067278       0.06804
  18     136.5       42.3011        0.6977       59.5157       60.2135      17.912404       0.05955
  17     162.9       42.2626        0.8279       59.1770       60.0050      17.742359       0.05435
  16     196.4       42.2010        0.9964       58.7604       59.7568      17.555885       0.04694
  15     218.7       42.1562        1.1068       58.4948       59.6016      17.445379       0.04195
  14     243.0       42.1057        1.2265       58.2089       59.4354      17.329728       0.04011
  13     269.0       42.0494        1.3560       57.9006       59.2566      17.207271       0.03972
  12     297.5       41.9873        1.4957       57.5668       59.0625      17.075232       0.03916
  11     328.5       41.9206        1.6463       57.2005       58.8468      16.926169       0.04053
  10     361.9       41.8502        1.8080       56.7963       58.6044      16.754182       0.04351
   9     398.1       41.7767        1.9815       56.3475       58.3290      16.552263       0.04704
   8     437.6       41.7024        2.1670       55.8422       58.0093      16.306811       0.05248
   7     480.5       41.6311        2.3648       55.2625       57.6274      15.996272       0.06099
   6     533.0       41.5572        2.6064       54.4972       57.1035      15.546373       0.07237
   5     589.8       41.4948        2.8635       53.6307       56.4942      14.999356       0.08120
   4     651.6       41.4516        3.1354       52.6606       55.7960      14.344333       0.08958
   3     718.7       41.4313        3.4224       51.6100       55.0324      13.601095       0.09340
   2     792.3       41.4389        3.7244       50.5019       54.2262      12.787297       0.09333
   1     891.5       41.5086        4.1228       49.0197       53.1425      11.633872       0.09815
   0    1013.0       41.7132        4.5856       47.2289       51.8145      10.101252       0.10642



 Wavenumbers: 16000. - 22650. cm-1, ATM      1
 LEVEL PRESSURE   UPWARD FLUX   DIFDOWN FLUX  DIRDOWN FLUX  DOWNWARD FLUX   NET FLUX    HEATING RATE
          mb          W/m2          W/m2          W/m2        W/m2          W/m2       degree/day
  51    .06700       86.1893        0.0000      100.7153      100.7153      14.526010       0.00000
  50    .07753       86.1892        0.0003      100.7147      100.7151      14.525888       0.09772
  49    .09103       86.1891        0.0008      100.7140      100.7148      14.525710       0.11083
  48    0.1069       86.1889        0.0012      100.7131      100.7144      14.525473       0.12638
  47    0.1255       86.1888        0.0018      100.7121      100.7139      14.525155       0.14406
  46    0.1487       86.1886        0.0025      100.7108      100.7133      14.524687       0.17071
  45    0.1794       86.1884        0.0035      100.7089      100.7124      14.523955       0.20100
  44    0.2165       86.1882        0.0046      100.7066      100.7112      14.522962       0.22589
  43    0.2613       86.1880        0.0060      100.7037      100.7097      14.521614       0.25396
  42    0.3336       86.1879        0.0082      100.6987      100.7069      14.519053       0.29865
  41    0.4307       86.1878        0.0112      100.6918      100.7030      14.515192       0.33570
  40    0.5894       86.1880        0.0161      100.6797      100.6958      14.507829       0.39157
  39     1.339       86.1951        0.0390      100.6095      100.6485      14.453438       0.61234
  38     1.782       86.2039        0.0525      100.5585      100.6110      14.407117       0.88188
  37     2.292       86.2183        0.0681      100.4903      100.5584      14.340085       1.11022
  36     2.964       86.2438        0.0886      100.3868      100.4754      14.231540       1.36258
  35     3.853       86.2868        0.1156      100.2306      100.3462      14.059417       1.63347
  34     5.035       86.3531        0.1515      100.0045      100.1559      13.802877       1.83262
  33     6.613       86.4463        0.1993       99.6939       99.8931      13.446857       1.90328
  32     8.786       86.5671        0.2635       99.2881       99.5516      12.984456       1.79580
  31     11.80       86.7221        0.3551       98.7496       99.1047      12.382615       1.68497
  30     15.07       86.8677        0.4532       98.2198       98.6730      11.805248       1.49065
  29     18.79       87.0136        0.5636       97.6651       98.2287      11.215129       1.33798
  28     23.16       87.1623        0.6920       97.0671       97.7592      10.596862       1.19553
  27     28.12       87.3073        0.8384       96.4406       97.2790       9.971743       1.06266
  26     33.73       87.4333        1.0017       95.8179       96.8196       9.386358       0.88014
  25     40.54       87.5437        1.1984       95.1548       96.3533       8.809556       0.71559
  24     48.69       87.6363        1.4347       94.4420       95.8767       8.240329       0.58906
  23     57.69       87.6990        1.6932       93.7416       95.4348       7.735830       0.47289
  22     68.43       87.7316        1.9999       92.9954       94.9953       7.263717       0.37114
  21     81.20       87.7128        2.3640       92.2231       94.5872       6.874388       0.25726
  20     96.49       87.6372        2.7960       91.4110       94.2070       6.569796       0.16811
  19     114.6       87.5213        3.3056       90.5070       93.8126       6.291334       0.13002
  18     136.5       87.3667        3.9048       89.4803       93.3850       6.018323       0.10498
  17     162.9       87.1678        4.6115       88.3022       92.9137       5.745867       0.08709
  16     196.4       86.8768        5.5180       86.8606       92.3786       5.501846       0.06142
  15     218.7       86.6743        6.1072       85.9492       92.0563       5.382082       0.04547
  14     243.0       86.4498        6.7421       84.9789       91.7210       5.271169       0.03847
  13     269.0       86.2023        7.4237       83.9493       91.3730       5.170689       0.03260
  12     297.5       85.9313        8.1531       82.8589       91.0121       5.080787       0.02666
  11     328.5       85.6386        8.9329       81.6982       90.6311       4.992533       0.02400
  10     361.9       85.3243        9.7628       80.4669       90.2297       4.905399       0.02205
   9     398.1       84.9879       10.6450       79.1611       89.8061       4.818142       0.02033
   8     437.6       84.6303       11.5798       77.7777       89.3576       4.727335       0.01942
   7     480.5       84.2518       12.5679       76.3136       88.8816       4.629767       0.01916
   6     533.0       83.7941       13.7645       74.5359       88.3004       4.506333       0.01986
   5     589.8       83.3123       15.0305       72.6469       87.6774       4.365071       0.02097
   4     651.6       82.8095       16.3639       70.6456       87.0095       4.200041       0.02257
   3     718.7       82.2864       17.7631       68.5367       86.2997       4.013294       0.02347
   2     792.3       81.7466       19.2227       66.3287       85.5514       3.804761       0.02392
   1     891.5       81.0547       21.1303       63.4246       84.5550       3.500302       0.02591
   0    1013.0       80.2838       23.3270       60.0483       83.3753       3.091493       0.02839



 Wavenumbers: 22650. - 29000. cm-1, ATM      1
 LEVEL PRESSURE   UPWARD FLUX   DIFDOWN FLUX  DIRDOWN FLUX  DOWNWARD FLUX   NET FLUX    HEATING RATE
          mb          W/m2          W/m2          W/m2        W/m2          W/m2       degree/day
  51    .06700       36.8540        0.0000       38.0063       38.0063       1.152246       0.00000
  50    .07753       36.8539        0.0004       38.0057       38.0061       1.152246       0.00000
  49    .09103       36.8537        0.0009       38.0050       38.0059       1.152246       0.00000
  48    0.1069       36.8535        0.0015       38.0042       38.0057       1.152246       0.00000
  47    0.1255       36.8532        0.0021       38.0033       38.0054       1.152246       0.00000
  46    0.1487       36.8529        0.0029       38.0022       38.0051       1.152246       0.00000
  45    0.1794       36.8524        0.0041       38.0006       38.0047       1.152246       0.00000
  44    0.2165       36.8519        0.0054       37.9987       38.0041       1.152246      -0.00000
  43    0.2613       36.8512        0.0070       37.9965       38.0035       1.152246       0.00000
  42    0.3336       36.8502        0.0096       37.9928       38.0024       1.152246      -0.00000
  41    0.4307       36.8488        0.0130       37.9880       38.0010       1.152246      -0.00000
  40    0.5894       36.8465        0.0187       37.9800       37.9987       1.152246       0.00000
  39     1.339       36.8357        0.0455       37.9425       37.9880       1.152246       0.00000
  38     1.782       36.8294        0.0612       37.9204       37.9816       1.152246       0.00000
  37     2.292       36.8220        0.0794       37.8949       37.9743       1.152246       0.00000
  36     2.964       36.8124        0.1032       37.8614       37.9647       1.152246      -0.00000
  35     3.853       36.7997        0.1347       37.8172       37.9520       1.152246       0.00000
  34     5.035       36.7829        0.1765       37.7586       37.9351       1.152246      -0.00000
  33     6.613       36.7604        0.2323       37.6803       37.9126       1.152246       0.00000
  32     8.786       36.7301        0.3073       37.5750       37.8824       1.152246       0.00000
  31     11.80       36.6870        0.4143       37.4249       37.8392       1.152246      -0.00000
  30     15.07       36.6408        0.5289       37.2642       37.7930       1.152246       0.00000
  29     18.79       36.5888        0.6577       37.0833       37.7410       1.152246      -0.00000
  28     23.16       36.5283        0.8076       36.8730       37.6806       1.152246       0.00000
  27     28.12       36.4595        0.9780       36.6338       37.6118       1.152246      -0.00000
  26     33.73       36.3830        1.1675       36.3677       37.5352       1.152246       0.00000
  25     40.54       36.2912        1.3949       36.0486       37.4434       1.152246      -0.00000
  24     48.69       36.1815        1.6665       35.6672       37.3337       1.152246      -0.00000
  23     57.69       36.0621        1.9617       35.2527       37.2144       1.152246       0.00000
  22     68.43       35.9217        2.3090       34.7649       37.0739       1.152246       0.00000
  21     81.20       35.7567        2.7167       34.1922       36.9090       1.152246       0.00000
  20     96.49       35.5635        3.1940       33.5217       36.7157       1.152246       0.00000
  19     114.6       35.3387        3.7486       32.7424       36.4910       1.152246       0.00000
  18     136.5       35.0788        4.3894       31.8416       36.2310       1.152246       0.00000
  17     162.9       34.7781        5.1296       30.8008       35.9304       1.152246      -0.00000
  16     196.4       34.4021        6.0537       29.5007       35.5544       1.152246       0.00000
  15     218.7       34.1636        6.6391       28.6767       35.3158       1.152246       0.00000
  14     243.0       33.9114        7.2569       27.8068       35.0637       1.152246      -0.00000
  13     269.0       33.6464        7.9053       26.8933       34.7986       1.152246       0.00000
  12     297.5       33.3692        8.5822       25.9393       34.5215       1.152246      -0.00000
  11     328.5       33.0800        9.2871       24.9451       34.2322       1.152246      -0.00000
  10     361.9       32.7801       10.0164       23.9160       33.9324       1.152246       0.00000
   9     398.1       32.4702       10.7683       22.8541       33.6224       1.152246      -0.00000
   8     437.6       32.1514       11.5392       21.7645       33.3037       1.152246       0.00000
   7     480.5       31.8254       12.3255       20.6521       32.9776       1.152246      -0.00000
   6     533.0       31.4446       13.2399       19.3569       32.5968       1.152246      -0.00000
   5     589.8       31.0581       14.1636       18.0467       32.2104       1.152246       0.00000
   4     651.6       30.6687       15.0893       16.7316       31.8209       1.152246       0.00000
   3     718.7       30.2789       16.0097       15.4214       31.4311       1.152246       0.00000
   2     792.3       29.8919       16.9165       14.1276       31.0441       1.152246       0.00000
   1     891.5       29.4154       18.0217       12.5459       30.5676       1.152246      -0.00000
   0    1013.0       28.9058       19.1863       10.8717       30.0580       1.152246      -0.00000



 Wavenumbers: 29000. - 38000. cm-1, ATM      1
 LEVEL PRESSURE   UPWARD FLUX   DIFDOWN FLUX  DIRDOWN FLUX  DOWNWARD FLUX   NET FLUX    HEATING RATE
          mb          W/m2          W/m2          W/m2        W/m2          W/m2       degree/day
  51    .06700        5.2758        0.0000       13.4026       13.4026       8.126824       0.00000
  50    .07753        5.2756        0.0003       13.3983       13.3986       8.123025       3.04475
  49    .09103        5.2753        0.0007       13.3921       13.3928       8.117506       3.45008
  48    0.1069        5.2750        0.0011       13.3840       13.3851       8.110128       3.92724
  47    0.1255        5.2746        0.0016       13.3733       13.3749       8.100282       4.46373
  46    0.1487        5.2742        0.0022       13.3579       13.3601       8.085837       5.26504
  45    0.1794        5.2737        0.0030       13.3340       13.3371       8.063435       6.15006
  44    0.2165        5.2730        0.0040       13.3024       13.3064       8.033412       6.82967
  43    0.2613        5.2723        0.0052       13.2604       13.2656       7.993352       7.55115
  42    0.3336        5.2711        0.0071       13.1833       13.1904       7.919335       8.62967
  41    0.4307        5.2695        0.0096       13.0729       13.0825       7.812946       9.25023
  40    0.5894        5.2672        0.0135       12.8796       12.8931       7.625871       9.94842
  39     1.339        5.2592        0.0299       11.9165       11.9465       6.687289      10.56673
  38     1.782        5.2562        0.0383       11.4399       11.4783       6.222103       8.85639
  37     2.292        5.2541        0.0473       10.9796       11.0269       5.772879       7.44032
  36     2.964        5.2532        0.0584       10.4786       10.5370       5.283783       6.13963
  35     3.853        5.2548        0.0721        9.9429       10.0150       4.760195       4.96894
  34     5.035        5.2595        0.0892        9.4007        9.4899       4.230382       3.78476
  33     6.613        5.2676        0.1108        8.8752        8.9861       3.718497       2.73654
  32     8.786        5.2786        0.1388        8.3786        8.5174       3.238819       1.86289
  31     11.80        5.2923        0.1773        7.8897        8.0669       2.774614       1.29963
  30     15.07        5.3046        0.2170        7.5108        7.7278       2.423217       0.90724
  29     18.79        5.3163        0.2603        7.1776        7.4379       2.121554       0.68396
  28     23.16        5.3277        0.3090        6.8664        7.1755       1.847819       0.52931
  27     28.12        5.3377        0.3630        6.5780        6.9411       1.603317       0.41564
  26     33.73        5.3439        0.4219        6.3195        6.7414       1.397442       0.30954
  25     40.54        5.3453        0.4914        6.0663        6.5576       1.212341       0.22964
  24     48.69        5.3414        0.5728        5.8128        6.3857       1.044310       0.17389
  23     57.69        5.3317        0.6599        5.5777        6.2376       0.905863       0.12977
  22     68.43        5.3144        0.7607        5.3379        6.0986       0.784176       0.09566
  21     81.20        5.2850        0.8778        5.0965        5.9743       0.689259       0.06272
  20     96.49        5.2424        1.0132        4.8476        5.8608       0.618429       0.03909
  19     114.6        5.1900        1.1668        4.5799        5.7466       0.556641       0.02885
  18     136.5        5.1292        1.3387        4.2891        5.6278       0.498583       0.02232
  17     162.9        5.0599        1.5298        3.9732        5.5030       0.443076       0.01774
  16     196.4        4.9719        1.7594        3.6080        5.3674       0.395463       0.01198
  15     218.7        4.9165        1.8995        3.3898        5.2893       0.372724       0.00863
  14     243.0        4.8592        2.0427        3.1686        5.2112       0.352043       0.00717
  13     269.0        4.8001        2.1878        2.9461        5.1339       0.333751       0.00593
  12     297.5        4.7398        2.3338        2.7239        5.0577       0.317878       0.00471
  11     328.5        4.6792        2.4793        2.5029        4.9822       0.302919       0.00407
  10     361.9        4.6188        2.6231        2.2846        4.9077       0.288900       0.00355
   9     398.1        4.5589        2.7639        2.0708        4.8347       0.275817       0.00305
   8     437.6        4.5001        2.9009        1.8626        4.7635       0.263391       0.00266
   7     480.5        4.4429        3.0325        1.6621        4.6947       0.251761       0.00228
   6     533.0        4.3799        3.1755        1.4437        4.6192       0.239264       0.00201
   5     589.8        4.3202        3.3086        1.2390        4.5476       0.227337       0.00177
   4     651.6        4.2645        3.4304        1.0500        4.4804       0.215819       0.00158
   3     718.7        4.2132        3.5401        0.8778        4.4179       0.204670       0.00140
   2     792.3        4.1666        3.6367        0.7237        4.3605       0.193868       0.00124
   1     891.5        4.1151        3.7394        0.5563        4.2957       0.180664       0.00112
   0    1013.0        4.0670        3.8293        0.4039        4.2332       0.166223       0.00100



 Wavenumbers: 38000. - 50000. cm-1, ATM      1
 LEVEL PRESSURE   UPWARD FLUX   DIFDOWN FLUX  DIRDOWN FLUX  DOWNWARD FLUX   NET FLUX    HEATING RATE
          mb          W/m2          W/m2          W/m2        W/m2          W/m2       degree/day
  51    .06700        0.0051        0.0000        0.8267        0.8267       0.821528       0.00000
  50    .07753        0.0051        0.0001        0.8242        0.8243       0.819196       1.86936
  49    .09103        0.0050        0.0002        0.8207        0.8209       0.815872       2.07705
  48    0.1069        0.0049        0.0002        0.8162        0.8164       0.811514       2.31984
  47    0.1255        0.0048        0.0004        0.8103        0.8106       0.805801       2.59006
  46    0.1487        0.0047        0.0005        0.8018        0.8023       0.797567       3.00143
  45    0.1794        0.0045        0.0007        0.7889        0.7896       0.785013       3.44648
  44    0.2165        0.0044        0.0009        0.7720        0.7729       0.768507       3.75474
  43    0.2613        0.0042        0.0011        0.7500        0.7511       0.746955       4.06246
  42    0.3336        0.0039        0.0015        0.7106        0.7121       0.708267       4.51071
  41    0.4307        0.0035        0.0019        0.6566        0.6584       0.654972       4.63387
  40    0.5894        0.0029        0.0024        0.5680        0.5704       0.567464       4.65357
  39     1.339        0.0015        0.0030        0.2422        0.2452       0.243720       3.64476
  38     1.782        0.0010        0.0026        0.1493        0.1519       0.150889       1.76735
  37     2.292        0.0007        0.0022        0.0924        0.0946       0.093932       0.94336
  36     2.964        0.0005        0.0018        0.0539        0.0557       0.055224       0.48589
  35     3.853        0.0003        0.0013        0.0295        0.0308       0.030502       0.23462
  34     5.035        0.0002        0.0010        0.0154        0.0164       0.016181       0.10230
  33     6.613        0.0001        0.0007        0.0073        0.0080       0.007912       0.04420
  32     8.786        0.0000        0.0004        0.0030        0.0034       0.003390       0.01756
  31     11.80        0.0000        0.0003        0.0010        0.0012       0.001199       0.00613
  30     15.07        0.0000        0.0001        0.0003        0.0005       0.000463       0.00190
  29     18.79        0.0000        0.0001        0.0001        0.0002       0.000182       0.00064
  28     23.16        0.0000        0.0000        0.0000        0.0001       0.000071       0.00022
  27     28.12        0.0000        0.0000        0.0000        0.0000       0.000028       0.00007
  26     33.73        0.0000        0.0000        0.0000        0.0000       0.000011       0.00002
  25     40.54        0.0000        0.0000        0.0000        0.0000       0.000005       0.00001
  24     48.69        0.0000        0.0000        0.0000        0.0000       0.000002       0.00000
  23     57.69        0.0000        0.0000        0.0000        0.0000       0.000001       0.00000
  22     68.43        0.0000        0.0000        0.0000        0.0000       0.000000       0.00000
  21     81.20        0.0000        0.0000        0.0000        0.0000       0.000000       0.00000
  20     96.49        0.0000        0.0000        0.0000        0.0000       0.000000       0.00000
  19     114.6        0.0000        0.0000        0.0000        0.0000       0.000000       0.00000
  18     136.5        0.0000        0.0000        0.0000        0.0000       0.000000       0.00000
  17     162.9        0.0000        0.0000        0.0000        0.0000       0.000000       0.00000
  16     196.4        0.0000        0.0000        0.0000        0.0000       0.000000       0.00000
  15     218.7        0.0000        0.0000        0.0000        0.0000       0.000000       0.00000
  14     243.0        0.0000        0.0000        0.0000        0.0000       0.000000       0.00000
  13     269.0        0.0000        0.0000        0.0000        0.0000       0.000000       0.00000
  12     297.5        0.0000        0.0000        0.0000        0.0000       0.000000       0.00000
  11     328.5        0.0000        0.0000        0.0000        0.0000       0.000000       0.00000
  10     361.9        0.0000        0.0000        0.0000        0.0000       0.000000       0.00000
   9     398.1        0.0000        0.0000        0.0000        0.0000       0.000000       0.00000
   8     437.6        0.0000        0.0000        0.0000        0.0000       0.000000       0.00000
   7     480.5        0.0000        0.0000        0.0000        0.0000       0.000000       0.00000
   6     533.0        0.0000        0.0000        0.0000        0.0000       0.000000       0.00000
   5     589.8        0.0000        0.0000        0.0000        0.0000       0.000000       0.00000
   4     651.6        0.0000        0.0000        0.0000        0.0000       0.000000       0.00000
   3     718.7        0.0000        0.0000        0.0000        0.0000       0.000000       0.00000
   2     792.3        0.0000        0.0000        0.0000        0.0000       0.000000       0.00000
   1     891.5        0.0000        0.0000        0.0000        0.0000       0.000000       0.00000
   0    1013.0        0.0000        0.0000        0.0000        0.0000       0.000000       0.00000



 Wavenumbers:   820. -  2600. cm-1, ATM      1
 LEVEL PRESSURE   UPWARD FLUX   DIFDOWN FLUX  DIRDOWN FLUX  DOWNWARD FLUX   NET FLUX    HEATING RATE
          mb          W/m2          W/m2          W/m2        W/m2          W/m2       degree/day
  51    .06700        0.3911        0.0000        3.8670        3.8670       3.475888       0.00000
  50    .07753        0.3911        0.0000        3.8643        3.8643       3.473171       2.17770
  49    .09103        0.3911        0.0000        3.8635        3.8635       3.472361       0.50638
  48    0.1069        0.3911        0.0000        3.8626        3.8626       3.471470       0.47415
  47    0.1255        0.3911        0.0000        3.8616        3.8616       3.470509       0.43559
  46    0.1487        0.3911        0.0000        3.8605        3.8605       3.469400       0.40437
  45    0.1794        0.3911        0.0000        3.8592        3.8592       3.468065       0.36648
  44    0.2165        0.3911        0.0000        3.8578        3.8578       3.466687       0.31346
  43    0.2613        0.3911        0.0000        3.8564        3.8564       3.465227       0.27522
  42    0.3336        0.3911        0.0000        3.8541        3.8541       3.462996       0.26013
  41    0.4307        0.3911        0.0000        3.8512        3.8512       3.460113       0.25063
  40    0.5894        0.3911        0.0000        3.8465        3.8465       3.455387       0.25134
  39     1.339        0.3911        0.0000        3.8251        3.8251       3.434012       0.24065
  38     1.782        0.3911        0.0000        3.8133        3.8133       3.422199       0.22490
  37     2.292        0.3911        0.0000        3.8003        3.8003       3.409137       0.21633
  36     2.964        0.3911        0.0000        3.7841        3.7841       3.393008       0.20247
  35     3.853        0.3911        0.0000        3.7642        3.7642       3.373093       0.18900
  34     5.035        0.3911        0.0000        3.7395        3.7395       3.348402       0.17639
  33     6.613        0.3911        0.0000        3.7090        3.7090       3.317865       0.16325
  32     8.786        0.3911        0.0000        3.6726        3.6726       3.281471       0.14134
  31     11.80        0.3911        0.0000        3.6320        3.6320       3.240876       0.11366
  30     15.07        0.3911        0.0000        3.6016        3.6016       3.210490       0.07845
  29     18.79        0.3911        0.0000        3.5777        3.5777       3.186591       0.05419
  28     23.16        0.3912        0.0000        3.5564        3.5564       3.165235       0.04129
  27     28.12        0.3912        0.0000        3.5348        3.5348       3.143686       0.03663
  26     33.73        0.3912        0.0000        3.5118        3.5118       3.120650       0.03464
  25     40.54        0.3912        0.0000        3.4849        3.4849       3.093759       0.03336
  24     48.69        0.3912        0.0000        3.4537        3.4537       3.062503       0.03235
  23     57.69        0.3912        0.0000        3.4210        3.4210       3.029824       0.03063
  22     68.43        0.3912        0.0000        3.3844        3.3844       2.993232       0.02877
  21     81.20        0.3912        0.0000        3.3441        3.3441       2.952926       0.02663
  20     96.49        0.3912        0.0000        3.2998        3.2998       2.908551       0.02449
  19     114.6        0.3913        0.0000        3.2506        3.2506       2.859391       0.02295
  18     136.5        0.3913        0.0000        3.1936        3.1936       2.802323       0.02194
  17     162.9        0.3913        0.0000        3.1181        3.1181       2.726788       0.02414
  16     196.4        0.3914        0.0000        3.0090        3.0090       2.617537       0.02750
  15     218.7        0.3915        0.0000        2.9420        2.9420       2.550484       0.02546
  14     243.0        0.3916        0.0000        2.8605        2.8605       2.468849       0.02831
  13     269.0        0.3918        0.0000        2.7419        2.7420       2.350141       0.03851
  12     297.5        0.3922        0.0000        2.5729        2.5729       2.180720       0.05025
  11     328.5        0.3927        0.0000        2.3602        2.3602       1.967480       0.05798
  10     361.9        0.3936        0.0000        2.1524        2.1524       1.758850       0.05279
   9     398.1        0.3948        0.0000        1.9974        1.9974       1.602588       0.03641
   8     437.6        0.3966        0.0000        1.8835        1.8835       1.486891       0.02474
   7     480.5        0.3993        0.0000        1.7734        1.7734       1.374189       0.02213
   6     533.0        0.4037        0.0000        1.6397        1.6398       1.236109       0.02221
   5     589.8        0.4100        0.0000        1.5068        1.5069       1.096839       0.02067
   4     651.6        0.4195        0.0000        1.3807        1.3807       0.961209       0.01855
   3     718.7        0.4321        0.0000        1.2680        1.2681       0.835922       0.01575
   2     792.3        0.4476        0.0000        1.1659        1.1660       0.718348       0.01348
   1     891.5        0.4737        0.0000        1.0372        1.0373       0.563559       0.01317
   0    1013.0        0.5211        0.0000        0.8716        0.8717       0.350587       0.01479

  Modules and versions used in this calculation:

       rrtmg_sw.1col.f90:  $Revision$                    rrtmg_sw_init.f90:  $Revision$        
     rrtmgsw_cldprop.f90:  $Revision$                  rrtmgsw_cldprmc.f90:  NOT USED          
     rrtmg_sw_reftra.f90:  $Revision$                  rrtmg_sw_spcvrt.f90:  NOT USED          
     rrtmg_sw_spcvmc.f90:  NOT USED                    rrtmgsw_setcoef.f90:  NOT USED          
     rrtmg_sw_taumol.f90:  $Revision$                  rrtmg_sw_vrtqdr.f90:  NOT USED          
                rrtatm.f:  NOT USED                             util_xxx.f:  NOT USED          
                 extra.f:  NOT USED                       rrtmg_sw_k_g.f90:  $Revision$        

