

 Wavenumbers:   820. - 50000. cm-1, ATM      1
 LEVEL PRESSURE   UPWARD FLUX   DIFDOWN FLUX  DIRDOWN FLUX  DOWNWARD FLUX   NET FLUX    HEATING RATE
          mb          W/m2          W/m2          W/m2        W/m2          W/m2       degree/day
  51    .06700      240.2658        0.0000      397.8738      397.8738     157.607986       0.00000
  50    .07753      240.2652        0.0012      397.8577      397.8589     157.593693      11.45594
  49    .09103      240.2645        0.0027      397.8418      397.8445     157.580002       8.55733
  48    0.1069      240.2637        0.0044      397.8230      397.8274     157.563650       8.70410
  47    0.1255      240.2628        0.0064      397.7997      397.8060     157.543202       9.27013
  46    0.1487      240.2617        0.0089      397.7676      397.7765     157.514737      10.37600
  45    0.1794      240.2603        0.0122      397.7205      397.7327     157.472432      11.61372
  44    0.2165      240.2587        0.0162      397.6602      397.6765     157.417766      12.43559
  43    0.2613      240.2569        0.0209      397.5829      397.6038     157.346944      13.34957
  42    0.3336      240.2541        0.0287      397.4449      397.4736     157.219458      14.86365
  41    0.4307      240.2507        0.0388      397.2524      397.2912     157.040516      15.55858
  40    0.5894      240.2458        0.0552      396.9253      396.9805     156.734658      16.26515
  39     1.339      240.2349        0.1284      395.4254      395.5537     155.318843      15.93950
  38     1.782      240.2365        0.1694      394.7288      394.8982     154.661658      12.51175
  37     2.292      240.2456        0.2161      394.0572      394.2733     154.027719      10.49968
  36     2.964      240.2681        0.2768      393.3007      393.5775     153.309395       9.01714
  35     3.853      240.3127        0.3562      392.4318      392.7880     152.475310       7.91563
  34     5.035      240.3865        0.4606      391.4441      391.9047     151.518197       6.83722
  33     6.613      240.4932        0.5990      390.3268      390.9258     150.432621       5.80349
  32     8.786      240.6309        0.7841      389.0624      389.8465     149.215660       4.72624
  31     11.80      240.8028        1.0469      387.5500      388.5969     147.794103       3.97991
  30     15.07      240.9580        1.3268      386.1556      387.4824     146.524403       3.27812
  29     18.79      241.1072        1.6406      384.7502      386.3907     145.283583       2.81332
  28     23.16      241.2512        2.0042      383.2686      385.2728     144.021565       2.44034
  27     28.12      241.3808        2.4167      381.7329      384.1496     142.768856       2.12952
  26     33.73      241.4741        2.8751      380.1982      383.0733     141.599223       1.75857
  25     40.54      241.5271        3.4250      378.5384      381.9634     140.436367       1.44265
  24     48.69      241.5336        4.0824      376.7214      380.8038     139.270159       1.20684
  23     57.69      241.4859        4.7978      374.8959      379.6937     138.207821       0.99578
  22     68.43      241.3700        5.6416      372.8999      378.5415     137.171483       0.81470
  21     81.20      241.1505        6.6365      370.7496      377.3861     136.235610       0.61841
  20     96.49      240.8153        7.8075      368.4056      376.2131     135.397801       0.46241
  19     114.6      240.3952        9.1762      365.7513      374.9275     134.532232       0.40416
  18     136.5      239.8806       10.7669      362.7231      373.4900     133.609427       0.35484
  17     162.9      239.2583       12.6177      359.1748      371.7924     132.534107       0.34372
  16     196.4      238.4197       14.9535      354.5718      369.5253     131.105574       0.35958
  15     218.7      237.8634       16.4489      351.4437      367.8926     130.029234       0.40865
  14     243.0      237.2626       18.0409      347.7111      365.7520     128.489414       0.53406
  13     269.0      236.6180       19.7278      342.9441      362.6719     126.053887       0.79007
  12     297.5      235.9315       21.5077      337.4137      358.9214     122.989898       0.90875
  11     328.5      235.2089       23.3826      331.1302      354.5129     119.303969       1.00219
  10     361.9      234.4556       25.3474      324.1219      349.4693     115.013736       1.08547
   9     398.1      233.6759       27.4018      316.6066      344.0084     110.332510       1.09062
   8     437.6      232.8803       29.5417      308.5895      338.1311     105.250863       1.08649
   7     480.5      232.0860       31.7615      299.9349      331.6964      99.610449       1.10776
   6     533.0      231.1985       34.3961      289.7021      324.0983      92.899731       1.07954
   5     589.8      230.3622       37.1216      279.3388      316.4604      86.098189       1.00957
   4     651.6      229.6236       39.9264      268.7786      308.7050      79.081360       0.95957
   3     718.7      229.0108       42.8021      258.2837      301.0858      72.074985       0.88051
   2     792.3      228.5537       45.7351      248.0774      293.8125      65.258760       0.78174
   1     891.5      228.3258       49.4698      235.5216      284.9914      56.665516       0.73124
   0    1013.0      228.9306       53.6367      221.4731      275.1098      46.179185       0.72812



 Wavenumbers:  2600. -  3250. cm-1, ATM      1
 LEVEL PRESSURE   UPWARD FLUX   DIFDOWN FLUX  DIRDOWN FLUX  DOWNWARD FLUX   NET FLUX    HEATING RATE
          mb          W/m2          W/m2          W/m2        W/m2          W/m2       degree/day
  51    .06700        0.2263        0.0000        3.5066        3.5066       3.280330       0.00000
  50    .07753        0.2263        0.0000        3.5066        3.5066       3.280322       0.00640
  49    .09103        0.2263        0.0000        3.5066        3.5066       3.280312       0.00627
  48    0.1069        0.2263        0.0000        3.5066        3.5066       3.280301       0.00613
  47    0.1255        0.2263        0.0000        3.5066        3.5066       3.280287       0.00599
  46    0.1487        0.2263        0.0000        3.5066        3.5066       3.280271       0.00607
  45    0.1794        0.2263        0.0000        3.5065        3.5065       3.280248       0.00624
  44    0.2165        0.2263        0.0000        3.5065        3.5065       3.280221       0.00611
  43    0.2613        0.2263        0.0000        3.5065        3.5065       3.280189       0.00598
  42    0.3336        0.2263        0.0000        3.5064        3.5064       3.280137       0.00615
  41    0.4307        0.2263        0.0000        3.5064        3.5064       3.280066       0.00618
  40    0.5894        0.2263        0.0000        3.5062        3.5062       3.279947       0.00633
  39     1.339        0.2263        0.0000        3.5055        3.5055       3.279248       0.00787
  38     1.782        0.2263        0.0000        3.5050        3.5050       3.278717       0.01011
  37     2.292        0.2263        0.0000        3.5043        3.5043       3.278025       0.01147
  36     2.964        0.2263        0.0000        3.5033        3.5033       3.277033       0.01245
  35     3.853        0.2263        0.0000        3.5019        3.5019       3.275656       0.01307
  34     5.035        0.2263        0.0000        3.5001        3.5001       3.273795       0.01329
  33     6.613        0.2263        0.0000        3.4977        3.4977       3.271386       0.01288
  32     8.786        0.2263        0.0000        3.4947        3.4947       3.268415       0.01154
  31     11.80        0.2263        0.0000        3.4911        3.4911       3.264779       0.01018
  30     15.07        0.2263        0.0000        3.4878        3.4878       3.261558       0.00832
  29     18.79        0.2263        0.0000        3.4848        3.4848       3.258495       0.00695
  28     23.16        0.2263        0.0000        3.4816        3.4816       3.255275       0.00623
  27     28.12        0.2263        0.0000        3.4779        3.4779       3.251658       0.00615
  26     33.73        0.2263        0.0000        3.4735        3.4735       3.247191       0.00671
  25     40.54        0.2263        0.0000        3.4671        3.4671       3.240866       0.00785
  24     48.69        0.2263        0.0000        3.4582        3.4583       3.231972       0.00920
  23     57.69        0.2263        0.0000        3.4472        3.4472       3.220924       0.01036
  22     68.43        0.2263        0.0000        3.4329        3.4329       3.206666       0.01121
  21     81.20        0.2263        0.0000        3.4152        3.4152       3.188939       0.01171
  20     96.49        0.2263        0.0000        3.3940        3.3941       3.167796       0.01167
  19     114.6        0.2263        0.0000        3.3692        3.3692       3.142909       0.01162
  18     136.5        0.2263        0.0001        3.3419        3.3420       3.115694       0.01046
  17     162.9        0.2263        0.0001        3.3129        3.3129       3.086624       0.00929
  16     196.4        0.2264        0.0001        3.2793        3.2794       3.053057       0.00845
  15     218.7        0.2264        0.0001        3.2578        3.2578       3.031447       0.00820
  14     243.0        0.2265        0.0001        3.2320        3.2320       3.005582       0.00897
  13     269.0        0.2266        0.0001        3.1968        3.1969       2.970346       0.01143
  12     297.5        0.2268        0.0001        3.1489        3.1490       2.922282       0.01426
  11     328.5        0.2270        0.0001        3.0821        3.0822       2.855127       0.01826
  10     361.9        0.2275        0.0001        2.9902        2.9904       2.762902       0.02333
   9     398.1        0.2280        0.0001        2.8715        2.8716       2.643579       0.02780
   8     437.6        0.2289        0.0001        2.7276        2.7278       2.498924       0.03093
   7     480.5        0.2301        0.0001        2.5595        2.5597       2.329584       0.03326
   6     533.0        0.2321        0.0001        2.3617        2.3619       2.129800       0.03214
   5     589.8        0.2350        0.0002        2.1649        2.1651       1.930097       0.02964
   4     651.6        0.2391        0.0002        1.9608        1.9609       1.721772       0.02849
   3     718.7        0.2448        0.0002        1.7593        1.7595       1.514658       0.02603
   2     792.3        0.2522        0.0002        1.5761        1.5762       1.323981       0.02187
   1     891.5        0.2650        0.0002        1.3714        1.3716       1.106622       0.01850
   0    1013.0        0.2880        0.0002        1.1584        1.1586       0.870572       0.01639



 Wavenumbers:  3250. -  4000. cm-1, ATM      1
 LEVEL PRESSURE   UPWARD FLUX   DIFDOWN FLUX  DIRDOWN FLUX  DOWNWARD FLUX   NET FLUX    HEATING RATE
          mb          W/m2          W/m2          W/m2        W/m2          W/m2       degree/day
  51    .06700        0.0004        0.0000        5.9117        5.9117       5.911216       0.00000
  50    .07753        0.0004        0.0000        5.9075        5.9075       5.907026       3.35808
  49    .09103        0.0004        0.0000        5.9050        5.9050       5.904584       1.52677
  48    0.1069        0.0004        0.0000        5.9032        5.9032       5.902717       0.99346
  47    0.1255        0.0004        0.0000        5.9014        5.9014       5.900959       0.79708
  46    0.1487        0.0004        0.0000        5.8995        5.8995       5.899070       0.68848
  45    0.1794        0.0004        0.0000        5.8974        5.8974       5.896922       0.58983
  44    0.2165        0.0004        0.0000        5.8952        5.8952       5.894805       0.48155
  43    0.2613        0.0004        0.0000        5.8931        5.8931       5.892646       0.40696
  42    0.3336        0.0004        0.0000        5.8899        5.8899       5.889488       0.36820
  41    0.4307        0.0004        0.0000        5.8861        5.8861       5.885651       0.33365
  40    0.5894        0.0004        0.0000        5.8803        5.8803       5.879848       0.30857
  39     1.339        0.0004        0.0000        5.8597        5.8597       5.859250       0.23189
  38     1.782        0.0004        0.0000        5.8513        5.8513       5.850826       0.16039
  37     2.292        0.0004        0.0000        5.8431        5.8431       5.842655       0.13533
  36     2.964        0.0004        0.0000        5.8334        5.8334       5.833015       0.12100
  35     3.853        0.0004        0.0000        5.8213        5.8213       5.820840       0.11555
  34     5.035        0.0004        0.0000        5.8052        5.8052       5.804744       0.11498
  33     6.613        0.0004        0.0000        5.7833        5.7834       5.782923       0.11666
  32     8.786        0.0004        0.0000        5.7531        5.7531       5.752722       0.11729
  31     11.80        0.0004        0.0000        5.7090        5.7090       5.708553       0.12366
  30     15.07        0.0004        0.0000        5.6615        5.6615       5.661088       0.12254
  29     18.79        0.0004        0.0000        5.6093        5.6094       5.608953       0.11821
  28     23.16        0.0004        0.0000        5.5524        5.5524       5.552027       0.11008
  27     28.12        0.0004        0.0000        5.4935        5.4935       5.493148       0.10009
  26     33.73        0.0004        0.0000        5.4348        5.4349       5.434459       0.08824
  25     40.54        0.0004        0.0001        5.3707        5.3708       5.370398       0.07948
  24     48.69        0.0004        0.0001        5.2985        5.2985       5.298165       0.07475
  23     57.69        0.0004        0.0001        5.2215        5.2216       5.221226       0.07212
  22     68.43        0.0003        0.0001        5.1318        5.1319       5.131565       0.07048
  21     81.20        0.0003        0.0001        5.0284        5.0285       5.028136       0.06834
  20     96.49        0.0003        0.0001        4.9122        4.9123       4.912002       0.06410
  19     114.6        0.0003        0.0001        4.7780        4.7782       4.777891       0.06262
  18     136.5        0.0003        0.0002        4.6285        4.6287       4.628413       0.05748
  17     162.9        0.0002        0.0002        4.4406        4.4407       4.440500       0.06006
  16     196.4        0.0002        0.0002        4.1548        4.1550       4.154827       0.07191
  15     218.7        0.0002        0.0002        3.9564        3.9566       3.956446       0.07532
  14     243.0        0.0002        0.0002        3.7055        3.7058       3.705611       0.08700
  13     269.0        0.0001        0.0002        3.3399        3.3401       3.339973       0.11861
  12     297.5        0.0001        0.0002        2.8954        2.8956       2.895483       0.13183
  11     328.5        0.0001        0.0002        2.4388        2.4390       2.438942       0.12413
  10     361.9        0.0001        0.0002        2.0269        2.0271       2.027003       0.10422
   9     398.1        0.0001        0.0002        1.6753        1.6755       1.675415       0.08191
   8     437.6        0.0001        0.0002        1.3592        1.3594       1.359296       0.06759
   7     480.5        0.0001        0.0002        1.0616        1.0618       1.061713       0.05844
   6     533.0        0.0001        0.0001        0.7543        0.7544       0.754377       0.04944
   5     589.8        0.0001        0.0001        0.4951        0.4952       0.495181       0.03847
   4     651.6        0.0001        0.0001        0.2943        0.2943       0.294278       0.02747
   3     718.7        0.0001        0.0001        0.1528        0.1529       0.152770       0.01778
   2     792.3        0.0001        0.0000        0.0658        0.0658       0.065710       0.00998
   1     891.5        0.0003        0.0000        0.0157        0.0157       0.015360       0.00428
   0    1013.0        0.0013        0.0000        0.0013        0.0013       0.000050       0.00106



 Wavenumbers:  4000. -  4650. cm-1, ATM      1
 LEVEL PRESSURE   UPWARD FLUX   DIFDOWN FLUX  DIRDOWN FLUX  DOWNWARD FLUX   NET FLUX    HEATING RATE
          mb          W/m2          W/m2          W/m2        W/m2          W/m2       degree/day
  51    .06700        0.8718        0.0000        6.9421        6.9421       6.070276       0.00000
  50    .07753        0.8718        0.0000        6.9421        6.9421       6.070275       0.00079
  49    .09103        0.8718        0.0000        6.9421        6.9421       6.070274       0.00078
  48    0.1069        0.8718        0.0000        6.9421        6.9421       6.070272       0.00076
  47    0.1255        0.8718        0.0000        6.9421        6.9421       6.070271       0.00074
  46    0.1487        0.8718        0.0000        6.9421        6.9421       6.070269       0.00075
  45    0.1794        0.8718        0.0000        6.9421        6.9421       6.070266       0.00077
  44    0.2165        0.8718        0.0000        6.9421        6.9421       6.070263       0.00076
  43    0.2613        0.8718        0.0000        6.9420        6.9420       6.070259       0.00074
  42    0.3336        0.8718        0.0000        6.9420        6.9420       6.070252       0.00076
  41    0.4307        0.8718        0.0000        6.9420        6.9420       6.070243       0.00077
  40    0.5894        0.8718        0.0000        6.9420        6.9420       6.070228       0.00079
  39     1.339        0.8718        0.0000        6.9419        6.9419       6.070140       0.00100
  38     1.782        0.8718        0.0000        6.9418        6.9419       6.070070       0.00132
  37     2.292        0.8718        0.0000        6.9418        6.9418       6.069977       0.00155
  36     2.964        0.8718        0.0000        6.9416        6.9416       6.069837       0.00175
  35     3.853        0.8718        0.0000        6.9414        6.9414       6.069631       0.00196
  34     5.035        0.8718        0.0000        6.9411        6.9411       6.069326       0.00218
  33     6.613        0.8718        0.0000        6.9406        6.9406       6.068879       0.00239
  32     8.786        0.8718        0.0000        6.9399        6.9400       6.068219       0.00256
  31     11.80        0.8718        0.0000        6.9389        6.9389       6.067185       0.00290
  30     15.07        0.8717        0.0001        6.9377        6.9377       6.065975       0.00312
  29     18.79        0.8717        0.0001        6.9362        6.9362       6.064518       0.00330
  28     23.16        0.8717        0.0001        6.9343        6.9344       6.062715       0.00349
  27     28.12        0.8717        0.0001        6.9321        6.9322       6.060543       0.00369
  26     33.73        0.8717        0.0001        6.9294        6.9296       6.057879       0.00401
  25     40.54        0.8717        0.0002        6.9258        6.9260       6.054288       0.00446
  24     48.69        0.8716        0.0002        6.9210        6.9212       6.049535       0.00492
  23     57.69        0.8716        0.0002        6.9154        6.9156       6.043945       0.00524
  22     68.43        0.8716        0.0003        6.9083        6.9086       6.036998       0.00546
  21     81.20        0.8716        0.0003        6.8998        6.9001       6.028507       0.00561
  20     96.49        0.8715        0.0004        6.8894        6.8898       6.018257       0.00566
  19     114.6        0.8715        0.0004        6.8765        6.8770       6.005434       0.00599
  18     136.5        0.8715        0.0005        6.8610        6.8615       5.989975       0.00594
  17     162.9        0.8715        0.0006        6.8417        6.8423       5.970764       0.00614
  16     196.4        0.8715        0.0007        6.8147        6.8154       5.943847       0.00678
  15     218.7        0.8716        0.0008        6.7948        6.7956       5.924043       0.00752
  14     243.0        0.8717        0.0009        6.7698        6.7707       5.898950       0.00870
  13     269.0        0.8719        0.0010        6.7349        6.7358       5.863887       0.01137
  12     297.5        0.8723        0.0011        6.6869        6.6879       5.815613       0.01432
  11     328.5        0.8729        0.0012        6.6194        6.6205       5.747671       0.01847
  10     361.9        0.8736        0.0013        6.5295        6.5307       5.657113       0.02291
   9     398.1        0.8746        0.0014        6.4202        6.4216       5.546970       0.02566
   8     437.6        0.8760        0.0015        6.2962        6.2977       5.421706       0.02678
   7     480.5        0.8778        0.0016        6.1555        6.1571       5.279314       0.02797
   6     533.0        0.8808        0.0018        5.9675        5.9693       5.088538       0.03069
   5     589.8        0.8850        0.0019        5.7368        5.7386       4.853616       0.03487
   4     651.6        0.8912        0.0020        5.4662        5.4682       4.577006       0.03783
   3     718.7        0.8997        0.0021        5.1912        5.1933       4.293587       0.03562
   2     792.3        0.9107        0.0023        4.9395        4.9417       4.031032       0.03011
   1     891.5        0.9295        0.0024        4.6486        4.6510       3.721541       0.02634
   0    1013.0        0.9632        0.0026        4.3179        4.3205       3.357240       0.02530



 Wavenumbers:  4650. -  5150. cm-1, ATM      1
 LEVEL PRESSURE   UPWARD FLUX   DIFDOWN FLUX  DIRDOWN FLUX  DOWNWARD FLUX   NET FLUX    HEATING RATE
          mb          W/m2          W/m2          W/m2        W/m2          W/m2       degree/day
  51    .06700        0.5009        0.0000        6.5710        6.5710       6.070115       0.00000
  50    .07753        0.5009        0.0000        6.5708        6.5708       6.069879       0.18887
  49    .09103        0.5009        0.0000        6.5705        6.5705       6.069586       0.18362
  48    0.1069        0.5009        0.0000        6.5701        6.5701       6.069251       0.17806
  47    0.1255        0.5009        0.0000        6.5697        6.5697       6.068871       0.17238
  46    0.1487        0.5009        0.0000        6.5693        6.5693       6.068397       0.17268
  45    0.1794        0.5009        0.0000        6.5686        6.5686       6.067761       0.17473
  44    0.2165        0.5009        0.0000        6.5679        6.5679       6.067023       0.16788
  43    0.2613        0.5009        0.0000        6.5670        6.5670       6.066170       0.16078
  42    0.3336        0.5009        0.0000        6.5657        6.5657       6.064806       0.15894
  41    0.4307        0.5009        0.0000        6.5640        6.5640       6.063085       0.14971
  40    0.5894        0.5009        0.0000        6.5613        6.5613       6.060468       0.13913
  39     1.339        0.5009        0.0000        6.5516        6.5516       6.050691       0.11008
  38     1.782        0.5009        0.0000        6.5473        6.5473       6.046475       0.08026
  37     2.292        0.5009        0.0000        6.5434        6.5435       6.042588       0.06438
  36     2.964        0.5009        0.0000        6.5395        6.5395       6.038634       0.04964
  35     3.853        0.5009        0.0000        6.5355        6.5356       6.034691       0.03742
  34     5.035        0.5009        0.0000        6.5315        6.5315       6.030689       0.02859
  33     6.613        0.5008        0.0000        6.5271        6.5271       6.026296       0.02349
  32     8.786        0.5008        0.0000        6.5216        6.5216       6.020801       0.02134
  31     11.80        0.5008        0.0001        6.5135        6.5135       6.012724       0.02261
  30     15.07        0.5008        0.0001        6.5041        6.5042       6.003357       0.02418
  29     18.79        0.5008        0.0001        6.4925        6.4926       5.991844       0.02610
  28     23.16        0.5008        0.0001        6.4779        6.4780       5.977255       0.02821
  27     28.12        0.5008        0.0002        6.4599        6.4600       5.959285       0.03055
  26     33.73        0.5007        0.0002        6.4384        6.4386       5.937860       0.03221
  25     40.54        0.5007        0.0002        6.4112        6.4114       5.910745       0.03364
  24     48.69        0.5007        0.0003        6.3775        6.3778       5.877122       0.03479
  23     57.69        0.5006        0.0003        6.3404        6.3407       5.840049       0.03475
  22     68.43        0.5006        0.0004        6.2971        6.2975       5.796885       0.03393
  21     81.20        0.5006        0.0004        6.2483        6.2487       5.748106       0.03223
  20     96.49        0.5006        0.0005        6.1948        6.1953       5.694786       0.02943
  19     114.6        0.5005        0.0006        6.1381        6.1388       5.638221       0.02641
  18     136.5        0.5005        0.0007        6.0790        6.0797       5.579208       0.02269
  17     162.9        0.5005        0.0009        6.0160        6.0169       5.516382       0.02008
  16     196.4        0.5006        0.0010        5.9399        5.9409       5.440343       0.01914
  15     218.7        0.5006        0.0011        5.8896        5.8908       5.390166       0.01905
  14     243.0        0.5007        0.0012        5.8322        5.8334       5.332742       0.01992
  13     269.0        0.5009        0.0014        5.7624        5.7638       5.262911       0.02265
  12     297.5        0.5011        0.0015        5.6767        5.6782       5.177085       0.02545
  11     328.5        0.5016        0.0016        5.5726        5.5742       5.072654       0.02839
  10     361.9        0.5022        0.0018        5.4473        5.4491       4.946911       0.03181
   9     398.1        0.5030        0.0019        5.2995        5.3014       4.798346       0.03461
   8     437.6        0.5042        0.0020        5.1275        5.1295       4.625280       0.03700
   7     480.5        0.5059        0.0022        4.9290        4.9311       4.425271       0.03928
   6     533.0        0.5085        0.0023        4.6794        4.6817       4.173189       0.04055
   5     589.8        0.5122        0.0024        4.4188        4.4212       3.909028       0.03921
   4     651.6        0.5174        0.0026        4.1521        4.1546       3.637239       0.03717
   3     718.7        0.5244        0.0027        3.8929        3.8956       3.371234       0.03343
   2     792.3        0.5334        0.0028        3.6469        3.6497       3.116225       0.02925
   1     891.5        0.5489        0.0029        3.3535        3.3564       2.807502       0.02627
   0    1013.0        0.5754        0.0030        3.0383        3.0414       2.465970       0.02371



 Wavenumbers:  5150. -  6150. cm-1, ATM      1
 LEVEL PRESSURE   UPWARD FLUX   DIFDOWN FLUX  DIRDOWN FLUX  DOWNWARD FLUX   NET FLUX    HEATING RATE
          mb          W/m2          W/m2          W/m2        W/m2          W/m2       degree/day
  51    .06700        1.7396        0.0000       16.4735       16.4735      14.733865       0.00000
  50    .07753        1.7396        0.0000       16.4735       16.4735      14.733830       0.02761
  49    .09103        1.7396        0.0000       16.4734       16.4734      14.733785       0.02811
  48    0.1069        1.7396        0.0000       16.4734       16.4734      14.733732       0.02859
  47    0.1255        1.7396        0.0000       16.4733       16.4733      14.733668       0.02904
  46    0.1487        1.7396        0.0000       16.4732       16.4732      14.733584       0.03060
  45    0.1794        1.7396        0.0000       16.4731       16.4731      14.733465       0.03269
  44    0.2165        1.7396        0.0000       16.4730       16.4730      14.733318       0.03331
  43    0.2613        1.7396        0.0000       16.4728       16.4728      14.733139       0.03376
  42    0.3336        1.7396        0.0000       16.4725       16.4725      14.732833       0.03564
  41    0.4307        1.7396        0.0000       16.4720       16.4720      14.732414       0.03645
  40    0.5894        1.7396        0.0000       16.4713       16.4713      14.731713       0.03729
  39     1.339        1.7396        0.0000       16.4679       16.4679      14.728304       0.03838
  38     1.782        1.7396        0.0000       16.4659       16.4659      14.726305       0.03807
  37     2.292        1.7396        0.0001       16.4635       16.4636      14.724014       0.03795
  36     2.964        1.7396        0.0001       16.4605       16.4606      14.721044       0.03728
  35     3.853        1.7396        0.0001       16.4567       16.4567      14.717191       0.03657
  34     5.035        1.7395        0.0001       16.4516       16.4517      14.712194       0.03570
  33     6.613        1.7395        0.0002       16.4451       16.4452      14.705733       0.03454
  32     8.786        1.7395        0.0002       16.4367       16.4369      14.697421       0.03228
  31     11.80        1.7394        0.0003       16.4254       16.4257      14.686269       0.03122
  30     15.07        1.7393        0.0004       16.4141       16.4145      14.675182       0.02863
  29     18.79        1.7393        0.0005       16.4024       16.4029      14.663661       0.02612
  28     23.16        1.7392        0.0006       16.3900       16.3906      14.651399       0.02371
  27     28.12        1.7391        0.0007       16.3771       16.3778      14.638734       0.02153
  26     33.73        1.7390        0.0009       16.3641       16.3650      14.626007       0.01914
  25     40.54        1.7389        0.0010       16.3502       16.3512      14.612365       0.01692
  24     48.69        1.7387        0.0013       16.3354       16.3366      14.597891       0.01498
  23     57.69        1.7386        0.0015       16.3211       16.3226      14.583990       0.01303
  22     68.43        1.7384        0.0018       16.3062       16.3080      14.569602       0.01131
  21     81.20        1.7382        0.0021       16.2903       16.2924      14.554209       0.01017
  20     96.49        1.7380        0.0025       16.2726       16.2751      14.537135       0.00942
  19     114.6        1.7377        0.0029       16.2521       16.2550      14.517322       0.00925
  18     136.5        1.7374        0.0035       16.2245       16.2280      14.490662       0.01025
  17     162.9        1.7370        0.0041       16.1747       16.1789      14.441878       0.01559
  16     196.4        1.7365        0.0050       16.0518       16.0568      14.320274       0.03061
  15     218.7        1.7363        0.0055       15.8984       15.9039      14.167626       0.05796
  14     243.0        1.7360        0.0060       15.6153       15.6213      13.885321       0.09791
  13     269.0        1.7357        0.0065       15.1390       15.1455      13.409808       0.15425
  12     297.5        1.7355        0.0070       14.5779       14.5849      12.849382       0.16622
  11     328.5        1.7354        0.0075       13.8780       13.8855      12.150054       0.19015
  10     361.9        1.7355        0.0078       13.0814       13.0893      11.353815       0.20146
   9     398.1        1.7357        0.0082       12.2728       12.2810      10.545315       0.18836
   8     437.6        1.7362        0.0085       11.4776       11.4860       9.749808       0.17008
   7     480.5        1.7372        0.0087       10.7300       10.7387       9.001483       0.14697
   6     533.0        1.7391        0.0091       10.0326       10.0417       8.302529       0.11244
   5     589.8        1.7423        0.0095        9.5050        9.5145       7.772231       0.07871
   4     651.6        1.7473        0.0100        9.0814        9.0914       7.344090       0.05855
   3     718.7        1.7546        0.0106        8.7024        8.7131       6.958424       0.04847
   2     792.3        1.7647        0.0113        8.3379        8.3492       6.584544       0.04288
   1     891.5        1.7834        0.0122        7.9064        7.9185       6.135155       0.03824
   0    1013.0        1.8218        0.0131        7.4741        7.4872       5.665355       0.03262



 Wavenumbers:  6150. -  7700. cm-1, ATM      1
 LEVEL PRESSURE   UPWARD FLUX   DIFDOWN FLUX  DIRDOWN FLUX  DOWNWARD FLUX   NET FLUX    HEATING RATE
          mb          W/m2          W/m2          W/m2        W/m2          W/m2       degree/day
  51    .06700        2.7887        0.0000       30.4684       30.4684      27.679666       0.00000
  50    .07753        2.7887        0.0000       30.4683       30.4683      27.679614       0.04144
  49    .09103        2.7887        0.0000       30.4683       30.4683      27.679547       0.04174
  48    0.1069        2.7887        0.0000       30.4682       30.4682      27.679468       0.04202
  47    0.1255        2.7887        0.0000       30.4681       30.4681      27.679375       0.04227
  46    0.1487        2.7887        0.0000       30.4680       30.4680      27.679254       0.04411
  45    0.1794        2.7887        0.0000       30.4678       30.4678      27.679084       0.04669
  44    0.2165        2.7887        0.0000       30.4676       30.4676      27.678877       0.04715
  43    0.2613        2.7887        0.0000       30.4673       30.4673      27.678625       0.04744
  42    0.3336        2.7887        0.0000       30.4669       30.4669      27.678198       0.04974
  41    0.4307        2.7887        0.0000       30.4663       30.4663      27.677617       0.05052
  40    0.5894        2.7887        0.0001       30.4653       30.4653      27.676650       0.05146
  39     1.339        2.7886        0.0001       30.4604       30.4606      27.671966       0.05273
  38     1.782        2.7885        0.0002       30.4576       30.4578      27.669216       0.05235
  37     2.292        2.7885        0.0002       30.4543       30.4546      27.666058       0.05231
  36     2.964        2.7884        0.0003       30.4501       30.4504      27.661950       0.05156
  35     3.853        2.7883        0.0004       30.4445       30.4449      27.656593       0.05084
  34     5.035        2.7882        0.0005       30.4373       30.4378      27.649594       0.05000
  33     6.613        2.7881        0.0007       30.4278       30.4285      27.640446       0.04890
  32     8.786        2.7878        0.0009       30.4154       30.4163      27.628493       0.04642
  31     11.80        2.7875        0.0013       30.3984       30.3996      27.612108       0.04587
  30     15.07        2.7872        0.0016       30.3810       30.3826      27.595395       0.04315
  29     18.79        2.7868        0.0020       30.3623       30.3643      27.577494       0.04059
  28     23.16        2.7864        0.0025       30.3417       30.3442      27.557811       0.03806
  27     28.12        2.7859        0.0031       30.3196       30.3226      27.536711       0.03587
  26     33.73        2.7854        0.0037       30.2965       30.3002      27.514793       0.03295
  25     40.54        2.7847        0.0044       30.2708       30.2751      27.490456       0.03019
  24     48.69        2.7839        0.0053       30.2423       30.2476      27.463680       0.02771
  23     57.69        2.7830        0.0062       30.2139       30.2201      27.437114       0.02490
  22     68.43        2.7819        0.0074       30.1834       30.1908      27.408840       0.02223
  21     81.20        2.7807        0.0088       30.1500       30.1588      27.378112       0.02030
  20     96.49        2.7791        0.0104       30.1126       30.1230      27.343895       0.01889
  19     114.6        2.7774        0.0124       30.0695       30.0819      27.304511       0.01839
  18     136.5        2.7752        0.0147       30.0139       30.0286      27.253359       0.01967
  17     162.9        2.7727        0.0174       29.9225       29.9399      27.167186       0.02754
  16     196.4        2.7694        0.0209       29.7333       29.7543      26.984808       0.04591
  15     218.7        2.7673        0.0232       29.5259       29.5490      26.781688       0.07712
  14     243.0        2.7651        0.0255       29.1375       29.1630      26.397878       0.13312
  13     269.0        2.7628        0.0278       28.3800       28.4078      25.644934       0.24425
  12     297.5        2.7606        0.0298       27.3895       27.4194      24.658818       0.29247
  11     328.5        2.7585        0.0318       26.2257       26.2575      23.499075       0.31533
  10     361.9        2.7566        0.0336       24.8453       24.8790      22.122325       0.34833
   9     398.1        2.7553        0.0352       23.3471       23.3822      20.626948       0.34839
   8     437.6        2.7547        0.0365       21.7966       21.8331      19.078378       0.33109
   7     480.5        2.7555        0.0375       20.1977       20.2352      17.479644       0.31399
   6     533.0        2.7589        0.0384       18.4969       18.5354      15.776438       0.27399
   5     589.8        2.7662        0.0394       16.9754       17.0148      14.248597       0.22678
   4     651.6        2.7794        0.0404       15.6022       15.6425      12.863131       0.18947
   3     718.7        2.7999        0.0415       14.4232       14.4647      11.664738       0.15060
   2     792.3        2.8290        0.0428       13.4386       13.4814      10.652425       0.11610
   1     891.5        2.8836        0.0447       12.3736       12.4183       9.534631       0.09512
   0    1013.0        2.9945        0.0467       11.2911       11.3379       8.343349       0.08272



 Wavenumbers:  7700. -  8050. cm-1, ATM      1
 LEVEL PRESSURE   UPWARD FLUX   DIFDOWN FLUX  DIRDOWN FLUX  DOWNWARD FLUX   NET FLUX    HEATING RATE
          mb          W/m2          W/m2          W/m2        W/m2          W/m2       degree/day
  51    .06700        2.6252        0.0000        7.2006        7.2006       4.575418       0.00000
  50    .07753        2.6252        0.0000        7.2006        7.2006       4.575398       0.01555
  49    .09103        2.6252        0.0000        7.2005        7.2005       4.575374       0.01524
  48    0.1069        2.6252        0.0000        7.2005        7.2005       4.575346       0.01492
  47    0.1255        2.6252        0.0000        7.2005        7.2005       4.575314       0.01460
  46    0.1487        2.6252        0.0000        7.2004        7.2005       4.575273       0.01481
  45    0.1794        2.6252        0.0000        7.2004        7.2004       4.575218       0.01524
  44    0.2165        2.6252        0.0000        7.2003        7.2003       4.575152       0.01495
  43    0.2613        2.6252        0.0000        7.2003        7.2003       4.575074       0.01467
  42    0.3336        2.6252        0.0000        7.2001        7.2001       4.574945       0.01501
  41    0.4307        2.6252        0.0000        7.2000        7.2000       4.574775       0.01485
  40    0.5894        2.6252        0.0000        7.1997        7.1997       4.574496       0.01483
  39     1.339        2.6253        0.0001        7.1984        7.1985       4.573177       0.01485
  38     1.782        2.6254        0.0001        7.1977        7.1978       4.572402       0.01475
  37     2.292        2.6254        0.0001        7.1968        7.1969       4.571506       0.01484
  36     2.964        2.6255        0.0001        7.1957        7.1958       4.570329       0.01477
  35     3.853        2.6256        0.0002        7.1942        7.1944       4.568776       0.01474
  34     5.035        2.6258        0.0002        7.1922        7.1925       4.566714       0.01473
  33     6.613        2.6259        0.0003        7.1896        7.1899       4.563962       0.01471
  32     8.786        2.6262        0.0004        7.1860        7.1865       4.560259       0.01438
  31     11.80        2.6266        0.0006        7.1810        7.1815       4.554973       0.01480
  30     15.07        2.6269        0.0007        7.1755        7.1763       4.549313       0.01461
  29     18.79        2.6274        0.0009        7.1694        7.1703       4.542938       0.01445
  28     23.16        2.6279        0.0011        7.1623        7.1634       4.535519       0.01435
  27     28.12        2.6285        0.0013        7.1542        7.1556       4.527071       0.01436
  26     33.73        2.6292        0.0016        7.1452        7.1468       4.517664       0.01414
  25     40.54        2.6300        0.0019        7.1344        7.1363       4.506364       0.01402
  24     48.69        2.6310        0.0023        7.1215        7.1238       4.492837       0.01400
  23     57.69        2.6320        0.0027        7.1074        7.1101       4.478099       0.01381
  22     68.43        2.6333        0.0032        7.0909        7.0940       4.460709       0.01367
  21     81.20        2.6349        0.0038        7.0713        7.0751       4.440218       0.01354
  20     96.49        2.6368        0.0045        7.0484        7.0529       4.416119       0.01330
  19     114.6        2.6390        0.0053        7.0217        7.0270       4.387936       0.01316
  18     136.5        2.6418        0.0063        6.9906        6.9969       4.355114       0.01262
  17     162.9        2.6450        0.0074        6.9544        6.9618       4.316801       0.01225
  16     196.4        2.6494        0.0089        6.9087        6.9177       4.268304       0.01221
  15     218.7        2.6523        0.0099        6.8794        6.8893       4.237070       0.01186
  14     243.0        2.6555        0.0110        6.8481        6.8591       4.203616       0.01160
  13     269.0        2.6590        0.0121        6.8147        6.8269       4.167811       0.01161
  12     297.5        2.6630        0.0134        6.7791        6.7925       4.129457       0.01138
  11     328.5        2.6674        0.0147        6.7409        6.7557       4.088241       0.01121
  10     361.9        2.6724        0.0161        6.7002        6.7163       4.043906       0.01122
   9     398.1        2.6780        0.0177        6.6563        6.6740       3.995920       0.01118
   8     437.6        2.6845        0.0193        6.6089        6.6282       3.943724       0.01116
   7     480.5        2.6919        0.0211        6.5570        6.5781       3.886170       0.01130
   6     533.0        2.7019        0.0232        6.4915        6.5147       3.812771       0.01181
   5     589.8        2.7139        0.0255        6.4182        6.4437       3.729812       0.01231
   4     651.6        2.7284        0.0279        6.3359        6.3638       3.635393       0.01291
   3     718.7        2.7458        0.0305        6.2441        6.2747       3.528891       0.01338
   2     792.3        2.7662        0.0332        6.1437        6.1770       3.410820       0.01354
   1     891.5        2.7968        0.0368        6.0042        6.0410       3.244174       0.01418
   0    1013.0        2.8404        0.0410        5.8249        5.8659       3.025489       0.01518



 Wavenumbers:  8050. - 12850. cm-1, ATM      1
 LEVEL PRESSURE   UPWARD FLUX   DIFDOWN FLUX  DIRDOWN FLUX  DOWNWARD FLUX   NET FLUX    HEATING RATE
          mb          W/m2          W/m2          W/m2        W/m2          W/m2       degree/day
  51    .06700       52.3115        0.0000      100.8135      100.8135      48.502030       0.00000
  50    .07753       52.3115        0.0000      100.8135      100.8135      48.502030       0.00000
  49    .09103       52.3114        0.0001      100.8134      100.8135      48.502030       0.00000
  48    0.1069       52.3114        0.0001      100.8134      100.8135      48.502030       0.00000
  47    0.1255       52.3114        0.0001      100.8133      100.8134      48.502030      -0.00000
  46    0.1487       52.3114        0.0002      100.8132      100.8134      48.502030       0.00000
  45    0.1794       52.3113        0.0003      100.8131      100.8133      48.502030       0.00000
  44    0.2165       52.3113        0.0004      100.8129      100.8133      48.502030       0.00000
  43    0.2613       52.3112        0.0005      100.8127      100.8132      48.502030      -0.00000
  42    0.3336       52.3111        0.0007      100.8125      100.8131      48.502030       0.00000
  41    0.4307       52.3109        0.0009      100.8121      100.8130      48.502030      -0.00000
  40    0.5894       52.3107        0.0013      100.8115      100.8127      48.502030      -0.00000
  39     1.339       52.3096        0.0031      100.8085      100.8116      48.502030       0.00000
  38     1.782       52.3089        0.0042      100.8068      100.8110      48.502030       0.00000
  37     2.292       52.3082        0.0055      100.8047      100.8102      48.502030       0.00000
  36     2.964       52.3072        0.0071      100.8021      100.8092      48.502030      -0.00000
  35     3.853       52.3059        0.0093      100.7986      100.8079      48.502030      -0.00000
  34     5.035       52.3041        0.0122      100.7940      100.8061      48.502030       0.00000
  33     6.613       52.3018        0.0160      100.7878      100.8038      48.502030       0.00000
  32     8.786       52.2986        0.0212      100.7794      100.8007      48.502030       0.00000
  31     11.80       52.2941        0.0287      100.7674      100.7961      48.502030      -0.00000
  30     15.07       52.2892        0.0367      100.7546      100.7913      48.502030       0.00000
  29     18.79       52.2838        0.0458      100.7400      100.7858      48.502030       0.00000
  28     23.16       52.2773        0.0564      100.7230      100.7794      48.502030      -0.00000
  27     28.12       52.2700        0.0685      100.7035      100.7720      48.502030       0.00000
  26     33.73       52.2618        0.0821      100.6817      100.7638      48.502030       0.00000
  25     40.54       52.2518        0.0986      100.6552      100.7538      48.502030       0.00000
  24     48.69       52.2398        0.1184      100.6234      100.7418      48.502030      -0.00000
  23     57.69       52.2265        0.1403      100.5883      100.7286      48.502030       0.00000
  22     68.43       52.2107        0.1663      100.5464      100.7128      48.502030      -0.00000
  21     81.20       52.1919        0.1974      100.4965      100.6939      48.502030      -0.00000
  20     96.49       52.1694        0.2345      100.4370      100.6714      48.502030       0.00000
  19     114.6       52.1428        0.2786      100.3585      100.6371      48.494276       0.00362
  18     136.5       52.1112        0.3310      100.2634      100.5943      48.483122       0.00429
  17     162.9       52.0736        0.3934      100.1407      100.5341      48.460518       0.00723
  16     196.4       52.0248        0.4746       99.9505      100.4251      48.400248       0.01517
  15     218.7       51.9928        0.5279       99.7889      100.3168      48.324045       0.02893
  14     243.0       51.9581        0.5858       99.5472      100.1329      48.174799       0.05176
  13     269.0       51.9215        0.6482       99.1452       99.7934      47.871918       0.09825
  12     297.5       51.8835        0.7152       98.5975       99.3126      47.429176       0.13131
  11     328.5       51.8452        0.7870       97.8659       98.6528      46.807639       0.16899
  10     361.9       51.8085        0.8634       96.8848       97.7481      45.939614       0.21962
   9     398.1       51.7758        0.9441       95.6330       96.5771      44.801329       0.26519
   8     437.6       51.7513        1.0288       94.0655       95.0943      43.342974       0.31181
   7     480.5       51.7437        1.1165       92.0807       93.1973      41.453534       0.37108
   6     533.0       51.7659        1.2205       89.4449       90.6653      38.899370       0.41088
   5     589.8       51.8367        1.3281       86.5544       87.8825      36.045804       0.42356
   4     651.6       51.9823        1.4390       83.4174       84.8564      32.874141       0.43373
   3     718.7       52.2189        1.5540       80.2037       81.7577      29.538739       0.41917
   2     792.3       52.5613        1.6736       77.0811       78.7547      26.193414       0.38367
   1     891.5       53.2130        1.8288       73.2645       75.0933      21.880277       0.36703
   0    1013.0       54.4940        2.0027       68.9425       70.9452      16.451168       0.37697



 Wavenumbers: 12850. - 16000. cm-1, ATM      1
 LEVEL PRESSURE   UPWARD FLUX   DIFDOWN FLUX  DIRDOWN FLUX  DOWNWARD FLUX   NET FLUX    HEATING RATE
          mb          W/m2          W/m2          W/m2        W/m2          W/m2       degree/day
  51    .06700       48.5697        0.0000       63.1686       63.1686      14.598876       0.00000
  50    .07753       48.5697        0.0001       63.1677       63.1678      14.598093       0.62712
  49    .09103       48.5697        0.0001       63.1666       63.1668      14.597118       0.60983
  48    0.1069       48.5696        0.0002       63.1654       63.1656      14.596006       0.59181
  47    0.1255       48.5696        0.0003       63.1640       63.1644      14.594740       0.57375
  46    0.1487       48.5696        0.0005       63.1623       63.1627      14.593160       0.57595
  45    0.1794       48.5696        0.0006       63.1600       63.1606      14.591039       0.58233
  44    0.2165       48.5695        0.0008       63.1573       63.1581      14.588583       0.55878
  43    0.2613       48.5695        0.0011       63.1542       63.1553      14.585745       0.53494
  42    0.3336       48.5696        0.0015       63.1493       63.1508      14.581213       0.52829
  41    0.4307       48.5696        0.0020       63.1431       63.1452      14.575532       0.49403
  40    0.5894       48.5698        0.0029       63.1338       63.1367      14.566890       0.45953
  39     1.339       48.5726        0.0071       63.0956       63.1026      14.530067       0.41457
  38     1.782       48.5754        0.0095       63.0740       63.0835      14.508075       0.41869
  37     2.292       48.5800        0.0123       63.0477       63.0600      14.480001       0.46498
  36     2.964       48.5878        0.0160       63.0095       63.0255      14.437780       0.53000
  35     3.853       48.6006        0.0209       62.9533       62.9742      14.373533       0.60971
  34     5.035       48.6203        0.0274       62.8725       62.8999      14.279638       0.67075
  33     6.613       48.6478        0.0360       62.7621       62.7981      14.150333       0.69126
  32     8.786       48.6835        0.0477       62.6182       62.6659      13.982436       0.65205
  31     11.80       48.7296        0.0643       62.4284       62.4926      13.763084       0.61412
  30     15.07       48.7732        0.0821       62.2426       62.3247      13.551509       0.54625
  29     18.79       48.8172        0.1022       62.0493       62.1515      13.334244       0.49261
  28     23.16       48.8626        0.1255       61.8424       61.9680      13.105431       0.44245
  27     28.12       48.9074        0.1522       61.6278       61.7801      12.872706       0.39562
  26     33.73       48.9473        0.1821       61.4177       61.5997      12.652394       0.33125
  25     40.54       48.9839        0.2181       61.1983       61.4164      12.432411       0.27291
  24     48.69       49.0167        0.2614       60.9680       61.2294      12.212696       0.22737
  23     57.69       49.0416        0.3089       60.7478       61.0567      12.015151       0.18517
  22     68.43       49.0593        0.3655       60.5202       60.8857      11.826425       0.14836
  21     81.20       49.0640        0.4329       60.2938       60.7267      11.662759       0.10815
  20     96.49       49.0544        0.5132       60.0643       60.5775      11.523051       0.07711
  19     114.6       49.0447        0.6093       59.8078       60.4171      11.372330       0.07038
  18     136.5       49.0262        0.7230       59.5157       60.2387      11.212515       0.06145
  17     162.9       48.9977        0.8581       59.1770       60.0352      11.037501       0.05594
  16     196.4       48.9469        1.0330       58.7604       59.7934      10.846509       0.04808
  15     218.7       48.9086        1.1476       58.4948       59.6424      10.733739       0.04281
  14     243.0       48.8649        1.2719       58.2089       59.4808      10.615939       0.04086
  13     269.0       48.8156        1.4065       57.9006       59.3071      10.491434       0.04039
  12     297.5       48.7610        1.5516       57.5668       59.1184      10.357396       0.03975
  11     328.5       48.7025        1.7081       57.2005       58.9086      10.206130       0.04113
  10     361.9       48.6410        1.8763       56.7963       58.6726      10.031589       0.04416
   9     398.1       48.5777        2.0567       56.3475       58.4043       9.826566       0.04777
   8     437.6       48.5150        2.2499       55.8422       58.0921       9.577079       0.05334
   7     480.5       48.4575        2.4558       55.2625       57.7184       9.260909       0.06209
   6     533.0       48.4030        2.7077       54.4972       57.2048       8.801852       0.07385
   5     589.8       48.3644        2.9759       53.6307       56.6066       8.242158       0.08308
   4     651.6       48.3508        3.2598       52.6606       55.9204       7.569618       0.09197
   3     718.7       48.3665        3.5598       51.6100       55.1698       6.803319       0.09630
   2     792.3       48.4176        3.8758       50.5019       54.3776       5.960034       0.09672
   1     891.5       48.5559        4.2932       49.0197       53.3129       4.756976       0.10237
   0    1013.0       48.8633        4.7789       47.2289       52.0078       3.144473       0.11196



 Wavenumbers: 16000. - 22650. cm-1, ATM      1
 LEVEL PRESSURE   UPWARD FLUX   DIFDOWN FLUX  DIRDOWN FLUX  DOWNWARD FLUX   NET FLUX    HEATING RATE
          mb          W/m2          W/m2          W/m2        W/m2          W/m2       degree/day
  51    .06700       87.5302        0.0000      100.7153      100.7153      13.185104       0.00000
  50    .07753       87.5301        0.0003      100.7147      100.7151      13.184981       0.09821
  49    .09103       87.5300        0.0008      100.7140      100.7148      13.184803       0.11139
  48    0.1069       87.5298        0.0013      100.7131      100.7144      13.184564       0.12702
  47    0.1255       87.5297        0.0018      100.7121      100.7139      13.184245       0.14478
  46    0.1487       87.5295        0.0025      100.7108      100.7133      13.183774       0.17157
  45    0.1794       87.5293        0.0035      100.7089      100.7124      13.183038       0.20201
  44    0.2165       87.5292        0.0046      100.7066      100.7112      13.182040       0.22703
  43    0.2613       87.5290        0.0060      100.7037      100.7097      13.180686       0.25523
  42    0.3336       87.5288        0.0083      100.6987      100.7070      13.178112       0.30015
  41    0.4307       87.5288        0.0112      100.6918      100.7030      13.174231       0.33739
  40    0.5894       87.5290        0.0161      100.6797      100.6959      13.166831       0.39353
  39     1.339       87.5365        0.0392      100.6095      100.6487      13.112167       0.61542
  38     1.782       87.5456        0.0527      100.5585      100.6112      13.065613       0.88632
  37     2.292       87.5604        0.0684      100.4903      100.5587      12.998244       1.11581
  36     2.964       87.5866        0.0890      100.3868      100.4758      12.889151       1.36944
  35     3.853       87.6306        0.1161      100.2306      100.3467      12.716159       1.64172
  34     5.035       87.6983        0.1521      100.0045      100.1566      12.458320       1.84190
  33     6.613       87.7935        0.2001       99.6939       99.8940      12.100490       1.91296
  32     8.786       87.9170        0.2646       99.2881       99.5527      11.635727       1.80497
  31     11.80       88.0755        0.3567       98.7496       99.1063      11.030790       1.69363
  30     15.07       88.2245        0.4551       98.2198       98.6750      10.450431       1.49837
  29     18.79       88.3739        0.5660       97.6651       98.2311       9.857230       1.34497
  28     23.16       88.5265        0.6951       97.0671       97.7622       9.235710       1.20182
  27     28.12       88.6754        0.8421       96.4406       97.2827       8.607273       1.06830
  26     33.73       88.8053        1.0062       95.8179       96.8241       8.018756       0.88485
  25     40.54       88.9197        1.2037       95.1548       96.3586       7.438841       0.71945
  24     48.69       89.0165        1.4411       94.4420       95.8830       6.866515       0.59227
  23     57.69       89.0832        1.7008       93.7416       95.4424       6.359246       0.47549
  22     68.43       89.1198        2.0089       92.9954       95.0043       5.884519       0.37320
  21     81.20       89.1048        2.3747       92.2231       94.5979       5.493016       0.25870
  20     96.49       89.0330        2.8087       91.4110       94.2197       5.186709       0.16906
  19     114.6       88.9211        3.3207       90.5070       93.8278       4.906660       0.13076
  18     136.5       88.7710        3.9228       89.4803       93.4031       4.632077       0.10558
  17     162.9       88.5772        4.6330       88.3022       92.9352       4.358038       0.08759
  16     196.4       88.2920        5.5440       86.8606       92.4046       4.112582       0.06178
  15     218.7       88.0932        6.1361       85.9492       92.0853       3.992106       0.04574
  14     243.0       87.8727        6.7742       84.9789       91.7532       3.880529       0.03870
  13     269.0       87.6293        7.4595       83.9493       91.4087       3.779444       0.03279
  12     297.5       87.3626        8.1927       82.8589       91.0516       3.688999       0.02683
  11     328.5       87.0746        8.9766       81.6982       90.6748       3.600211       0.02414
  10     361.9       86.7654        9.8110       80.4669       90.2779       3.512551       0.02218
   9     398.1       86.4344       10.6980       79.1611       89.8591       3.424770       0.02045
   8     437.6       86.0825       11.6381       77.7777       89.4159       3.333422       0.01953
   7     480.5       85.7102       12.6319       76.3136       88.9455       3.235281       0.01927
   6     533.0       85.2603       13.8355       74.5359       88.3714       3.111130       0.01997
   5     589.8       84.7870       15.1091       72.6469       87.7560       2.969047       0.02109
   4     651.6       84.2934       16.4509       70.6456       87.0964       2.803048       0.02270
   3     718.7       83.7805       17.8590       68.5367       86.3957       2.615174       0.02361
   2     792.3       83.2517       19.3284       66.3287       85.6570       2.405327       0.02407
   1     891.5       82.5751       21.2493       63.4246       84.6739       2.098839       0.02608
   0    1013.0       81.8234       23.4622       60.0483       83.5105       1.687110       0.02859



 Wavenumbers: 22650. - 29000. cm-1, ATM      1
 LEVEL PRESSURE   UPWARD FLUX   DIFDOWN FLUX  DIRDOWN FLUX  DOWNWARD FLUX   NET FLUX    HEATING RATE
          mb          W/m2          W/m2          W/m2        W/m2          W/m2       degree/day
  51    .06700       37.6089        0.0000       38.0063       38.0063       0.397369       0.00000
  50    .07753       37.6088        0.0004       38.0057       38.0061       0.397369       0.00000
  49    .09103       37.6086        0.0009       38.0050       38.0059       0.397369      -0.00000
  48    0.1069       37.6083        0.0015       38.0042       38.0057       0.397369       0.00000
  47    0.1255       37.6081        0.0021       38.0033       38.0055       0.397369      -0.00000
  46    0.1487       37.6078        0.0030       38.0022       38.0051       0.397369       0.00000
  45    0.1794       37.6073        0.0041       38.0006       38.0047       0.397369       0.00000
  44    0.2165       37.6068        0.0054       37.9987       38.0041       0.397369      -0.00000
  43    0.2613       37.6062        0.0070       37.9965       38.0035       0.397369       0.00000
  42    0.3336       37.6051        0.0096       37.9928       38.0025       0.397369      -0.00000
  41    0.4307       37.6037        0.0131       37.9880       38.0011       0.397369       0.00000
  40    0.5894       37.6015        0.0188       37.9800       37.9989       0.397369      -0.00000
  39     1.339       37.5909        0.0458       37.9425       37.9882       0.397369       0.00000
  38     1.782       37.5846        0.0616       37.9204       37.9820       0.397369       0.00000
  37     2.292       37.5774        0.0799       37.8949       37.9748       0.397369       0.00000
  36     2.964       37.5679        0.1039       37.8614       37.9653       0.397369      -0.00000
  35     3.853       37.5554        0.1356       37.8172       37.9528       0.397369       0.00000
  34     5.035       37.5388        0.1776       37.7586       37.9362       0.397369       0.00000
  33     6.613       37.5167        0.2337       37.6803       37.9140       0.397369       0.00000
  32     8.786       37.4869        0.3092       37.5750       37.8842       0.397369      -0.00000
  31     11.80       37.4444        0.4169       37.4249       37.8417       0.397369       0.00000
  30     15.07       37.3989        0.5321       37.2642       37.7962       0.397369       0.00000
  29     18.79       37.3477        0.6618       37.0833       37.7451       0.397369       0.00000
  28     23.16       37.2882        0.8125       36.8730       37.6855       0.397369       0.00000
  27     28.12       37.2204        0.9840       36.6338       37.6178       0.397369       0.00000
  26     33.73       37.1451        1.1748       36.3677       37.5425       0.397369       0.00000
  25     40.54       37.0548        1.4036       36.0486       37.4521       0.397369       0.00000
  24     48.69       36.9468        1.6769       35.6672       37.3442       0.397369      -0.00000
  23     57.69       36.8294        1.9741       35.2527       37.2268       0.397369      -0.00000
  22     68.43       36.6913        2.3237       34.7649       37.0886       0.397369       0.00000
  21     81.20       36.5290        2.7342       34.1922       36.9264       0.397369       0.00000
  20     96.49       36.3391        3.2147       33.5217       36.7365       0.397369       0.00000
  19     114.6       36.1182        3.7732       32.7424       36.5156       0.397369       0.00000
  18     136.5       35.8629        4.4187       31.8416       36.2603       0.397369       0.00000
  17     162.9       35.5678        5.1644       30.8008       35.9652       0.397369       0.00000
  16     196.4       35.1990        6.0957       29.5007       35.5964       0.397369       0.00000
  15     218.7       34.9652        6.6859       28.6767       35.3626       0.397369       0.00000
  14     243.0       34.7183        7.3089       27.8068       35.1156       0.397369       0.00000
  13     269.0       34.4589        7.9629       26.8933       34.8562       0.397369      -0.00000
  12     297.5       34.1878        8.6459       25.9393       34.5852       0.397369       0.00000
  11     328.5       33.9052        9.3575       24.9451       34.3026       0.397369       0.00000
  10     361.9       33.6126       10.0939       23.9160       34.0099       0.397369      -0.00000
   9     398.1       33.3104       10.8536       22.8541       33.7077       0.397369       0.00000
   8     437.6       33.0000       11.6329       21.7645       33.3974       0.397369       0.00000
   7     480.5       32.6830       12.4282       20.6521       33.0804       0.397369      -0.00000
   6     533.0       32.3135       13.3539       19.3569       32.7109       0.397369       0.00000
   5     589.8       31.9392       14.2899       18.0467       32.3366       0.397369       0.00000
   4     651.6       31.5630       15.2288       16.7316       31.9604       0.397369       0.00000
   3     718.7       31.1877       16.1636       15.4214       31.5850       0.397369       0.00000
   2     792.3       30.8162       17.0860       14.1276       31.2136       0.397369      -0.00000
   1     891.5       30.3610       18.2124       12.5459       30.7584       0.397369      -0.00000
   0    1013.0       29.8773       19.4030       10.8717       30.2747       0.397369       0.00000



 Wavenumbers: 29000. - 38000. cm-1, ATM      1
 LEVEL PRESSURE   UPWARD FLUX   DIFDOWN FLUX  DIRDOWN FLUX  DOWNWARD FLUX   NET FLUX    HEATING RATE
          mb          W/m2          W/m2          W/m2        W/m2          W/m2       degree/day
  51    .06700        5.3581        0.0000       13.4026       13.4026       8.044499       0.00000
  50    .07753        5.3579        0.0003       13.3983       13.3986       8.040700       3.04482
  49    .09103        5.3576        0.0007       13.3921       13.3928       8.035180       3.45017
  48    0.1069        5.3573        0.0011       13.3840       13.3851       8.027802       3.92734
  47    0.1255        5.3570        0.0016       13.3733       13.3749       8.017956       4.46384
  46    0.1487        5.3566        0.0022       13.3579       13.3601       8.003511       5.26519
  45    0.1794        5.3560        0.0031       13.3340       13.3371       7.981108       6.15023
  44    0.2165        5.3553        0.0040       13.3024       13.3064       7.951084       6.82987
  43    0.2613        5.3546        0.0052       13.2604       13.2656       7.911023       7.55137
  42    0.3336        5.3534        0.0071       13.1833       13.1904       7.837004       8.62994
  41    0.4307        5.3519        0.0096       13.0729       13.0825       7.730612       9.25054
  40    0.5894        5.3496        0.0135       12.8796       12.8931       7.543530       9.94879
  39     1.339        5.3416        0.0300       11.9165       11.9465       6.604895      10.56732
  38     1.782        5.3387        0.0384       11.4399       11.4783       6.139664       8.85724
  37     2.292        5.3367        0.0474       10.9796       11.0270       5.690377       7.44137
  36     2.964        5.3360        0.0585       10.4786       10.5372       5.201181       6.14090
  35     3.853        5.3377        0.0723        9.9429       10.0152       4.677436       4.97043
  34     5.035        5.3427        0.0894        9.4007        9.4901       4.147391       3.78642
  33     6.613        5.3512        0.1111        8.8752        8.9864       3.635187       2.73825
  32     8.786        5.3627        0.1392        8.3786        8.5178       3.155096       1.86450
  31     11.80        5.3771        0.1778        7.8897        8.0675       2.690349       1.30114
  30     15.07        5.3901        0.2177        7.5108        7.7285       2.338425       0.90860
  29     18.79        5.4026        0.2612        7.1776        7.4388       2.036215       0.68520
  28     23.16        5.4147        0.3102        6.8664        7.1766       1.761894       0.53045
  27     28.12        5.4256        0.3644        6.5780        6.9424       1.516785       0.41667
  26     33.73        5.4327        0.4235        6.3195        6.7430       1.310327       0.31042
  25     40.54        5.4350        0.4933        6.0663        6.5596       1.124633       0.23037
  24     48.69        5.4320        0.5752        5.8128        6.3880       0.955999       0.17451
  23     57.69        5.4234        0.6627        5.5777        6.2404       0.817002       0.13029
  22     68.43        5.4071        0.7640        5.3379        6.1019       0.694783       0.09608
  21     81.20        5.3788        0.8818        5.0965        5.9783       0.599412       0.06302
  20     96.49        5.3374        1.0179        4.8476        5.8656       0.528216       0.03929
  19     114.6        5.2863        1.1725        4.5799        5.7524       0.466083       0.02901
  18     136.5        5.2270        1.3456        4.2891        5.6347       0.407673       0.02246
  17     162.9        5.1594        1.5381        3.9732        5.5112       0.351800       0.01786
  16     196.4        5.0735        1.7694        3.6080        5.3774       0.303841       0.01207
  15     218.7        5.0195        1.9106        3.3898        5.3004       0.280923       0.00870
  14     243.0        4.9636        2.0551        3.1686        5.2237       0.260069       0.00723
  13     269.0        4.9061        2.2016        2.9461        5.1477       0.241615       0.00599
  12     297.5        4.8475        2.3491        2.7239        5.0731       0.225591       0.00475
  11     328.5        4.7887        2.4963        2.5029        4.9992       0.210481       0.00411
  10     361.9        4.7301        2.6419        2.2846        4.9265       0.196311       0.00359
   9     398.1        4.6724        2.7847        2.0708        4.8554       0.183077       0.00308
   8     437.6        4.6158        2.9237        1.8626        4.7863       0.170499       0.00269
   7     480.5        4.5611        3.0577        1.6621        4.7198       0.158715       0.00231
   6     533.0        4.5011        3.2034        1.4437        4.6471       0.146041       0.00204
   5     589.8        4.4447        3.3396        1.2390        4.5786       0.133931       0.00180
   4     651.6        4.3925        3.4647        1.0500        4.5148       0.122222       0.00160
   3     718.7        4.3450        3.5781        0.8778        4.4559       0.110874       0.00143
   2     792.3        4.3026        3.6787        0.7237        4.4024       0.099864       0.00126
   1     891.5        4.2567        3.7868        0.5563        4.3431       0.086382       0.00115
   0    1013.0        4.2156        3.8833        0.4039        4.2873       0.071606       0.00103



 Wavenumbers: 38000. - 50000. cm-1, ATM      1
 LEVEL PRESSURE   UPWARD FLUX   DIFDOWN FLUX  DIRDOWN FLUX  DOWNWARD FLUX   NET FLUX    HEATING RATE
          mb          W/m2          W/m2          W/m2        W/m2          W/m2       degree/day
  51    .06700        0.0051        0.0000        0.8267        0.8267       0.821528       0.00000
  50    .07753        0.0051        0.0001        0.8242        0.8243       0.819196       1.86936
  49    .09103        0.0050        0.0002        0.8207        0.8209       0.815872       2.07705
  48    0.1069        0.0049        0.0002        0.8162        0.8164       0.811514       2.31984
  47    0.1255        0.0048        0.0004        0.8103        0.8106       0.805801       2.59006
  46    0.1487        0.0047        0.0005        0.8018        0.8023       0.797567       3.00143
  45    0.1794        0.0045        0.0007        0.7889        0.7896       0.785013       3.44648
  44    0.2165        0.0044        0.0009        0.7720        0.7729       0.768507       3.75474
  43    0.2613        0.0042        0.0011        0.7500        0.7511       0.746955       4.06246
  42    0.3336        0.0039        0.0015        0.7106        0.7121       0.708267       4.51071
  41    0.4307        0.0035        0.0019        0.6566        0.6584       0.654972       4.63387
  40    0.5894        0.0029        0.0024        0.5680        0.5704       0.567464       4.65357
  39     1.339        0.0015        0.0030        0.2422        0.2452       0.243720       3.64476
  38     1.782        0.0010        0.0026        0.1493        0.1519       0.150889       1.76735
  37     2.292        0.0007        0.0022        0.0924        0.0946       0.093932       0.94336
  36     2.964        0.0005        0.0018        0.0539        0.0557       0.055224       0.48589
  35     3.853        0.0003        0.0013        0.0295        0.0308       0.030502       0.23462
  34     5.035        0.0002        0.0010        0.0154        0.0164       0.016181       0.10230
  33     6.613        0.0001        0.0007        0.0073        0.0080       0.007912       0.04420
  32     8.786        0.0000        0.0004        0.0030        0.0034       0.003390       0.01756
  31     11.80        0.0000        0.0003        0.0010        0.0012       0.001199       0.00613
  30     15.07        0.0000        0.0001        0.0003        0.0005       0.000463       0.00190
  29     18.79        0.0000        0.0001        0.0001        0.0002       0.000182       0.00064
  28     23.16        0.0000        0.0000        0.0000        0.0001       0.000071       0.00022
  27     28.12        0.0000        0.0000        0.0000        0.0000       0.000028       0.00007
  26     33.73        0.0000        0.0000        0.0000        0.0000       0.000011       0.00002
  25     40.54        0.0000        0.0000        0.0000        0.0000       0.000005       0.00001
  24     48.69        0.0000        0.0000        0.0000        0.0000       0.000002       0.00000
  23     57.69        0.0000        0.0000        0.0000        0.0000       0.000001       0.00000
  22     68.43        0.0000        0.0000        0.0000        0.0000       0.000000       0.00000
  21     81.20        0.0000        0.0000        0.0000        0.0000       0.000000       0.00000
  20     96.49        0.0000        0.0000        0.0000        0.0000       0.000000       0.00000
  19     114.6        0.0000        0.0000        0.0000        0.0000       0.000000       0.00000
  18     136.5        0.0000        0.0000        0.0000        0.0000       0.000000       0.00000
  17     162.9        0.0000        0.0000        0.0000        0.0000       0.000000       0.00000
  16     196.4        0.0000        0.0000        0.0000        0.0000       0.000000       0.00000
  15     218.7        0.0000        0.0000        0.0000        0.0000       0.000000       0.00000
  14     243.0        0.0000        0.0000        0.0000        0.0000       0.000000       0.00000
  13     269.0        0.0000        0.0000        0.0000        0.0000       0.000000       0.00000
  12     297.5        0.0000        0.0000        0.0000        0.0000       0.000000       0.00000
  11     328.5        0.0000        0.0000        0.0000        0.0000       0.000000       0.00000
  10     361.9        0.0000        0.0000        0.0000        0.0000       0.000000       0.00000
   9     398.1        0.0000        0.0000        0.0000        0.0000       0.000000       0.00000
   8     437.6        0.0000        0.0000        0.0000        0.0000       0.000000       0.00000
   7     480.5        0.0000        0.0000        0.0000        0.0000       0.000000       0.00000
   6     533.0        0.0000        0.0000        0.0000        0.0000       0.000000       0.00000
   5     589.8        0.0000        0.0000        0.0000        0.0000       0.000000       0.00000
   4     651.6        0.0000        0.0000        0.0000        0.0000       0.000000       0.00000
   3     718.7        0.0000        0.0000        0.0000        0.0000       0.000000       0.00000
   2     792.3        0.0000        0.0000        0.0000        0.0000       0.000000       0.00000
   1     891.5        0.0000        0.0000        0.0000        0.0000       0.000000       0.00000
   0    1013.0        0.0000        0.0000        0.0000        0.0000       0.000000       0.00000



 Wavenumbers:   820. -  2600. cm-1, ATM      1
 LEVEL PRESSURE   UPWARD FLUX   DIFDOWN FLUX  DIRDOWN FLUX  DOWNWARD FLUX   NET FLUX    HEATING RATE
          mb          W/m2          W/m2          W/m2        W/m2          W/m2       degree/day
  51    .06700        0.1293        0.0000        3.8670        3.8670       3.737695       0.00000
  50    .07753        0.1293        0.0000        3.8643        3.8643       3.734978       2.17769
  49    .09103        0.1293        0.0000        3.8635        3.8635       3.734168       0.50638
  48    0.1069        0.1293        0.0000        3.8626        3.8626       3.733277       0.47415
  47    0.1255        0.1293        0.0000        3.8616        3.8616       3.732317       0.43559
  46    0.1487        0.1293        0.0000        3.8605        3.8605       3.731207       0.40437
  45    0.1794        0.1293        0.0000        3.8592        3.8592       3.729872       0.36647
  44    0.2165        0.1293        0.0000        3.8578        3.8578       3.728494       0.31346
  43    0.2613        0.1293        0.0000        3.8564        3.8564       3.727034       0.27522
  42    0.3336        0.1293        0.0000        3.8541        3.8541       3.724803       0.26012
  41    0.4307        0.1293        0.0000        3.8512        3.8512       3.721921       0.25063
  40    0.5894        0.1293        0.0000        3.8465        3.8465       3.717194       0.25133
  39     1.339        0.1293        0.0000        3.8251        3.8251       3.695819       0.24064
  38     1.782        0.1293        0.0000        3.8133        3.8133       3.684007       0.22489
  37     2.292        0.1293        0.0000        3.8003        3.8003       3.670946       0.21632
  36     2.964        0.1293        0.0000        3.7841        3.7841       3.654817       0.20246
  35     3.853        0.1293        0.0000        3.7642        3.7642       3.634903       0.18899
  34     5.035        0.1293        0.0000        3.7395        3.7395       3.610212       0.17638
  33     6.613        0.1293        0.0000        3.7090        3.7090       3.579677       0.16324
  32     8.786        0.1293        0.0000        3.6726        3.6726       3.543285       0.14133
  31     11.80        0.1293        0.0000        3.6320        3.6320       3.502691       0.11365
  30     15.07        0.1293        0.0000        3.6016        3.6016       3.472308       0.07844
  29     18.79        0.1293        0.0000        3.5777        3.5777       3.448412       0.05418
  28     23.16        0.1293        0.0000        3.5564        3.5564       3.427059       0.04129
  27     28.12        0.1293        0.0000        3.5348        3.5348       3.405515       0.03662
  26     33.73        0.1293        0.0000        3.5118        3.5118       3.382483       0.03463
  25     40.54        0.1293        0.0000        3.4849        3.4849       3.355597       0.03335
  24     48.69        0.1293        0.0000        3.4537        3.4537       3.324348       0.03234
  23     57.69        0.1293        0.0000        3.4210        3.4210       3.291677       0.03062
  22     68.43        0.1293        0.0000        3.3844        3.3844       3.255094       0.02876
  21     81.20        0.1293        0.0000        3.3441        3.3441       3.214798       0.02663
  20     96.49        0.1294        0.0000        3.2998        3.2998       3.170437       0.02448
  19     114.6        0.1294        0.0000        3.2506        3.2506       3.121292       0.02295
  18     136.5        0.1294        0.0000        3.1936        3.1936       3.064246       0.02194
  17     162.9        0.1294        0.0000        3.1181        3.1181       2.988747       0.02413
  16     196.4        0.1294        0.0000        3.0090        3.0090       2.879566       0.02748
  15     218.7        0.1294        0.0000        2.9420        2.9420       2.812566       0.02544
  14     243.0        0.1295        0.0000        2.8605        2.8605       2.731010       0.02829
  13     269.0        0.1295        0.0000        2.7419        2.7420       2.612438       0.03846
  12     297.5        0.1296        0.0000        2.5729        2.5729       2.443245       0.05018
  11     328.5        0.1298        0.0000        2.3602        2.3602       2.230375       0.05788
  10     361.9        0.1301        0.0000        2.1524        2.1524       2.022325       0.05264
   9     398.1        0.1305        0.0000        1.9974        1.9974       1.866905       0.03621
   8     437.6        0.1311        0.0000        1.8835        1.8835       1.752405       0.02448
   7     480.5        0.1320        0.0000        1.7734        1.7734       1.641463       0.02179
   6     533.0        0.1334        0.0000        1.6397        1.6398       1.506329       0.02174
   5     589.8        0.1355        0.0000        1.5068        1.5069       1.371317       0.02004
   4     651.6        0.1387        0.0000        1.3807        1.3807       1.242054       0.01768
   3     718.7        0.1428        0.0000        1.2680        1.2680       1.125208       0.01468
   2     792.3        0.1480        0.0000        1.1659        1.1660       1.018018       0.01229
   1     891.5        0.1566        0.0000        1.0372        1.0373       0.880688       0.01169
   0    1013.0        0.1722        0.0000        0.8716        0.8717       0.699434       0.01259

  Modules and versions used in this calculation:

       rrtmg_sw.1col.f90:  $Revision$                    rrtmg_sw_init.f90:  $Revision$        
     rrtmgsw_cldprop.f90:  $Revision$                  rrtmgsw_cldprmc.f90:  NOT USED          
     rrtmg_sw_reftra.f90:  $Revision$                  rrtmg_sw_spcvrt.f90:  NOT USED          
     rrtmg_sw_spcvmc.f90:  NOT USED                    rrtmgsw_setcoef.f90:  NOT USED          
     rrtmg_sw_taumol.f90:  $Revision$                  rrtmg_sw_vrtqdr.f90:  NOT USED          
                rrtatm.f:  NOT USED                             util_xxx.f:  NOT USED          
                 extra.f:  NOT USED                       rrtmg_sw_k_g.f90:  $Revision$        

