

 Wavenumbers:   820. - 50000. cm-1, ATM      1
 LEVEL PRESSURE   UPWARD FLUX   DIFDOWN FLUX  DIRDOWN FLUX  DOWNWARD FLUX   NET FLUX    HEATING RATE
          mb          W/m2          W/m2          W/m2        W/m2          W/m2       degree/day
  51    .06700      245.5282        0.0000      397.8738      397.8738     152.345615       0.00000
  50    .07753      245.5276        0.0012      397.8577      397.8589     152.331321      11.45642
  49    .09103      245.5269        0.0027      397.8418      397.8445     152.317629       8.55784
  48    0.1069      245.5261        0.0044      397.8230      397.8274     152.301276       8.70465
  47    0.1255      245.5252        0.0064      397.7997      397.8060     152.280827       9.27072
  46    0.1487      245.5241        0.0089      397.7676      397.7765     152.252360      10.37667
  45    0.1794      245.5227        0.0123      397.7205      397.7328     152.210052      11.61448
  44    0.2165      245.5211        0.0162      397.6602      397.6765     152.155382      12.43641
  43    0.2613      245.5193        0.0210      397.5829      397.6039     152.084556      13.35047
  42    0.3336      245.5165        0.0287      397.4449      397.4736     151.957061      14.86469
  41    0.4307      245.5132        0.0389      397.2524      397.2913     151.778106      15.55972
  40    0.5894      245.5083        0.0553      396.9253      396.9806     151.472223      16.26645
  39     1.339      245.4976        0.1285      395.4254      395.5539     150.056236      15.94144
  38     1.782      245.4995        0.1696      394.7288      394.8984     149.398909      12.51445
  37     2.292      245.5088        0.2164      394.0572      394.2736     148.764767      10.50304
  36     2.964      245.5318        0.2772      393.3007      393.5779     148.046118       9.02122
  35     3.853      245.5769        0.3567      392.4318      392.7885     147.211520       7.92049
  34     5.035      245.6517        0.4612      391.4441      391.9053     146.253647       6.84265
  33     6.613      245.7596        0.5998      390.3268      390.9266     145.167013       5.80915
  32     8.786      245.8989        0.7852      389.0624      389.8476     143.948670       4.73160
  31     11.80      246.0730        1.0483      387.5500      388.5983     142.525296       3.98500
  30     15.07      246.2304        1.3286      386.1556      387.4842     141.253832       3.28267
  29     18.79      246.3818        1.6428      384.7502      386.3930     140.011187       2.81746
  28     23.16      246.5284        2.0070      383.2686      385.2756     138.747230       2.44408
  27     28.12      246.6605        2.4201      381.7329      384.1530     137.492530       2.13291
  26     33.73      246.7564        2.8792      380.1982      383.0774     136.320994       1.76144
  25     40.54      246.8121        3.4300      378.5384      381.9683     135.156215       1.44504
  24     48.69      246.8217        4.0883      376.7214      380.8097     133.988054       1.20886
  23     57.69      246.7768        4.8048      374.8959      379.7007     132.923927       0.99746
  22     68.43      246.6640        5.6499      372.8999      378.5498     131.885843       0.81607
  21     81.20      246.4475        6.6463      370.7496      377.3960     130.948422       0.61943
  20     96.49      246.1156        7.8192      368.4056      376.2248     130.109261       0.46316
  19     114.6      245.6993        9.1902      365.7513      374.9415     129.242197       0.40486
  18     136.5      245.1889       10.7836      362.7231      373.5067     128.317813       0.35545
  17     162.9      244.5715       12.6375      359.1748      371.8123     127.240781       0.34426
  16     196.4      243.7389       14.9775      354.5718      369.5493     125.810397       0.36004
  15     218.7      243.1864       16.4757      351.4437      367.9194     124.732970       0.40906
  14     243.0      242.5898       18.0706      347.7111      365.7818     123.192000       0.53446
  13     269.0      241.9497       19.7608      342.9441      362.7049     120.755204       0.79049
  12     297.5      241.2682       21.5442      337.4137      358.9579     117.689754       0.90918
  11     328.5      240.5512       23.4230      331.1302      354.5532     114.002019       1.00268
  10     361.9      239.8043       25.3919      324.1219      349.5138     109.709480       1.08605
   9     398.1      239.0322       27.4508      316.6066      344.0574     105.025231       1.09132
   8     437.6      238.2455       29.5955      308.5895      338.1850      99.939459       1.08737
   7     480.5      237.4624       31.8206      299.9349      331.7555      94.293099       1.10892
   6     533.0      236.5914       34.4617      289.7021      324.1639      87.572452       1.08114
   5     589.8      235.7767       37.1943      279.3388      316.5331      80.756315       1.01174
   4     651.6      235.0673       40.0067      268.7786      308.7853      73.718003       0.96251
   3     718.7      234.4925       42.8907      258.2837      301.1744      66.681853       0.88425
   2     792.3      234.0837       45.8326      248.0774      293.9100      59.826308       0.78625
   1     891.5      233.9370       49.5794      235.5216      285.1010      51.164073       0.73711
   0    1013.0      234.6817       53.7611      221.4731      275.2342      40.552568       0.73681



 Wavenumbers:  2600. -  3250. cm-1, ATM      1
 LEVEL PRESSURE   UPWARD FLUX   DIFDOWN FLUX  DIRDOWN FLUX  DOWNWARD FLUX   NET FLUX    HEATING RATE
          mb          W/m2          W/m2          W/m2        W/m2          W/m2       degree/day
  51    .06700        0.2282        0.0000        3.5066        3.5066       3.278420       0.00000
  50    .07753        0.2282        0.0000        3.5066        3.5066       3.278412       0.00640
  49    .09103        0.2282        0.0000        3.5066        3.5066       3.278402       0.00627
  48    0.1069        0.2282        0.0000        3.5066        3.5066       3.278391       0.00613
  47    0.1255        0.2282        0.0000        3.5066        3.5066       3.278377       0.00599
  46    0.1487        0.2282        0.0000        3.5066        3.5066       3.278361       0.00607
  45    0.1794        0.2282        0.0000        3.5065        3.5065       3.278338       0.00624
  44    0.2165        0.2282        0.0000        3.5065        3.5065       3.278311       0.00611
  43    0.2613        0.2282        0.0000        3.5065        3.5065       3.278279       0.00598
  42    0.3336        0.2282        0.0000        3.5064        3.5064       3.278227       0.00615
  41    0.4307        0.2282        0.0000        3.5064        3.5064       3.278156       0.00618
  40    0.5894        0.2282        0.0000        3.5062        3.5062       3.278037       0.00633
  39     1.339        0.2282        0.0000        3.5055        3.5055       3.277338       0.00787
  38     1.782        0.2282        0.0000        3.5050        3.5050       3.276807       0.01011
  37     2.292        0.2282        0.0000        3.5043        3.5043       3.276115       0.01147
  36     2.964        0.2282        0.0000        3.5033        3.5033       3.275123       0.01245
  35     3.853        0.2282        0.0000        3.5019        3.5019       3.273746       0.01307
  34     5.035        0.2282        0.0000        3.5001        3.5001       3.271885       0.01329
  33     6.613        0.2282        0.0000        3.4977        3.4977       3.269475       0.01288
  32     8.786        0.2282        0.0000        3.4947        3.4947       3.266505       0.01154
  31     11.80        0.2282        0.0000        3.4911        3.4911       3.262869       0.01018
  30     15.07        0.2282        0.0000        3.4878        3.4878       3.259648       0.00832
  29     18.79        0.2282        0.0000        3.4848        3.4848       3.256585       0.00695
  28     23.16        0.2282        0.0000        3.4816        3.4816       3.253365       0.00623
  27     28.12        0.2282        0.0000        3.4779        3.4779       3.249748       0.00615
  26     33.73        0.2282        0.0000        3.4735        3.4735       3.245281       0.00671
  25     40.54        0.2282        0.0000        3.4671        3.4671       3.238956       0.00785
  24     48.69        0.2282        0.0000        3.4582        3.4583       3.230062       0.00920
  23     57.69        0.2282        0.0000        3.4472        3.4472       3.219014       0.01036
  22     68.43        0.2282        0.0000        3.4329        3.4329       3.204755       0.01121
  21     81.20        0.2282        0.0000        3.4152        3.4152       3.187028       0.01171
  20     96.49        0.2282        0.0000        3.3940        3.3941       3.165886       0.01167
  19     114.6        0.2282        0.0000        3.3692        3.3692       3.140999       0.01162
  18     136.5        0.2282        0.0001        3.3419        3.3420       3.113784       0.01046
  17     162.9        0.2282        0.0001        3.3129        3.3129       3.084713       0.00929
  16     196.4        0.2283        0.0001        3.2793        3.2794       3.051146       0.00845
  15     218.7        0.2283        0.0001        3.2578        3.2578       3.029535       0.00820
  14     243.0        0.2284        0.0001        3.2320        3.2320       3.003670       0.00897
  13     269.0        0.2285        0.0001        3.1968        3.1969       2.968433       0.01143
  12     297.5        0.2287        0.0001        3.1489        3.1490       2.920367       0.01426
  11     328.5        0.2290        0.0001        3.0821        3.0822       2.853209       0.01826
  10     361.9        0.2294        0.0001        2.9902        2.9904       2.760981       0.02333
   9     398.1        0.2300        0.0001        2.8715        2.8716       2.641654       0.02780
   8     437.6        0.2308        0.0001        2.7276        2.7278       2.496991       0.03093
   7     480.5        0.2320        0.0001        2.5595        2.5597       2.327640       0.03326
   6     533.0        0.2340        0.0001        2.3617        2.3619       2.127840       0.03214
   5     589.8        0.2370        0.0002        2.1649        2.1651       1.928113       0.02965
   4     651.6        0.2412        0.0002        1.9608        1.9609       1.719751       0.02849
   3     718.7        0.2469        0.0002        1.7593        1.7595       1.512590       0.02603
   2     792.3        0.2544        0.0002        1.5761        1.5762       1.321850       0.02188
   1     891.5        0.2672        0.0002        1.3714        1.3716       1.104383       0.01851
   0    1013.0        0.2904        0.0002        1.1584        1.1586       0.868139       0.01640



 Wavenumbers:  3250. -  4000. cm-1, ATM      1
 LEVEL PRESSURE   UPWARD FLUX   DIFDOWN FLUX  DIRDOWN FLUX  DOWNWARD FLUX   NET FLUX    HEATING RATE
          mb          W/m2          W/m2          W/m2        W/m2          W/m2       degree/day
  51    .06700        0.0004        0.0000        5.9117        5.9117       5.911216       0.00000
  50    .07753        0.0004        0.0000        5.9075        5.9075       5.907026       3.35808
  49    .09103        0.0004        0.0000        5.9050        5.9050       5.904584       1.52677
  48    0.1069        0.0004        0.0000        5.9032        5.9032       5.902717       0.99346
  47    0.1255        0.0004        0.0000        5.9014        5.9014       5.900959       0.79708
  46    0.1487        0.0004        0.0000        5.8995        5.8995       5.899070       0.68848
  45    0.1794        0.0004        0.0000        5.8974        5.8974       5.896922       0.58983
  44    0.2165        0.0004        0.0000        5.8952        5.8952       5.894805       0.48155
  43    0.2613        0.0004        0.0000        5.8931        5.8931       5.892646       0.40696
  42    0.3336        0.0004        0.0000        5.8899        5.8899       5.889488       0.36820
  41    0.4307        0.0004        0.0000        5.8861        5.8861       5.885651       0.33365
  40    0.5894        0.0004        0.0000        5.8803        5.8803       5.879848       0.30857
  39     1.339        0.0004        0.0000        5.8597        5.8597       5.859250       0.23189
  38     1.782        0.0004        0.0000        5.8513        5.8513       5.850826       0.16039
  37     2.292        0.0004        0.0000        5.8431        5.8431       5.842655       0.13533
  36     2.964        0.0004        0.0000        5.8334        5.8334       5.833015       0.12100
  35     3.853        0.0004        0.0000        5.8213        5.8213       5.820840       0.11555
  34     5.035        0.0004        0.0000        5.8052        5.8052       5.804744       0.11498
  33     6.613        0.0004        0.0000        5.7833        5.7834       5.782923       0.11666
  32     8.786        0.0004        0.0000        5.7531        5.7531       5.752722       0.11729
  31     11.80        0.0004        0.0000        5.7090        5.7090       5.708553       0.12366
  30     15.07        0.0004        0.0000        5.6615        5.6615       5.661088       0.12254
  29     18.79        0.0004        0.0000        5.6093        5.6094       5.608953       0.11821
  28     23.16        0.0004        0.0000        5.5524        5.5524       5.552027       0.11008
  27     28.12        0.0004        0.0000        5.4935        5.4935       5.493148       0.10009
  26     33.73        0.0004        0.0000        5.4348        5.4349       5.434459       0.08824
  25     40.54        0.0004        0.0001        5.3707        5.3708       5.370398       0.07948
  24     48.69        0.0004        0.0001        5.2985        5.2985       5.298164       0.07475
  23     57.69        0.0004        0.0001        5.2215        5.2216       5.221226       0.07212
  22     68.43        0.0003        0.0001        5.1318        5.1319       5.131565       0.07048
  21     81.20        0.0003        0.0001        5.0284        5.0285       5.028136       0.06834
  20     96.49        0.0003        0.0001        4.9122        4.9123       4.912002       0.06410
  19     114.6        0.0003        0.0001        4.7780        4.7782       4.777891       0.06262
  18     136.5        0.0003        0.0002        4.6285        4.6287       4.628413       0.05748
  17     162.9        0.0002        0.0002        4.4406        4.4407       4.440500       0.06006
  16     196.4        0.0002        0.0002        4.1548        4.1550       4.154827       0.07191
  15     218.7        0.0002        0.0002        3.9564        3.9566       3.956446       0.07532
  14     243.0        0.0002        0.0002        3.7055        3.7058       3.705611       0.08700
  13     269.0        0.0001        0.0002        3.3399        3.3401       3.339973       0.11861
  12     297.5        0.0001        0.0002        2.8954        2.8956       2.895483       0.13183
  11     328.5        0.0001        0.0002        2.4388        2.4390       2.438942       0.12413
  10     361.9        0.0001        0.0002        2.0269        2.0271       2.027003       0.10422
   9     398.1        0.0001        0.0002        1.6753        1.6755       1.675415       0.08191
   8     437.6        0.0001        0.0002        1.3592        1.3594       1.359296       0.06759
   7     480.5        0.0001        0.0002        1.0616        1.0618       1.061713       0.05844
   6     533.0        0.0001        0.0001        0.7543        0.7544       0.754377       0.04944
   5     589.8        0.0001        0.0001        0.4951        0.4952       0.495181       0.03847
   4     651.6        0.0001        0.0001        0.2943        0.2943       0.294278       0.02747
   3     718.7        0.0001        0.0001        0.1528        0.1529       0.152770       0.01778
   2     792.3        0.0001        0.0000        0.0658        0.0658       0.065709       0.00998
   1     891.5        0.0003        0.0000        0.0157        0.0157       0.015359       0.00428
   0    1013.0        0.0013        0.0000        0.0013        0.0013       0.000049       0.00106



 Wavenumbers:  4000. -  4650. cm-1, ATM      1
 LEVEL PRESSURE   UPWARD FLUX   DIFDOWN FLUX  DIRDOWN FLUX  DOWNWARD FLUX   NET FLUX    HEATING RATE
          mb          W/m2          W/m2          W/m2        W/m2          W/m2       degree/day
  51    .06700        1.0055        0.0000        6.9421        6.9421       5.936581       0.00000
  50    .07753        1.0055        0.0000        6.9421        6.9421       5.936580       0.00079
  49    .09103        1.0055        0.0000        6.9421        6.9421       5.936579       0.00078
  48    0.1069        1.0055        0.0000        6.9421        6.9421       5.936578       0.00076
  47    0.1255        1.0055        0.0000        6.9421        6.9421       5.936576       0.00074
  46    0.1487        1.0055        0.0000        6.9421        6.9421       5.936574       0.00075
  45    0.1794        1.0055        0.0000        6.9421        6.9421       5.936571       0.00077
  44    0.2165        1.0055        0.0000        6.9421        6.9421       5.936568       0.00076
  43    0.2613        1.0055        0.0000        6.9420        6.9420       5.936564       0.00074
  42    0.3336        1.0055        0.0000        6.9420        6.9420       5.936557       0.00076
  41    0.4307        1.0055        0.0000        6.9420        6.9420       5.936548       0.00077
  40    0.5894        1.0055        0.0000        6.9420        6.9420       5.936534       0.00079
  39     1.339        1.0055        0.0000        6.9419        6.9419       5.936445       0.00100
  38     1.782        1.0055        0.0000        6.9418        6.9419       5.936375       0.00132
  37     2.292        1.0055        0.0000        6.9418        6.9418       5.936282       0.00155
  36     2.964        1.0055        0.0000        6.9416        6.9416       5.936143       0.00175
  35     3.853        1.0055        0.0000        6.9414        6.9414       5.935936       0.00196
  34     5.035        1.0055        0.0000        6.9411        6.9411       5.935631       0.00218
  33     6.613        1.0055        0.0000        6.9406        6.9406       5.935184       0.00239
  32     8.786        1.0055        0.0000        6.9399        6.9400       5.934524       0.00256
  31     11.80        1.0054        0.0000        6.9389        6.9389       5.933490       0.00290
  30     15.07        1.0054        0.0001        6.9377        6.9377       5.932280       0.00312
  29     18.79        1.0054        0.0001        6.9362        6.9362       5.930822       0.00331
  28     23.16        1.0054        0.0001        6.9343        6.9344       5.929020       0.00349
  27     28.12        1.0054        0.0001        6.9321        6.9322       5.926848       0.00369
  26     33.73        1.0054        0.0001        6.9294        6.9296       5.924183       0.00401
  25     40.54        1.0054        0.0002        6.9258        6.9260       5.920591       0.00446
  24     48.69        1.0053        0.0002        6.9210        6.9212       5.915837       0.00492
  23     57.69        1.0053        0.0002        6.9154        6.9156       5.910246       0.00524
  22     68.43        1.0053        0.0003        6.9083        6.9086       5.903298       0.00546
  21     81.20        1.0053        0.0003        6.8998        6.9001       5.894805       0.00561
  20     96.49        1.0053        0.0004        6.8894        6.8898       5.884551       0.00566
  19     114.6        1.0052        0.0004        6.8765        6.8770       5.871722       0.00599
  18     136.5        1.0052        0.0005        6.8610        6.8615       5.856256       0.00595
  17     162.9        1.0052        0.0006        6.8417        6.8423       5.837032       0.00614
  16     196.4        1.0053        0.0007        6.8147        6.8154       5.810092       0.00678
  15     218.7        1.0054        0.0008        6.7948        6.7957       5.790269       0.00753
  14     243.0        1.0055        0.0009        6.7698        6.7707       5.765146       0.00871
  13     269.0        1.0058        0.0010        6.7349        6.7358       5.730036       0.01139
  12     297.5        1.0062        0.0011        6.6869        6.6879       5.681691       0.01434
  11     328.5        1.0069        0.0012        6.6194        6.6206       5.613648       0.01850
  10     361.9        1.0078        0.0013        6.5295        6.5308       5.522959       0.02295
   9     398.1        1.0090        0.0014        6.4202        6.4216       5.412645       0.02570
   8     437.6        1.0105        0.0015        6.2962        6.2977       5.287156       0.02683
   7     480.5        1.0127        0.0016        6.1555        6.1571       5.144465       0.02802
   6     533.0        1.0161        0.0018        5.9675        5.9693       4.953213       0.03077
   5     589.8        1.0211        0.0019        5.7368        5.7387       4.717611       0.03497
   4     651.6        1.0282        0.0020        5.4662        5.4683       4.440022       0.03796
   3     718.7        1.0381        0.0022        5.1912        5.1933       4.155272       0.03579
   2     792.3        1.0508        0.0023        4.9395        4.9418       3.891003       0.03031
   1     891.5        1.0725        0.0024        4.6486        4.6511       3.578587       0.02659
   0    1013.0        1.1114        0.0026        4.3179        4.3205       3.209061       0.02566



 Wavenumbers:  4650. -  5150. cm-1, ATM      1
 LEVEL PRESSURE   UPWARD FLUX   DIFDOWN FLUX  DIRDOWN FLUX  DOWNWARD FLUX   NET FLUX    HEATING RATE
          mb          W/m2          W/m2          W/m2        W/m2          W/m2       degree/day
  51    .06700        0.5403        0.0000        6.5710        6.5710       6.030695       0.00000
  50    .07753        0.5403        0.0000        6.5708        6.5708       6.030459       0.18887
  49    .09103        0.5403        0.0000        6.5705        6.5705       6.030165       0.18362
  48    0.1069        0.5403        0.0000        6.5701        6.5701       6.029831       0.17806
  47    0.1255        0.5403        0.0000        6.5697        6.5697       6.029450       0.17238
  46    0.1487        0.5403        0.0000        6.5693        6.5693       6.028977       0.17268
  45    0.1794        0.5403        0.0000        6.5686        6.5686       6.028340       0.17473
  44    0.2165        0.5403        0.0000        6.5679        6.5679       6.027602       0.16788
  43    0.2613        0.5403        0.0000        6.5670        6.5670       6.026749       0.16078
  42    0.3336        0.5403        0.0000        6.5657        6.5657       6.025386       0.15894
  41    0.4307        0.5403        0.0000        6.5640        6.5640       6.023664       0.14971
  40    0.5894        0.5403        0.0000        6.5613        6.5613       6.021048       0.13913
  39     1.339        0.5403        0.0000        6.5516        6.5516       6.011270       0.11008
  38     1.782        0.5403        0.0000        6.5473        6.5473       6.007055       0.08026
  37     2.292        0.5403        0.0000        6.5434        6.5435       6.003168       0.06438
  36     2.964        0.5403        0.0000        6.5395        6.5395       5.999213       0.04964
  35     3.853        0.5403        0.0000        6.5355        6.5356       5.995271       0.03742
  34     5.035        0.5403        0.0000        6.5315        6.5315       5.991269       0.02859
  33     6.613        0.5403        0.0000        6.5271        6.5271       5.986875       0.02349
  32     8.786        0.5403        0.0000        6.5216        6.5216       5.981381       0.02134
  31     11.80        0.5402        0.0001        6.5135        6.5135       5.973303       0.02261
  30     15.07        0.5402        0.0001        6.5041        6.5042       5.963936       0.02418
  29     18.79        0.5402        0.0001        6.4925        6.4926       5.952423       0.02610
  28     23.16        0.5402        0.0001        6.4779        6.4780       5.937834       0.02821
  27     28.12        0.5402        0.0002        6.4599        6.4600       5.919863       0.03055
  26     33.73        0.5402        0.0002        6.4384        6.4386       5.898438       0.03221
  25     40.54        0.5401        0.0002        6.4112        6.4114       5.871322       0.03364
  24     48.69        0.5401        0.0003        6.3775        6.3778       5.837698       0.03480
  23     57.69        0.5401        0.0003        6.3404        6.3407       5.800623       0.03475
  22     68.43        0.5400        0.0004        6.2971        6.2975       5.757457       0.03393
  21     81.20        0.5400        0.0004        6.2483        6.2487       5.708676       0.03223
  20     96.49        0.5400        0.0005        6.1948        6.1953       5.655353       0.02943
  19     114.6        0.5400        0.0006        6.1381        6.1388       5.598782       0.02641
  18     136.5        0.5400        0.0007        6.0790        6.0797       5.539763       0.02269
  17     162.9        0.5400        0.0009        6.0160        6.0169       5.476927       0.02008
  16     196.4        0.5400        0.0010        5.9399        5.9409       5.400874       0.01914
  15     218.7        0.5401        0.0011        5.8896        5.8908       5.350685       0.01905
  14     243.0        0.5402        0.0012        5.8322        5.8334       5.293245       0.01992
  13     269.0        0.5404        0.0014        5.7624        5.7638       5.223391       0.02266
  12     297.5        0.5407        0.0015        5.6767        5.6782       5.137534       0.02546
  11     328.5        0.5412        0.0016        5.5726        5.5742       5.033059       0.02841
  10     361.9        0.5418        0.0018        5.4473        5.4491       4.907256       0.03183
   9     398.1        0.5428        0.0019        5.2995        5.3014       4.758612       0.03463
   8     437.6        0.5441        0.0020        5.1275        5.1295       4.585440       0.03703
   7     480.5        0.5459        0.0022        4.9290        4.9311       4.385289       0.03931
   6     533.0        0.5487        0.0023        4.6794        4.6817       4.132984       0.04059
   5     589.8        0.5527        0.0024        4.4188        4.4212       3.868515       0.03926
   4     651.6        0.5583        0.0026        4.1521        4.1546       3.596298       0.03723
   3     718.7        0.5659        0.0027        3.8929        3.8956       3.329724       0.03350
   2     792.3        0.5757        0.0028        3.6469        3.6497       3.073981       0.02933
   1     891.5        0.5924        0.0029        3.3535        3.3564       2.764012       0.02638
   0    1013.0        0.6210        0.0031        3.0383        3.0414       2.420352       0.02386



 Wavenumbers:  5150. -  6150. cm-1, ATM      1
 LEVEL PRESSURE   UPWARD FLUX   DIFDOWN FLUX  DIRDOWN FLUX  DOWNWARD FLUX   NET FLUX    HEATING RATE
          mb          W/m2          W/m2          W/m2        W/m2          W/m2       degree/day
  51    .06700        2.0081        0.0000       16.4735       16.4735      14.465441       0.00000
  50    .07753        2.0081        0.0000       16.4735       16.4735      14.465406       0.02761
  49    .09103        2.0081        0.0000       16.4734       16.4734      14.465361       0.02811
  48    0.1069        2.0081        0.0000       16.4734       16.4734      14.465308       0.02859
  47    0.1255        2.0081        0.0000       16.4733       16.4733      14.465244       0.02904
  46    0.1487        2.0081        0.0000       16.4732       16.4732      14.465160       0.03060
  45    0.1794        2.0081        0.0000       16.4731       16.4731      14.465041       0.03269
  44    0.2165        2.0081        0.0000       16.4730       16.4730      14.464894       0.03331
  43    0.2613        2.0081        0.0000       16.4728       16.4728      14.464715       0.03376
  42    0.3336        2.0081        0.0000       16.4725       16.4725      14.464409       0.03564
  41    0.4307        2.0081        0.0000       16.4720       16.4720      14.463990       0.03645
  40    0.5894        2.0081        0.0000       16.4713       16.4713      14.463289       0.03729
  39     1.339        2.0080        0.0000       16.4679       16.4679      14.459880       0.03838
  38     1.782        2.0080        0.0000       16.4659       16.4659      14.457881       0.03807
  37     2.292        2.0080        0.0001       16.4635       16.4636      14.455589       0.03795
  36     2.964        2.0080        0.0001       16.4605       16.4606      14.452619       0.03728
  35     3.853        2.0080        0.0001       16.4567       16.4568      14.448766       0.03657
  34     5.035        2.0080        0.0001       16.4516       16.4517      14.443768       0.03570
  33     6.613        2.0079        0.0002       16.4451       16.4452      14.437307       0.03454
  32     8.786        2.0079        0.0002       16.4367       16.4369      14.428993       0.03229
  31     11.80        2.0078        0.0003       16.4254       16.4257      14.417841       0.03122
  30     15.07        2.0078        0.0004       16.4141       16.4145      14.406751       0.02863
  29     18.79        2.0077        0.0005       16.4024       16.4029      14.395227       0.02613
  28     23.16        2.0076        0.0006       16.3900       16.3906      14.382963       0.02372
  27     28.12        2.0075        0.0007       16.3771       16.3778      14.370295       0.02154
  26     33.73        2.0074        0.0009       16.3641       16.3650      14.357563       0.01914
  25     40.54        2.0073        0.0011       16.3502       16.3512      14.343915       0.01693
  24     48.69        2.0072        0.0013       16.3354       16.3366      14.329433       0.01499
  23     57.69        2.0071        0.0015       16.3211       16.3226      14.315523       0.01304
  22     68.43        2.0069        0.0018       16.3062       16.3080      14.301122       0.01132
  21     81.20        2.0067        0.0021       16.2903       16.2924      14.285714       0.01018
  20     96.49        2.0065        0.0025       16.2726       16.2751      14.268622       0.00943
  19     114.6        2.0063        0.0030       16.2521       16.2550      14.248786       0.00926
  18     136.5        2.0060        0.0035       16.2245       16.2281      14.222097       0.01026
  17     162.9        2.0056        0.0042       16.1747       16.1789      14.173278       0.01560
  16     196.4        2.0052        0.0050       16.0518       16.0569      14.051627       0.03062
  15     218.7        2.0050        0.0055       15.8984       15.9039      13.898946       0.05797
  14     243.0        2.0047        0.0061       15.6153       15.6213      13.616603       0.09793
  13     269.0        2.0045        0.0066       15.1390       15.1456      13.141044       0.15427
  12     297.5        2.0044        0.0071       14.5779       14.5850      12.580559       0.16623
  11     328.5        2.0044        0.0075       13.8780       13.8855      11.881153       0.19017
  10     361.9        2.0045        0.0079       13.0814       13.0893      11.084814       0.20148
   9     398.1        2.0049        0.0082       12.2728       12.2811      10.276182       0.18839
   8     437.6        2.0056        0.0085       11.4776       11.4861       9.480497       0.17012
   7     480.5        2.0069        0.0088       10.7300       10.7388       8.731924       0.14702
   6     533.0        2.0092        0.0092       10.0326       10.0418       8.032561       0.11251
   5     589.8        2.0130        0.0096        9.5050        9.5146       7.501660       0.07880
   4     651.6        2.0189        0.0101        9.0814        9.0915       7.072620       0.05867
   3     718.7        2.0275        0.0108        8.7024        8.7132       6.685690       0.04863
   2     792.3        2.0393        0.0114        8.3379        8.3494       6.310114       0.04307
   1     891.5        2.0610        0.0123        7.9064        7.9187       5.857651       0.03850
   0    1013.0        2.1057        0.0133        7.4741        7.4874       5.381658       0.03305



 Wavenumbers:  6150. -  7700. cm-1, ATM      1
 LEVEL PRESSURE   UPWARD FLUX   DIFDOWN FLUX  DIRDOWN FLUX  DOWNWARD FLUX   NET FLUX    HEATING RATE
          mb          W/m2          W/m2          W/m2        W/m2          W/m2       degree/day
  51    .06700        3.1250        0.0000       30.4684       30.4684      27.343398       0.00000
  50    .07753        3.1250        0.0000       30.4683       30.4683      27.343347       0.04144
  49    .09103        3.1250        0.0000       30.4683       30.4683      27.343280       0.04174
  48    0.1069        3.1250        0.0000       30.4682       30.4682      27.343201       0.04202
  47    0.1255        3.1250        0.0000       30.4681       30.4681      27.343108       0.04227
  46    0.1487        3.1250        0.0000       30.4680       30.4680      27.342987       0.04411
  45    0.1794        3.1250        0.0000       30.4678       30.4678      27.342817       0.04669
  44    0.2165        3.1250        0.0000       30.4676       30.4676      27.342610       0.04715
  43    0.2613        3.1250        0.0000       30.4673       30.4673      27.342358       0.04744
  42    0.3336        3.1250        0.0000       30.4669       30.4669      27.341931       0.04974
  41    0.4307        3.1249        0.0000       30.4663       30.4663      27.341350       0.05052
  40    0.5894        3.1249        0.0001       30.4653       30.4653      27.340383       0.05146
  39     1.339        3.1249        0.0001       30.4604       30.4606      27.335699       0.05273
  38     1.782        3.1248        0.0002       30.4576       30.4578      27.332949       0.05235
  37     2.292        3.1248        0.0002       30.4543       30.4546      27.329791       0.05231
  36     2.964        3.1247        0.0003       30.4501       30.4504      27.325683       0.05156
  35     3.853        3.1246        0.0004       30.4445       30.4449      27.320326       0.05084
  34     5.035        3.1245        0.0005       30.4373       30.4378      27.313326       0.05000
  33     6.613        3.1243        0.0007       30.4278       30.4285      27.304179       0.04890
  32     8.786        3.1241        0.0010       30.4154       30.4163      27.292226       0.04642
  31     11.80        3.1238        0.0013       30.3984       30.3997      27.275841       0.04587
  30     15.07        3.1235        0.0016       30.3810       30.3826      27.259127       0.04315
  29     18.79        3.1231        0.0021       30.3623       30.3643      27.241227       0.04059
  28     23.16        3.1227        0.0025       30.3417       30.3442      27.221544       0.03806
  27     28.12        3.1222        0.0031       30.3196       30.3226      27.200444       0.03587
  26     33.73        3.1216        0.0037       30.2965       30.3002      27.178525       0.03296
  25     40.54        3.1210        0.0044       30.2708       30.2752      27.154188       0.03019
  24     48.69        3.1202        0.0053       30.2423       30.2476      27.127412       0.02771
  23     57.69        3.1193        0.0063       30.2139       30.2201      27.100847       0.02490
  22     68.43        3.1182        0.0074       30.1834       30.1908      27.072572       0.02223
  21     81.20        3.1170        0.0088       30.1500       30.1588      27.041844       0.02030
  20     96.49        3.1155        0.0105       30.1126       30.1231      27.007627       0.01889
  19     114.6        3.1137        0.0124       30.0695       30.0819      26.968242       0.01839
  18     136.5        3.1116        0.0147       30.0139       30.0287      26.917089       0.01967
  17     162.9        3.1091        0.0175       29.9225       29.9400      26.830915       0.02754
  16     196.4        3.1058        0.0210       29.7333       29.7544      26.648533       0.04591
  15     218.7        3.1037        0.0233       29.5259       29.5491      26.445409       0.07712
  14     243.0        3.1015        0.0256       29.1375       29.1631      26.061592       0.13312
  13     269.0        3.0993        0.0279       28.3800       28.4079      25.308633       0.24426
  12     297.5        3.0971        0.0300       27.3895       27.4195      24.322486       0.29248
  11     328.5        3.0950        0.0320       26.2257       26.2577      23.162687       0.31535
  10     361.9        3.0933        0.0338       24.8453       24.8791      21.785839       0.34836
   9     398.1        3.0921        0.0354       23.3471       23.3824      20.290303       0.34843
   8     437.6        3.0918        0.0367       21.7966       21.8333      18.741477       0.33115
   7     480.5        3.0931        0.0377       20.1977       20.2354      17.142318       0.31407
   6     533.0        3.0973        0.0387       18.4969       18.5356      15.438326       0.27412
   5     589.8        3.1059        0.0397       16.9754       17.0151      13.909224       0.22697
   4     651.6        3.1211        0.0407       15.6022       15.6428      12.521768       0.18974
   3     718.7        3.1445        0.0418       14.4232       14.4650      11.320474       0.15097
   2     792.3        3.1776        0.0432       13.4386       13.4818      10.304198       0.11656
   1     891.5        3.2395        0.0451       12.3736       12.4187       9.179177       0.09573
   0    1013.0        3.3647        0.0472       11.2911       11.3384       7.973638       0.08371



 Wavenumbers:  7700. -  8050. cm-1, ATM      1
 LEVEL PRESSURE   UPWARD FLUX   DIFDOWN FLUX  DIRDOWN FLUX  DOWNWARD FLUX   NET FLUX    HEATING RATE
          mb          W/m2          W/m2          W/m2        W/m2          W/m2       degree/day
  51    .06700        3.0062        0.0000        7.2006        7.2006       4.194400       0.00000
  50    .07753        3.0062        0.0000        7.2006        7.2006       4.194380       0.01575
  49    .09103        3.0062        0.0000        7.2005        7.2005       4.194356       0.01543
  48    0.1069        3.0062        0.0000        7.2005        7.2005       4.194327       0.01511
  47    0.1255        3.0062        0.0000        7.2005        7.2005       4.194295       0.01478
  46    0.1487        3.0062        0.0000        7.2004        7.2005       4.194253       0.01500
  45    0.1794        3.0062        0.0000        7.2004        7.2004       4.194197       0.01543
  44    0.2165        3.0062        0.0000        7.2003        7.2003       4.194131       0.01514
  43    0.2613        3.0062        0.0000        7.2003        7.2003       4.194052       0.01486
  42    0.3336        3.0062        0.0000        7.2001        7.2001       4.193921       0.01520
  41    0.4307        3.0062        0.0000        7.2000        7.2000       4.193749       0.01503
  40    0.5894        3.0063        0.0000        7.1997        7.1997       4.193466       0.01502
  39     1.339        3.0064        0.0001        7.1984        7.1985       4.192131       0.01504
  38     1.782        3.0064        0.0001        7.1977        7.1978       4.191346       0.01493
  37     2.292        3.0065        0.0001        7.1968        7.1969       4.190439       0.01503
  36     2.964        3.0066        0.0001        7.1957        7.1958       4.189248       0.01495
  35     3.853        3.0067        0.0002        7.1942        7.1944       4.187675       0.01493
  34     5.035        3.0069        0.0002        7.1922        7.1925       4.185587       0.01492
  33     6.613        3.0071        0.0003        7.1896        7.1899       4.182800       0.01490
  32     8.786        3.0074        0.0004        7.1860        7.1865       4.179050       0.01456
  31     11.80        3.0078        0.0006        7.1810        7.1815       4.173697       0.01499
  30     15.07        3.0083        0.0007        7.1755        7.1763       4.167964       0.01480
  29     18.79        3.0088        0.0009        7.1694        7.1703       4.161508       0.01464
  28     23.16        3.0094        0.0011        7.1623        7.1634       4.153993       0.01453
  27     28.12        3.0102        0.0013        7.1542        7.1556       4.145435       0.01455
  26     33.73        3.0110        0.0016        7.1452        7.1469       4.135904       0.01433
  25     40.54        3.0119        0.0019        7.1344        7.1364       4.124454       0.01420
  24     48.69        3.0131        0.0023        7.1215        7.1238       4.110746       0.01419
  23     57.69        3.0144        0.0027        7.1074        7.1102       4.095807       0.01400
  22     68.43        3.0159        0.0032        7.0909        7.0941       4.078176       0.01386
  21     81.20        3.0178        0.0038        7.0713        7.0752       4.057398       0.01373
  20     96.49        3.0200        0.0046        7.0484        7.0530       4.032952       0.01349
  19     114.6        3.0227        0.0054        7.0217        7.0271       4.004355       0.01335
  18     136.5        3.0260        0.0064        6.9906        6.9970       3.971036       0.01281
  17     162.9        3.0299        0.0076        6.9544        6.9620       3.932125       0.01244
  16     196.4        3.0350        0.0091        6.9087        6.9179       3.882839       0.01241
  15     218.7        3.0385        0.0101        6.8794        6.8896       3.851079       0.01206
  14     243.0        3.0423        0.0112        6.8481        6.8593       3.817046       0.01180
  13     269.0        3.0465        0.0124        6.8147        6.8271       3.780602       0.01182
  12     297.5        3.0512        0.0137        6.7791        6.7927       3.741541       0.01159
  11     328.5        3.0564        0.0150        6.7409        6.7560       3.699539       0.01142
  10     361.9        3.0623        0.0165        6.7002        6.7166       3.654325       0.01144
   9     398.1        3.0690        0.0181        6.6563        6.6743       3.605353       0.01141
   8     437.6        3.0765        0.0197        6.6089        6.6286       3.552044       0.01140
   7     480.5        3.0853        0.0215        6.5570        6.5785       3.493214       0.01155
   6     533.0        3.0971        0.0237        6.4915        6.5152       3.418118       0.01208
   5     589.8        3.1111        0.0261        6.4182        6.4443       3.333154       0.01261
   4     651.6        3.1281        0.0286        6.3359        6.3644       3.236345       0.01324
   3     718.7        3.1483        0.0312        6.2441        6.2753       3.127015       0.01374
   2     792.3        3.1721        0.0340        6.1437        6.1777       3.005651       0.01392
   1     891.5        3.2077        0.0377        6.0042        6.0418       2.834092       0.01460
   0    1013.0        3.2583        0.0419        5.8249        5.8668       2.608519       0.01566



 Wavenumbers:  8050. - 12850. cm-1, ATM      1
 LEVEL PRESSURE   UPWARD FLUX   DIFDOWN FLUX  DIRDOWN FLUX  DOWNWARD FLUX   NET FLUX    HEATING RATE
          mb          W/m2          W/m2          W/m2        W/m2          W/m2       degree/day
  51    .06700       55.2294        0.0000      100.8135      100.8135      45.584074       0.00000
  50    .07753       55.2294        0.0000      100.8135      100.8135      45.584074       0.00000
  49    .09103       55.2294        0.0001      100.8134      100.8135      45.584074      -0.00000
  48    0.1069       55.2294        0.0001      100.8134      100.8135      45.584074       0.00000
  47    0.1255       55.2294        0.0001      100.8133      100.8134      45.584074      -0.00000
  46    0.1487       55.2293        0.0002      100.8132      100.8134      45.584074      -0.00000
  45    0.1794       55.2293        0.0003      100.8131      100.8134      45.584074       0.00000
  44    0.2165       55.2292        0.0004      100.8129      100.8133      45.584074      -0.00000
  43    0.2613       55.2292        0.0005      100.8127      100.8132      45.584074       0.00000
  42    0.3336       55.2291        0.0007      100.8125      100.8131      45.584074      -0.00000
  41    0.4307       55.2289        0.0009      100.8121      100.8130      45.584074       0.00000
  40    0.5894       55.2287        0.0013      100.8115      100.8128      45.584074      -0.00000
  39     1.339       55.2276        0.0032      100.8085      100.8117      45.584074       0.00000
  38     1.782       55.2269        0.0043      100.8068      100.8110      45.584074       0.00000
  37     2.292       55.2262        0.0055      100.8047      100.8103      45.584074       0.00000
  36     2.964       55.2252        0.0072      100.8021      100.8093      45.584074      -0.00000
  35     3.853       55.2239        0.0094      100.7986      100.8080      45.584074       0.00000
  34     5.035       55.2222        0.0123      100.7940      100.8063      45.584074      -0.00000
  33     6.613       55.2199        0.0162      100.7878      100.8040      45.584074       0.00000
  32     8.786       55.2168        0.0215      100.7794      100.8009      45.584074       0.00000
  31     11.80       55.2124        0.0290      100.7674      100.7965      45.584074      -0.00000
  30     15.07       55.2076        0.0371      100.7546      100.7917      45.584074       0.00000
  29     18.79       55.2022        0.0463      100.7400      100.7863      45.584074      -0.00000
  28     23.16       55.1959        0.0570      100.7230      100.7800      45.584074      -0.00000
  27     28.12       55.1887        0.0693      100.7035      100.7728      45.584074       0.00000
  26     33.73       55.1806        0.0830      100.6817      100.7647      45.584074       0.00000
  25     40.54       55.1708        0.0997      100.6552      100.7549      45.584074      -0.00000
  24     48.69       55.1590        0.1197      100.6234      100.7431      45.584074      -0.00000
  23     57.69       55.1460        0.1418      100.5883      100.7301      45.584074       0.00000
  22     68.43       55.1305        0.1682      100.5464      100.7146      45.584074      -0.00000
  21     81.20       55.1120        0.1996      100.4965      100.6961      45.584074      -0.00000
  20     96.49       55.0900        0.2371      100.4370      100.6740      45.584074       0.00000
  19     114.6       55.0638        0.2817      100.3585      100.6401      45.576313       0.00362
  18     136.5       55.0328        0.3346      100.2634      100.5980      45.565150       0.00429
  17     162.9       54.9959        0.3978      100.1407      100.5384      45.542530       0.00723
  16     196.4       54.9481        0.4798       99.9505      100.4303      45.482232       0.01518
  15     218.7       54.9166        0.5337       99.7889      100.3227      45.406011       0.02894
  14     243.0       54.8827        0.5923       99.5472      100.1394      45.256731       0.05178
  13     269.0       54.8468        0.6554       99.1452       99.8006      44.953771       0.09828
  12     297.5       54.8097        0.7231       98.5975       99.3206      44.510861       0.13136
  11     328.5       54.7726        0.7958       97.8659       98.6616      43.888998       0.16908
  10     361.9       54.7374        0.8731       96.8848       97.7578      43.020386       0.21977
   9     398.1       54.7066        0.9548       95.6330       96.5877      41.881117       0.26542
   8     437.6       54.6848        1.0405       94.0655       95.1060      40.421131       0.31215
   7     480.5       54.6812        1.1294       92.0807       93.2101      38.528935       0.37162
   6     533.0       54.7099        1.2347       89.4449       90.6795      35.969658       0.41171
   5     589.8       54.7902        1.3438       86.5544       87.8982      33.107994       0.42476
   4     651.6       54.9500        1.4564       83.4174       84.8737      29.923745       0.43545
   3     718.7       55.2064        1.5730       80.2037       81.7767      26.570321       0.42143
   2     792.3       55.5749        1.6945       77.0811       78.7756      23.200683       0.38646
   1     891.5       56.2728        1.8522       73.2645       75.1167      18.843956       0.37074
   0    1013.0       57.6377        2.0292       68.9425       70.9717      13.333971       0.38259



 Wavenumbers: 12850. - 16000. cm-1, ATM      1
 LEVEL PRESSURE   UPWARD FLUX   DIFDOWN FLUX  DIRDOWN FLUX  DOWNWARD FLUX   NET FLUX    HEATING RATE
          mb          W/m2          W/m2          W/m2        W/m2          W/m2       degree/day
  51    .06700       49.2563        0.0000       63.1686       63.1686      13.912302       0.00000
  50    .07753       49.2563        0.0001       63.1677       63.1678      13.911519       0.62724
  49    .09103       49.2562        0.0001       63.1666       63.1668      13.910543       0.60997
  48    0.1069       49.2562        0.0002       63.1654       63.1656      13.909431       0.59196
  47    0.1255       49.2562        0.0003       63.1640       63.1644      13.908165       0.57393
  46    0.1487       49.2562        0.0005       63.1623       63.1627      13.906584       0.57616
  45    0.1794       49.2561        0.0006       63.1600       63.1606      13.904462       0.58258
  44    0.2165       49.2561        0.0008       63.1573       63.1581      13.902005       0.55906
  43    0.2613       49.2561        0.0011       63.1542       63.1553      13.899165       0.53526
  42    0.3336       49.2562        0.0015       63.1493       63.1508      13.894631       0.52866
  41    0.4307       49.2562        0.0020       63.1431       63.1452      13.888944       0.49445
  40    0.5894       49.2564        0.0029       63.1338       63.1367      13.880294       0.46002
  39     1.339       49.2593        0.0071       63.0956       63.1027      13.843403       0.41533
  38     1.782       49.2622        0.0095       63.0740       63.0836      13.821353       0.41979
  37     2.292       49.2668        0.0124       63.0477       63.0600      13.793196       0.46636
  36     2.964       49.2748        0.0161       63.0095       63.0256      13.750840       0.53169
  35     3.853       49.2879        0.0210       62.9533       62.9742      13.686379       0.61175
  34     5.035       49.3078        0.0275       62.8725       62.9000      13.592163       0.67304
  33     6.613       49.3358        0.0362       62.7621       62.7982      13.462413       0.69365
  32     8.786       49.3722        0.0478       62.6182       62.6661      13.293934       0.65431
  31     11.80       49.4191        0.0645       62.4284       62.4929      13.073821       0.61625
  30     15.07       49.4635        0.0824       62.2426       62.3250      12.861510       0.54815
  29     18.79       49.5083        0.1025       62.0493       62.1518      12.643487       0.49432
  28     23.16       49.5546        0.1260       61.8424       61.9684      12.413874       0.44400
  27     28.12       49.6003        0.1528       61.6278       61.7806      12.180334       0.39700
  26     33.73       49.6411        0.1827       61.4177       61.6004      11.959251       0.33240
  25     40.54       49.6786        0.2188       61.1983       61.4171      11.738502       0.27386
  24     48.69       49.7123        0.2623       60.9680       61.2303      11.518025       0.22816
  23     57.69       49.7380        0.3100       60.7478       61.0578      11.319798       0.18581
  22     68.43       49.7566        0.3668       60.5202       60.8870      11.130429       0.14887
  21     81.20       49.7621        0.4344       60.2938       60.7283      10.966229       0.10850
  20     96.49       49.7532        0.5150       60.0643       60.5793      10.826099       0.07734
  19     114.6       49.7444        0.6115       59.8078       60.4193      10.674857       0.07062
  18     136.5       49.7268        0.7256       59.5157       60.2414      10.514528       0.06165
  17     162.9       49.6993        0.8613       59.1770       60.0383      10.338995       0.05611
  16     196.4       49.6497        1.0368       58.7604       59.7972      10.147532       0.04819
  15     218.7       49.6121        1.1518       58.4948       59.6466      10.034526       0.04290
  14     243.0       49.5691        1.2767       58.2089       59.4856       9.916502       0.04093
  13     269.0       49.5205        1.4117       57.9006       59.3123       9.791784       0.04046
  12     297.5       49.4667        1.5574       57.5668       59.1242       9.657537       0.03982
  11     328.5       49.4090        1.7146       57.2005       58.9151       9.506041       0.04119
  10     361.9       49.3485        1.8834       56.7963       58.6797       9.331235       0.04423
   9     398.1       49.2862        2.0646       56.3475       58.4121       9.125887       0.04784
   8     437.6       49.2247        2.2585       55.8422       58.1007       8.875980       0.05343
   7     480.5       49.1687        2.4653       55.2625       57.7279       8.559222       0.06221
   6     533.0       49.1162        2.7182       54.4972       57.2154       8.099209       0.07400
   5     589.8       49.0801        2.9876       53.6307       56.6183       7.538193       0.08327
   4     651.6       49.0695        3.2728       52.6606       55.9334       6.863825       0.09222
   3     718.7       49.0890        3.5741       51.6100       55.1842       6.095120       0.09660
   2     792.3       49.1447        3.8916       50.5019       54.3934       5.248759       0.09707
   1     891.5       49.2901        4.3109       49.0197       53.3306       4.040521       0.10282
   0    1013.0       49.6082        4.7990       47.2289       52.0279       2.419679       0.11254



 Wavenumbers: 16000. - 22650. cm-1, ATM      1
 LEVEL PRESSURE   UPWARD FLUX   DIFDOWN FLUX  DIRDOWN FLUX  DOWNWARD FLUX   NET FLUX    HEATING RATE
          mb          W/m2          W/m2          W/m2        W/m2          W/m2       degree/day
  51    .06700       87.9156        0.0000      100.7153      100.7153      12.799713       0.00000
  50    .07753       87.9155        0.0003      100.7147      100.7151      12.799591       0.09835
  49    .09103       87.9154        0.0008      100.7140      100.7148      12.799412       0.11155
  48    0.1069       87.9152        0.0013      100.7131      100.7144      12.799173       0.12720
  47    0.1255       87.9151        0.0018      100.7121      100.7139      12.798853       0.14499
  46    0.1487       87.9149        0.0025      100.7108      100.7133      12.798382       0.17181
  45    0.1794       87.9147        0.0035      100.7089      100.7124      12.797645       0.20230
  44    0.2165       87.9146        0.0047      100.7066      100.7112      12.796646       0.22735
  43    0.2613       87.9144        0.0060      100.7037      100.7097      12.795290       0.25560
  42    0.3336       87.9143        0.0083      100.6987      100.7070      12.792712       0.30058
  41    0.4307       87.9142        0.0113      100.6918      100.7030      12.788826       0.33787
  40    0.5894       87.9145        0.0161      100.6797      100.6959      12.781415       0.39410
  39     1.339       87.9221        0.0392      100.6095      100.6487      12.726673       0.61630
  38     1.782       87.9312        0.0528      100.5585      100.6113      12.680051       0.88759
  37     2.292       87.9462        0.0685      100.4903      100.5588      12.612586       1.11741
  36     2.964       87.9725        0.0891      100.3868      100.4759      12.503336       1.37141
  35     3.853       88.0168        0.1163      100.2306      100.3469      12.330095       1.64409
  34     5.035       88.0849        0.1523      100.0045      100.1568      12.071883       1.84456
  33     6.613       88.1807        0.2004       99.6939       99.8942      11.713535       1.91573
  32     8.786       88.3049        0.2650       99.2881       99.5530      11.248095       1.80760
  31     11.80       88.4644        0.3571       98.7496       99.1067      10.642271       1.69612
  30     15.07       88.6145        0.4557       98.2198       98.6755      10.061054       1.50059
  29     18.79       88.7649        0.5667       97.6651       98.2319       9.466971       1.34697
  28     23.16       88.9186        0.6959       97.0671       97.7631       8.844518       1.20362
  27     28.12       89.0686        0.8432       96.4406       97.2837       8.215131       1.06992
  26     33.73       89.1996        1.0074       95.8179       96.8253       7.625716       0.88620
  25     40.54       89.3152        1.2053       95.1548       96.3601       7.044909       0.72056
  24     48.69       89.4132        1.4429       94.4420       95.8849       6.471695       0.59319
  23     57.69       89.4809        1.7030       93.7416       95.4446       5.963632       0.47623
  22     68.43       89.5187        2.0115       92.9954       95.0069       5.488157       0.37379
  21     81.20       89.5049        2.3778       92.2231       94.6009       5.096030       0.25911
  20     96.49       89.4342        2.8124       91.4110       94.2234       4.789232       0.16933
  19     114.6       89.3234        3.3251       90.5070       93.8321       4.508728       0.13098
  18     136.5       89.1746        3.9280       89.4803       93.4083       4.233695       0.10576
  17     162.9       88.9822        4.6392       88.3022       92.9414       3.959203       0.08774
  16     196.4       88.6987        5.5514       86.8606       92.4121       3.713335       0.06189
  15     218.7       88.5010        6.1444       85.9492       92.0936       3.592655       0.04582
  14     243.0       88.2816        6.7835       84.9789       91.7624       3.480887       0.03876
  13     269.0       88.0394        7.4697       83.9493       91.4190       3.379629       0.03285
  12     297.5       87.7740        8.2041       82.8589       91.0630       3.289028       0.02687
  11     328.5       87.4873        8.9891       81.6982       90.6874       3.200088       0.02418
  10     361.9       87.1795        9.8248       80.4669       90.2918       3.112276       0.02222
   9     398.1       86.8500       10.7133       79.1611       89.8744       3.024345       0.02049
   8     437.6       86.4998       11.6549       77.7777       89.4327       2.932842       0.01956
   7     480.5       86.1294       12.6503       76.3136       88.9639       2.834538       0.01931
   6     533.0       85.6817       13.8560       74.5359       88.3918       2.710181       0.02001
   5     589.8       85.2108       15.1317       72.6469       87.7787       2.567864       0.02112
   4     651.6       84.7199       16.4759       70.6456       87.1215       2.401586       0.02274
   3     718.7       84.2099       17.8866       68.5367       86.4233       2.213390       0.02365
   2     792.3       83.6843       19.3588       66.3287       85.6875       2.003167       0.02411
   1     891.5       83.0121       21.2836       63.4246       84.7082       1.696098       0.02613
   0    1013.0       82.2659       23.5011       60.0483       83.5494       1.283533       0.02865



 Wavenumbers: 22650. - 29000. cm-1, ATM      1
 LEVEL PRESSURE   UPWARD FLUX   DIFDOWN FLUX  DIRDOWN FLUX  DOWNWARD FLUX   NET FLUX    HEATING RATE
          mb          W/m2          W/m2          W/m2        W/m2          W/m2       degree/day
  51    .06700       37.7042        0.0000       38.0063       38.0063       0.302096       0.00000
  50    .07753       37.7040        0.0004       38.0057       38.0061       0.302096      -0.00000
  49    .09103       37.7038        0.0009       38.0050       38.0059       0.302096      -0.00000
  48    0.1069       37.7036        0.0015       38.0042       38.0057       0.302096       0.00000
  47    0.1255       37.7034        0.0021       38.0033       38.0055       0.302096      -0.00000
  46    0.1487       37.7030        0.0030       38.0022       38.0051       0.302096       0.00000
  45    0.1794       37.7026        0.0041       38.0006       38.0047       0.302096      -0.00000
  44    0.2165       37.7021        0.0054       37.9987       38.0042       0.302096      -0.00000
  43    0.2613       37.7014        0.0070       37.9965       38.0035       0.302096       0.00000
  42    0.3336       37.7004        0.0096       37.9928       38.0025       0.302096       0.00000
  41    0.4307       37.6990        0.0131       37.9880       38.0011       0.302096      -0.00000
  40    0.5894       37.6968        0.0188       37.9800       37.9989       0.302096       0.00000
  39     1.339       37.6862        0.0458       37.9425       37.9883       0.302096       0.00000
  38     1.782       37.6799        0.0616       37.9204       37.9820       0.302096       0.00000
  37     2.292       37.6727        0.0799       37.8949       37.9748       0.302096      -0.00000
  36     2.964       37.6633        0.1039       37.8614       37.9654       0.302096       0.00000
  35     3.853       37.6508        0.1357       37.8172       37.9529       0.302096      -0.00000
  34     5.035       37.6342        0.1777       37.7586       37.9363       0.302096       0.00000
  33     6.613       37.6121        0.2339       37.6803       37.9142       0.302096       0.00000
  32     8.786       37.5824        0.3094       37.5750       37.8845       0.302096       0.00000
  31     11.80       37.5400        0.4172       37.4249       37.8421       0.302096      -0.00000
  30     15.07       37.4946        0.5325       37.2642       37.7967       0.302096       0.00000
  29     18.79       37.4435        0.6623       37.0833       37.7456       0.302096       0.00000
  28     23.16       37.3841        0.8132       36.8730       37.6862       0.302096       0.00000
  27     28.12       37.3165        0.9848       36.6338       37.6186       0.302096       0.00000
  26     33.73       37.2413        1.1757       36.3677       37.5434       0.302096       0.00000
  25     40.54       37.1511        1.4047       36.0486       37.4532       0.302096      -0.00000
  24     48.69       37.0434        1.6782       35.6672       37.3455       0.302096      -0.00000
  23     57.69       36.9262        1.9756       35.2527       37.2283       0.302096       0.00000
  22     68.43       36.7884        2.3256       34.7649       37.0905       0.302096      -0.00000
  21     81.20       36.6265        2.7364       34.1922       36.9286       0.302096       0.00000
  20     96.49       36.4370        3.2173       33.5217       36.7391       0.302096       0.00000
  19     114.6       36.2166        3.7764       32.7424       36.5187       0.302096      -0.00000
  18     136.5       35.9619        4.4224       31.8416       36.2640       0.302096       0.00000
  17     162.9       35.6675        5.1688       30.8008       35.9696       0.302096       0.00000
  16     196.4       35.2996        6.1010       29.5007       35.6017       0.302096       0.00000
  15     218.7       35.0664        6.6918       28.6767       35.3685       0.302096       0.00000
  14     243.0       34.8201        7.3154       27.8068       35.1222       0.302096      -0.00000
  13     269.0       34.5614        7.9702       26.8933       34.8635       0.302096       0.00000
  12     297.5       34.2912        8.6540       25.9393       34.5933       0.302096       0.00000
  11     328.5       34.0094        9.3664       24.9451       34.3115       0.302096       0.00000
  10     361.9       33.7176       10.1037       23.9160       34.0197       0.302096      -0.00000
   9     398.1       33.4164       10.8644       22.8541       33.7185       0.302096      -0.00000
   8     437.6       33.1072       11.6448       21.7645       33.4093       0.302096       0.00000
   7     480.5       32.7913       12.4412       20.6521       33.0934       0.302096       0.00000
   6     533.0       32.4232       13.3684       19.3569       32.7253       0.302096      -0.00000
   5     589.8       32.0505       14.3058       18.0467       32.3526       0.302096       0.00000
   4     651.6       31.6760       15.2465       16.7316       31.9781       0.302096      -0.00000
   3     718.7       31.3024       16.1831       15.4214       31.6045       0.302096       0.00000
   2     792.3       30.9329       17.1074       14.1276       31.2350       0.302096      -0.00000
   1     891.5       30.4804       18.2366       12.5459       30.7825       0.302096       0.00000
   0    1013.0       30.0000       19.4304       10.8717       30.3021       0.302096      -0.00000



 Wavenumbers: 29000. - 38000. cm-1, ATM      1
 LEVEL PRESSURE   UPWARD FLUX   DIFDOWN FLUX  DIRDOWN FLUX  DOWNWARD FLUX   NET FLUX    HEATING RATE
          mb          W/m2          W/m2          W/m2        W/m2          W/m2       degree/day
  51    .06700        5.3731        0.0000       13.4026       13.4026       8.029495       0.00000
  50    .07753        5.3729        0.0003       13.3983       13.3986       8.025696       3.04484
  49    .09103        5.3726        0.0007       13.3921       13.3928       8.020176       3.45018
  48    0.1069        5.3723        0.0011       13.3840       13.3851       8.012798       3.92736
  47    0.1255        5.3720        0.0016       13.3733       13.3749       8.002952       4.46387
  46    0.1487        5.3716        0.0022       13.3579       13.3601       7.988507       5.26521
  45    0.1794        5.3710        0.0031       13.3340       13.3371       7.966104       6.15026
  44    0.2165        5.3703        0.0040       13.3024       13.3064       7.936080       6.82991
  43    0.2613        5.3696        0.0052       13.2604       13.2656       7.896018       7.55141
  42    0.3336        5.3684        0.0071       13.1833       13.1904       7.821999       8.62999
  41    0.4307        5.3669        0.0096       13.0729       13.0825       7.715606       9.25060
  40    0.5894        5.3646        0.0135       12.8796       12.8931       7.528522       9.94886
  39     1.339        5.3567        0.0300       11.9165       11.9465       6.589878      10.56743
  38     1.782        5.3537        0.0384       11.4399       11.4784       6.124639       8.85740
  37     2.292        5.3517        0.0475       10.9796       11.0271       5.675341       7.44156
  36     2.964        5.3511        0.0586       10.4786       10.5372       5.186126       6.14113
  35     3.853        5.3528        0.0723        9.9429       10.0152       4.662352       4.97071
  34     5.035        5.3579        0.0895        9.4007        9.4901       4.132266       3.78672
  33     6.613        5.3664        0.1112        8.8752        8.9864       3.620003       2.73856
  32     8.786        5.3781        0.1393        8.3786        8.5179       3.139836       1.86479
  31     11.80        5.3926        0.1779        7.8897        8.0676       2.674990       1.30142
  30     15.07        5.4057        0.2178        7.5108        7.7286       2.322970       0.90885
  29     18.79        5.4183        0.2613        7.1776        7.4389       2.020660       0.68543
  28     23.16        5.4305        0.3104        6.8664        7.1768       1.746233       0.53065
  27     28.12        5.4416        0.3646        6.5780        6.9426       1.501013       0.41686
  26     33.73        5.4488        0.4238        6.3195        6.7433       1.294447       0.31058
  25     40.54        5.4513        0.4937        6.0663        6.5599       1.108646       0.23051
  24     48.69        5.4486        0.5756        5.8128        6.3885       0.939902       0.17462
  23     57.69        5.4401        0.6632        5.5777        6.2409       0.800803       0.13038
  22     68.43        5.4240        0.7646        5.3379        6.1025       0.678487       0.09616
  21     81.20        5.3960        0.8825        5.0965        5.9790       0.583034       0.06307
  20     96.49        5.3547        1.0188        4.8476        5.8665       0.511771       0.03933
  19     114.6        5.3038        1.1736        4.5799        5.7534       0.449575       0.02904
  18     136.5        5.2448        1.3468        4.2891        5.6359       0.391101       0.02248
  17     162.9        5.1776        1.5395        3.9732        5.5127       0.335160       0.01788
  16     196.4        5.0921        1.7712        3.6080        5.3792       0.287139       0.01209
  15     218.7        5.0383        1.9127        3.3898        5.3025       0.264187       0.00871
  14     243.0        4.9826        2.0574        3.1686        5.2259       0.243302       0.00724
  13     269.0        4.9254        2.2042        2.9461        5.1502       0.224818       0.00600
  12     297.5        4.8671        2.3519        2.7239        5.0759       0.208767       0.00476
  11     328.5        4.8086        2.4994        2.5029        5.0023       0.193630       0.00412
  10     361.9        4.7505        2.6453        2.2846        4.9299       0.179432       0.00359
   9     398.1        4.6931        2.7885        2.0708        4.8592       0.166170       0.00309
   8     437.6        4.6369        2.9279        1.8626        4.7905       0.153564       0.00270
   7     480.5        4.5826        3.0622        1.6621        4.7244       0.141752       0.00232
   6     533.0        4.5231        3.2085        1.4437        4.6522       0.129046       0.00204
   5     589.8        4.4673        3.3453        1.2390        4.5842       0.116903       0.00180
   4     651.6        4.4159        3.4710        1.0500        4.5210       0.105159       0.00161
   3     718.7        4.3691        3.5850        0.8778        4.4628       0.093774       0.00143
   2     792.3        4.3274        3.6864        0.7237        4.4101       0.082726       0.00127
   1     891.5        4.2826        3.7954        0.5563        4.3517       0.069194       0.00115
   0    1013.0        4.2427        3.8932        0.4039        4.2971       0.054357       0.00103



 Wavenumbers: 38000. - 50000. cm-1, ATM      1
 LEVEL PRESSURE   UPWARD FLUX   DIFDOWN FLUX  DIRDOWN FLUX  DOWNWARD FLUX   NET FLUX    HEATING RATE
          mb          W/m2          W/m2          W/m2        W/m2          W/m2       degree/day
  51    .06700        0.0051        0.0000        0.8267        0.8267       0.821528       0.00000
  50    .07753        0.0051        0.0001        0.8242        0.8243       0.819196       1.86936
  49    .09103        0.0050        0.0002        0.8207        0.8209       0.815872       2.07705
  48    0.1069        0.0049        0.0002        0.8162        0.8164       0.811514       2.31984
  47    0.1255        0.0048        0.0004        0.8103        0.8106       0.805801       2.59006
  46    0.1487        0.0047        0.0005        0.8018        0.8023       0.797567       3.00143
  45    0.1794        0.0045        0.0007        0.7889        0.7896       0.785013       3.44648
  44    0.2165        0.0044        0.0009        0.7720        0.7729       0.768507       3.75474
  43    0.2613        0.0042        0.0011        0.7500        0.7511       0.746955       4.06246
  42    0.3336        0.0039        0.0015        0.7106        0.7121       0.708267       4.51071
  41    0.4307        0.0035        0.0019        0.6566        0.6584       0.654972       4.63387
  40    0.5894        0.0029        0.0024        0.5680        0.5704       0.567464       4.65357
  39     1.339        0.0015        0.0030        0.2422        0.2452       0.243720       3.64476
  38     1.782        0.0010        0.0026        0.1493        0.1519       0.150889       1.76735
  37     2.292        0.0007        0.0022        0.0924        0.0946       0.093932       0.94336
  36     2.964        0.0005        0.0018        0.0539        0.0557       0.055224       0.48589
  35     3.853        0.0003        0.0013        0.0295        0.0308       0.030502       0.23462
  34     5.035        0.0002        0.0010        0.0154        0.0164       0.016181       0.10230
  33     6.613        0.0001        0.0007        0.0073        0.0080       0.007912       0.04420
  32     8.786        0.0000        0.0004        0.0030        0.0034       0.003390       0.01756
  31     11.80        0.0000        0.0003        0.0010        0.0012       0.001199       0.00613
  30     15.07        0.0000        0.0001        0.0003        0.0005       0.000463       0.00190
  29     18.79        0.0000        0.0001        0.0001        0.0002       0.000182       0.00064
  28     23.16        0.0000        0.0000        0.0000        0.0001       0.000071       0.00022
  27     28.12        0.0000        0.0000        0.0000        0.0000       0.000028       0.00007
  26     33.73        0.0000        0.0000        0.0000        0.0000       0.000011       0.00002
  25     40.54        0.0000        0.0000        0.0000        0.0000       0.000005       0.00001
  24     48.69        0.0000        0.0000        0.0000        0.0000       0.000002       0.00000
  23     57.69        0.0000        0.0000        0.0000        0.0000       0.000001       0.00000
  22     68.43        0.0000        0.0000        0.0000        0.0000       0.000000       0.00000
  21     81.20        0.0000        0.0000        0.0000        0.0000       0.000000       0.00000
  20     96.49        0.0000        0.0000        0.0000        0.0000       0.000000       0.00000
  19     114.6        0.0000        0.0000        0.0000        0.0000       0.000000       0.00000
  18     136.5        0.0000        0.0000        0.0000        0.0000       0.000000       0.00000
  17     162.9        0.0000        0.0000        0.0000        0.0000       0.000000       0.00000
  16     196.4        0.0000        0.0000        0.0000        0.0000       0.000000       0.00000
  15     218.7        0.0000        0.0000        0.0000        0.0000       0.000000       0.00000
  14     243.0        0.0000        0.0000        0.0000        0.0000       0.000000       0.00000
  13     269.0        0.0000        0.0000        0.0000        0.0000       0.000000       0.00000
  12     297.5        0.0000        0.0000        0.0000        0.0000       0.000000       0.00000
  11     328.5        0.0000        0.0000        0.0000        0.0000       0.000000       0.00000
  10     361.9        0.0000        0.0000        0.0000        0.0000       0.000000       0.00000
   9     398.1        0.0000        0.0000        0.0000        0.0000       0.000000       0.00000
   8     437.6        0.0000        0.0000        0.0000        0.0000       0.000000       0.00000
   7     480.5        0.0000        0.0000        0.0000        0.0000       0.000000       0.00000
   6     533.0        0.0000        0.0000        0.0000        0.0000       0.000000       0.00000
   5     589.8        0.0000        0.0000        0.0000        0.0000       0.000000       0.00000
   4     651.6        0.0000        0.0000        0.0000        0.0000       0.000000       0.00000
   3     718.7        0.0000        0.0000        0.0000        0.0000       0.000000       0.00000
   2     792.3        0.0000        0.0000        0.0000        0.0000       0.000000       0.00000
   1     891.5        0.0000        0.0000        0.0000        0.0000       0.000000       0.00000
   0    1013.0        0.0000        0.0000        0.0000        0.0000       0.000000       0.00000



 Wavenumbers:   820. -  2600. cm-1, ATM      1
 LEVEL PRESSURE   UPWARD FLUX   DIFDOWN FLUX  DIRDOWN FLUX  DOWNWARD FLUX   NET FLUX    HEATING RATE
          mb          W/m2          W/m2          W/m2        W/m2          W/m2       degree/day
  51    .06700        0.1308        0.0000        3.8670        3.8670       3.736256       0.00000
  50    .07753        0.1308        0.0000        3.8643        3.8643       3.733539       2.17769
  49    .09103        0.1308        0.0000        3.8635        3.8635       3.732729       0.50638
  48    0.1069        0.1308        0.0000        3.8626        3.8626       3.731838       0.47415
  47    0.1255        0.1308        0.0000        3.8616        3.8616       3.730877       0.43559
  46    0.1487        0.1308        0.0000        3.8605        3.8605       3.729768       0.40437
  45    0.1794        0.1308        0.0000        3.8592        3.8592       3.728433       0.36647
  44    0.2165        0.1308        0.0000        3.8578        3.8578       3.727055       0.31346
  43    0.2613        0.1308        0.0000        3.8564        3.8564       3.725595       0.27522
  42    0.3336        0.1308        0.0000        3.8541        3.8541       3.723364       0.26012
  41    0.4307        0.1308        0.0000        3.8512        3.8512       3.720481       0.25063
  40    0.5894        0.1308        0.0000        3.8465        3.8465       3.715755       0.25133
  39     1.339        0.1308        0.0000        3.8251        3.8251       3.694380       0.24064
  38     1.782        0.1308        0.0000        3.8133        3.8133       3.682568       0.22489
  37     2.292        0.1308        0.0000        3.8003        3.8003       3.669507       0.21632
  36     2.964        0.1308        0.0000        3.7841        3.7841       3.653378       0.20246
  35     3.853        0.1308        0.0000        3.7642        3.7642       3.633464       0.18899
  34     5.035        0.1308        0.0000        3.7395        3.7395       3.608773       0.17638
  33     6.613        0.1308        0.0000        3.7090        3.7090       3.578238       0.16324
  32     8.786        0.1308        0.0000        3.6726        3.6726       3.541845       0.14133
  31     11.80        0.1308        0.0000        3.6320        3.6320       3.501252       0.11365
  30     15.07        0.1308        0.0000        3.6016        3.6016       3.470869       0.07844
  29     18.79        0.1308        0.0000        3.5777        3.5777       3.446972       0.05418
  28     23.16        0.1308        0.0000        3.5564        3.5564       3.425620       0.04129
  27     28.12        0.1308        0.0000        3.5348        3.5348       3.404075       0.03662
  26     33.73        0.1308        0.0000        3.5118        3.5118       3.381044       0.03463
  25     40.54        0.1308        0.0000        3.4849        3.4849       3.354158       0.03335
  24     48.69        0.1308        0.0000        3.4537        3.4537       3.322908       0.03234
  23     57.69        0.1308        0.0000        3.4210        3.4210       3.290237       0.03062
  22     68.43        0.1308        0.0000        3.3844        3.3844       3.253654       0.02876
  21     81.20        0.1308        0.0000        3.3441        3.3441       3.213358       0.02663
  20     96.49        0.1308        0.0000        3.2998        3.2998       3.168997       0.02448
  19     114.6        0.1308        0.0000        3.2506        3.2506       3.119852       0.02295
  18     136.5        0.1308        0.0000        3.1936        3.1936       3.062806       0.02194
  17     162.9        0.1308        0.0000        3.1181        3.1181       2.987307       0.02413
  16     196.4        0.1309        0.0000        3.0090        3.0090       2.878125       0.02748
  15     218.7        0.1309        0.0000        2.9420        2.9420       2.811126       0.02544
  14     243.0        0.1309        0.0000        2.8605        2.8605       2.729569       0.02829
  13     269.0        0.1310        0.0000        2.7419        2.7420       2.610996       0.03846
  12     297.5        0.1311        0.0000        2.5729        2.5729       2.441802       0.05018
  11     328.5        0.1313        0.0000        2.3602        2.3602       2.228929       0.05788
  10     361.9        0.1316        0.0000        2.1524        2.1524       2.020877       0.05264
   9     398.1        0.1320        0.0000        1.9974        1.9974       1.865452       0.03621
   8     437.6        0.1326        0.0000        1.8835        1.8835       1.750946       0.02448
   7     480.5        0.1335        0.0000        1.7734        1.7734       1.639993       0.02179
   6     533.0        0.1349        0.0000        1.6397        1.6398       1.504844       0.02174
   5     589.8        0.1370        0.0000        1.5068        1.5069       1.369808       0.02004
   4     651.6        0.1402        0.0000        1.3807        1.3807       1.240510       0.01768
   3     718.7        0.1444        0.0000        1.2680        1.2680       1.123618       0.01469
   2     792.3        0.1496        0.0000        1.1659        1.1660       1.016370       0.01230
   1     891.5        0.1583        0.0000        1.0372        1.0373       0.878945       0.01169
   0    1013.0        0.1742        0.0000        0.8716        0.8717       0.697517       0.01260

  Modules and versions used in this calculation:

       rrtmg_sw.1col.f90:  $Revision$                    rrtmg_sw_init.f90:  $Revision$        
     rrtmgsw_cldprop.f90:  $Revision$                  rrtmgsw_cldprmc.f90:  NOT USED          
     rrtmg_sw_reftra.f90:  $Revision$                  rrtmg_sw_spcvrt.f90:  NOT USED          
     rrtmg_sw_spcvmc.f90:  NOT USED                    rrtmgsw_setcoef.f90:  NOT USED          
     rrtmg_sw_taumol.f90:  $Revision$                  rrtmg_sw_vrtqdr.f90:  NOT USED          
                rrtatm.f:  NOT USED                             util_xxx.f:  NOT USED          
                 extra.f:  NOT USED                       rrtmg_sw_k_g.f90:  $Revision$        

