

 Wavenumbers:   820. - 50000. cm-1, ATM      1
 LEVEL PRESSURE   UPWARD FLUX   DIFDOWN FLUX  DIRDOWN FLUX  DOWNWARD FLUX   NET FLUX    HEATING RATE
          mb          W/m2          W/m2          W/m2        W/m2          W/m2       degree/day
  51    .06700      230.5451        0.0000      397.8738      397.8738     167.328651       0.00000
  50    .07753      230.5446        0.0012      397.8577      397.8589     167.314360      11.45502
  49    .09103      230.5438        0.0027      397.8418      397.8445     167.300670       8.55633
  48    0.1069      230.5430        0.0044      397.8230      397.8274     167.284320       8.70300
  47    0.1255      230.5421        0.0064      397.7997      397.8060     167.263875       9.26892
  46    0.1487      230.5410        0.0088      397.7676      397.7765     167.235413      10.37462
  45    0.1794      230.5396        0.0122      397.7205      397.7327     167.193114      11.61212
  44    0.2165      230.5380        0.0162      397.6602      397.6764     167.138456      12.43384
  43    0.2613      230.5361        0.0209      397.5829      397.6038     167.067645      13.34764
  42    0.3336      230.5333        0.0286      397.4449      397.4735     166.940177      14.86143
  41    0.4307      230.5299        0.0388      397.2524      397.2911     166.761264      15.55611
  40    0.5894      230.5249        0.0550      396.9253      396.9804     166.455459      16.26232
  39     1.339      230.5133        0.1280      395.4254      395.5534     165.040024      15.93522
  38     1.782      230.5146        0.1689      394.7288      394.8977     164.383156      12.50571
  37     2.292      230.5230        0.2155      394.0572      394.2727     163.749672      10.49216
  36     2.964      230.5447        0.2761      393.3007      393.5768     163.032078       9.00797
  35     3.853      230.5878        0.3552      392.4318      392.7870     162.199144       7.90469
  34     5.035      230.6596        0.4593      391.4441      391.9034     161.243747       6.82496
  33     6.613      230.7635        0.5973      390.3268      390.9240     160.160558       5.79074
  32     8.786      230.8975        0.7818      389.0624      389.8442     158.946712       4.71414
  31     11.80      231.0645        1.0438      387.5500      388.5937     157.529245       3.96846
  30     15.07      231.2149        1.3228      386.1556      387.4784     156.263510       3.26788
  29     18.79      231.3589        1.6356      384.7502      386.3857     155.026788       2.80403
  28     23.16      231.4975        1.9980      383.2686      385.2666     153.769115       2.43193
  27     28.12      231.6213        2.4092      381.7329      384.1421     152.520859       2.12195
  26     33.73      231.7089        2.8662      380.1982      383.0643     151.355467       1.75220
  25     40.54      231.7558        3.4142      378.5384      381.9526     150.196875       1.43736
  24     48.69      231.7558        4.0694      376.7214      380.7908     149.034971       1.20239
  23     57.69      231.7017        4.7824      374.8959      379.6783     147.976548       0.99211
  22     68.43      231.5792        5.6233      372.8999      378.5232     146.943991       0.81173
  21     81.20      231.3529        6.6147      370.7496      377.3644     146.011409       0.61624
  20     96.49      231.0108        7.7816      368.4056      376.1872     145.176392       0.46087
  19     114.6      230.5828        9.1454      365.7513      374.8967     144.313873       0.40274
  18     136.5      230.0591       10.7303      362.7231      373.4534     143.394236       0.35362
  17     162.9      229.4265       12.5740      359.1748      371.7487     142.322289       0.34264
  16     196.4      228.5752       14.9006      354.5718      369.4725     140.897262       0.35870
  15     218.7      228.0108       16.3901      351.4437      367.8337     139.822910       0.40789
  14     243.0      227.4014       17.9754      347.7111      365.6866     138.285151       0.53335
  13     269.0      226.7474       19.6551      342.9441      362.5993     135.851841       0.78935
  12     297.5      226.0506       21.4272      337.4137      358.8410     132.790348       0.90801
  11     328.5      225.3165       23.2938      331.1302      354.4240     129.107473       1.00136
  10     361.9      224.5502       25.2494      324.1219      349.3713     124.821134       1.08449
   9     398.1      223.7555       27.2939      316.6066      343.9005     120.145024       1.08943
   8     437.6      222.9421       29.4231      308.5895      338.0125     115.070399       1.08499
   7     480.5      222.1261       31.6314      299.9349      331.5663     109.440200       1.10575
   6     533.0      221.2071       34.2516      289.7021      323.9538     102.746653       1.07678
   5     589.8      220.3299       36.9616      279.3388      316.3003      95.970437       1.00581
   4     651.6      219.5371       39.7495      268.7786      308.5281      88.990971       0.95446
   3     718.7      218.8542       42.6070      258.2837      300.8906      82.036432       0.87399
   2     792.3      218.3089       45.5202      248.0774      293.5976      75.288721       0.77389
   1     891.5      217.9340       49.2281      235.5216      284.7497      66.815743       0.72101
   0    1013.0      218.2888       53.3625      221.4731      274.8356      56.546777       0.71303



 Wavenumbers:  2600. -  3250. cm-1, ATM      1
 LEVEL PRESSURE   UPWARD FLUX   DIFDOWN FLUX  DIRDOWN FLUX  DOWNWARD FLUX   NET FLUX    HEATING RATE
          mb          W/m2          W/m2          W/m2        W/m2          W/m2       degree/day
  51    .06700        0.2247        0.0000        3.5066        3.5066       3.281876       0.00000
  50    .07753        0.2247        0.0000        3.5066        3.5066       3.281868       0.00640
  49    .09103        0.2247        0.0000        3.5066        3.5066       3.281858       0.00627
  48    0.1069        0.2247        0.0000        3.5066        3.5066       3.281847       0.00613
  47    0.1255        0.2247        0.0000        3.5066        3.5066       3.281834       0.00599
  46    0.1487        0.2247        0.0000        3.5066        3.5066       3.281817       0.00607
  45    0.1794        0.2247        0.0000        3.5065        3.5065       3.281794       0.00624
  44    0.2165        0.2247        0.0000        3.5065        3.5065       3.281767       0.00611
  43    0.2613        0.2247        0.0000        3.5065        3.5065       3.281736       0.00598
  42    0.3336        0.2247        0.0000        3.5064        3.5064       3.281683       0.00615
  41    0.4307        0.2247        0.0000        3.5064        3.5064       3.281612       0.00618
  40    0.5894        0.2247        0.0000        3.5062        3.5062       3.281493       0.00633
  39     1.339        0.2247        0.0000        3.5055        3.5055       3.280794       0.00787
  38     1.782        0.2247        0.0000        3.5050        3.5050       3.280263       0.01011
  37     2.292        0.2247        0.0000        3.5043        3.5043       3.279571       0.01147
  36     2.964        0.2247        0.0000        3.5033        3.5033       3.278579       0.01245
  35     3.853        0.2247        0.0000        3.5019        3.5019       3.277202       0.01307
  34     5.035        0.2247        0.0000        3.5001        3.5001       3.275341       0.01329
  33     6.613        0.2247        0.0000        3.4977        3.4977       3.272932       0.01288
  32     8.786        0.2247        0.0000        3.4947        3.4947       3.269961       0.01154
  31     11.80        0.2247        0.0000        3.4911        3.4911       3.266326       0.01018
  30     15.07        0.2247        0.0000        3.4878        3.4878       3.263105       0.00832
  29     18.79        0.2247        0.0000        3.4848        3.4848       3.260041       0.00695
  28     23.16        0.2247        0.0000        3.4816        3.4816       3.256822       0.00623
  27     28.12        0.2247        0.0000        3.4779        3.4779       3.253204       0.00615
  26     33.73        0.2247        0.0000        3.4735        3.4735       3.248738       0.00671
  25     40.54        0.2247        0.0000        3.4671        3.4671       3.242412       0.00785
  24     48.69        0.2247        0.0000        3.4582        3.4583       3.233518       0.00920
  23     57.69        0.2247        0.0000        3.4472        3.4472       3.222471       0.01036
  22     68.43        0.2247        0.0000        3.4329        3.4329       3.208212       0.01121
  21     81.20        0.2247        0.0000        3.4152        3.4152       3.190485       0.01171
  20     96.49        0.2247        0.0000        3.3940        3.3941       3.169342       0.01167
  19     114.6        0.2247        0.0000        3.3692        3.3692       3.144455       0.01162
  18     136.5        0.2248        0.0001        3.3419        3.3420       3.117241       0.01046
  17     162.9        0.2248        0.0001        3.3129        3.3129       3.088171       0.00929
  16     196.4        0.2248        0.0001        3.2793        3.2794       3.054605       0.00845
  15     218.7        0.2248        0.0001        3.2578        3.2578       3.032994       0.00820
  14     243.0        0.2249        0.0001        3.2320        3.2320       3.007130       0.00897
  13     269.0        0.2250        0.0001        3.1968        3.1969       2.971895       0.01143
  12     297.5        0.2252        0.0001        3.1489        3.1490       2.923832       0.01425
  11     328.5        0.2255        0.0001        3.0821        3.0822       2.856679       0.01826
  10     361.9        0.2259        0.0001        2.9902        2.9904       2.764457       0.02333
   9     398.1        0.2265        0.0001        2.8715        2.8716       2.645138       0.02780
   8     437.6        0.2273        0.0001        2.7276        2.7278       2.500489       0.03093
   7     480.5        0.2285        0.0001        2.5595        2.5597       2.331157       0.03326
   6     533.0        0.2305        0.0001        2.3617        2.3619       2.131387       0.03214
   5     589.8        0.2334        0.0002        2.1649        2.1651       1.931704       0.02964
   4     651.6        0.2375        0.0002        1.9608        1.9609       1.723407       0.02849
   3     718.7        0.2432        0.0002        1.7593        1.7595       1.516333       0.02602
   2     792.3        0.2505        0.0002        1.5761        1.5762       1.325706       0.02186
   1     891.5        0.2632        0.0002        1.3714        1.3716       1.108434       0.01849
   0    1013.0        0.2860        0.0002        1.1584        1.1586       0.872542       0.01638



 Wavenumbers:  3250. -  4000. cm-1, ATM      1
 LEVEL PRESSURE   UPWARD FLUX   DIFDOWN FLUX  DIRDOWN FLUX  DOWNWARD FLUX   NET FLUX    HEATING RATE
          mb          W/m2          W/m2          W/m2        W/m2          W/m2       degree/day
  51    .06700        0.0004        0.0000        5.9117        5.9117       5.911216       0.00000
  50    .07753        0.0004        0.0000        5.9075        5.9075       5.907026       3.35808
  49    .09103        0.0004        0.0000        5.9050        5.9050       5.904584       1.52677
  48    0.1069        0.0004        0.0000        5.9032        5.9032       5.902717       0.99346
  47    0.1255        0.0004        0.0000        5.9014        5.9014       5.900959       0.79708
  46    0.1487        0.0004        0.0000        5.8995        5.8995       5.899070       0.68848
  45    0.1794        0.0004        0.0000        5.8974        5.8974       5.896922       0.58983
  44    0.2165        0.0004        0.0000        5.8952        5.8952       5.894805       0.48155
  43    0.2613        0.0004        0.0000        5.8931        5.8931       5.892646       0.40696
  42    0.3336        0.0004        0.0000        5.8899        5.8899       5.889488       0.36820
  41    0.4307        0.0004        0.0000        5.8861        5.8861       5.885651       0.33365
  40    0.5894        0.0004        0.0000        5.8803        5.8803       5.879848       0.30857
  39     1.339        0.0004        0.0000        5.8597        5.8597       5.859251       0.23189
  38     1.782        0.0004        0.0000        5.8513        5.8513       5.850826       0.16039
  37     2.292        0.0004        0.0000        5.8431        5.8431       5.842655       0.13533
  36     2.964        0.0004        0.0000        5.8334        5.8334       5.833015       0.12100
  35     3.853        0.0004        0.0000        5.8213        5.8213       5.820840       0.11555
  34     5.035        0.0004        0.0000        5.8052        5.8052       5.804745       0.11498
  33     6.613        0.0004        0.0000        5.7833        5.7834       5.782923       0.11666
  32     8.786        0.0004        0.0000        5.7531        5.7531       5.752722       0.11729
  31     11.80        0.0004        0.0000        5.7090        5.7090       5.708553       0.12366
  30     15.07        0.0004        0.0000        5.6615        5.6615       5.661088       0.12254
  29     18.79        0.0004        0.0000        5.6093        5.6094       5.608953       0.11821
  28     23.16        0.0004        0.0000        5.5524        5.5524       5.552027       0.11008
  27     28.12        0.0004        0.0000        5.4935        5.4935       5.493148       0.10009
  26     33.73        0.0004        0.0000        5.4348        5.4349       5.434459       0.08824
  25     40.54        0.0004        0.0001        5.3707        5.3708       5.370398       0.07948
  24     48.69        0.0004        0.0001        5.2985        5.2985       5.298165       0.07475
  23     57.69        0.0004        0.0001        5.2215        5.2216       5.221226       0.07212
  22     68.43        0.0003        0.0001        5.1318        5.1319       5.131565       0.07048
  21     81.20        0.0003        0.0001        5.0284        5.0285       5.028136       0.06834
  20     96.49        0.0003        0.0001        4.9122        4.9123       4.912002       0.06410
  19     114.6        0.0003        0.0001        4.7780        4.7782       4.777891       0.06262
  18     136.5        0.0003        0.0002        4.6285        4.6287       4.628413       0.05748
  17     162.9        0.0002        0.0002        4.4406        4.4407       4.440500       0.06006
  16     196.4        0.0002        0.0002        4.1548        4.1550       4.154827       0.07191
  15     218.7        0.0002        0.0002        3.9564        3.9566       3.956446       0.07532
  14     243.0        0.0002        0.0002        3.7055        3.7058       3.705611       0.08700
  13     269.0        0.0001        0.0002        3.3399        3.3401       3.339973       0.11861
  12     297.5        0.0001        0.0002        2.8954        2.8956       2.895483       0.13183
  11     328.5        0.0001        0.0002        2.4388        2.4390       2.438942       0.12413
  10     361.9        0.0001        0.0002        2.0269        2.0271       2.027003       0.10422
   9     398.1        0.0001        0.0002        1.6753        1.6755       1.675415       0.08191
   8     437.6        0.0001        0.0002        1.3592        1.3594       1.359296       0.06759
   7     480.5        0.0001        0.0002        1.0616        1.0618       1.061713       0.05844
   6     533.0        0.0001        0.0001        0.7543        0.7544       0.754377       0.04944
   5     589.8        0.0001        0.0001        0.4951        0.4952       0.495181       0.03847
   4     651.6        0.0001        0.0001        0.2943        0.2943       0.294278       0.02747
   3     718.7        0.0001        0.0001        0.1528        0.1529       0.152770       0.01778
   2     792.3        0.0001        0.0000        0.0658        0.0658       0.065710       0.00998
   1     891.5        0.0003        0.0000        0.0157        0.0157       0.015360       0.00428
   0    1013.0        0.0013        0.0000        0.0013        0.0013       0.000051       0.00106



 Wavenumbers:  4000. -  4650. cm-1, ATM      1
 LEVEL PRESSURE   UPWARD FLUX   DIFDOWN FLUX  DIRDOWN FLUX  DOWNWARD FLUX   NET FLUX    HEATING RATE
          mb          W/m2          W/m2          W/m2        W/m2          W/m2       degree/day
  51    .06700        0.7389        0.0000        6.9421        6.9421       6.203191       0.00000
  50    .07753        0.7389        0.0000        6.9421        6.9421       6.203190       0.00079
  49    .09103        0.7389        0.0000        6.9421        6.9421       6.203188       0.00078
  48    0.1069        0.7389        0.0000        6.9421        6.9421       6.203187       0.00076
  47    0.1255        0.7389        0.0000        6.9421        6.9421       6.203185       0.00074
  46    0.1487        0.7389        0.0000        6.9421        6.9421       6.203183       0.00075
  45    0.1794        0.7389        0.0000        6.9421        6.9421       6.203180       0.00077
  44    0.2165        0.7389        0.0000        6.9421        6.9421       6.203177       0.00076
  43    0.2613        0.7389        0.0000        6.9420        6.9420       6.203173       0.00074
  42    0.3336        0.7389        0.0000        6.9420        6.9420       6.203167       0.00076
  41    0.4307        0.7389        0.0000        6.9420        6.9420       6.203158       0.00077
  40    0.5894        0.7389        0.0000        6.9420        6.9420       6.203143       0.00079
  39     1.339        0.7389        0.0000        6.9419        6.9419       6.203054       0.00100
  38     1.782        0.7389        0.0000        6.9418        6.9419       6.202985       0.00132
  37     2.292        0.7389        0.0000        6.9418        6.9418       6.202891       0.00155
  36     2.964        0.7389        0.0000        6.9416        6.9416       6.202752       0.00175
  35     3.853        0.7389        0.0000        6.9414        6.9414       6.202545       0.00196
  34     5.035        0.7389        0.0000        6.9411        6.9411       6.202241       0.00218
  33     6.613        0.7389        0.0000        6.9406        6.9406       6.201793       0.00239
  32     8.786        0.7388        0.0000        6.9399        6.9400       6.201133       0.00256
  31     11.80        0.7388        0.0000        6.9389        6.9389       6.200099       0.00290
  30     15.07        0.7388        0.0001        6.9377        6.9377       6.198890       0.00312
  29     18.79        0.7388        0.0001        6.9362        6.9362       6.197432       0.00330
  28     23.16        0.7388        0.0001        6.9343        6.9344       6.195630       0.00348
  27     28.12        0.7388        0.0001        6.9321        6.9322       6.193459       0.00369
  26     33.73        0.7388        0.0001        6.9294        6.9296       6.190795       0.00401
  25     40.54        0.7387        0.0001        6.9258        6.9260       6.187204       0.00446
  24     48.69        0.7387        0.0002        6.9210        6.9212       6.182451       0.00492
  23     57.69        0.7387        0.0002        6.9154        6.9156       6.176862       0.00524
  22     68.43        0.7387        0.0003        6.9083        6.9086       6.169917       0.00546
  21     81.20        0.7386        0.0003        6.8998        6.9001       6.161429       0.00561
  20     96.49        0.7386        0.0004        6.8894        6.8898       6.151182       0.00566
  19     114.6        0.7386        0.0004        6.8765        6.8770       6.138365       0.00598
  18     136.5        0.7386        0.0005        6.8610        6.8615       6.122914       0.00594
  17     162.9        0.7385        0.0006        6.8417        6.8423       6.103716       0.00614
  16     196.4        0.7386        0.0007        6.8147        6.8154       6.076821       0.00677
  15     218.7        0.7386        0.0008        6.7948        6.7956       6.057037       0.00751
  14     243.0        0.7387        0.0009        6.7698        6.7707       6.031973       0.00869
  13     269.0        0.7389        0.0010        6.7349        6.7358       5.996957       0.01136
  12     297.5        0.7392        0.0011        6.6869        6.6879       5.948754       0.01430
  11     328.5        0.7396        0.0012        6.6194        6.6205       5.880911       0.01845
  10     361.9        0.7402        0.0013        6.5295        6.5307       5.790485       0.02288
   9     398.1        0.7411        0.0014        6.4202        6.4216       5.680512       0.02562
   8     437.6        0.7422        0.0015        6.2962        6.2977       5.555470       0.02673
   7     480.5        0.7437        0.0016        6.1555        6.1571       5.413376       0.02791
   6     533.0        0.7462        0.0017        5.9675        5.9693       5.223073       0.03061
   5     589.8        0.7498        0.0019        5.7368        5.7386       4.988827       0.03477
   4     651.6        0.7550        0.0020        5.4662        5.4682       4.713191       0.03769
   3     718.7        0.7622        0.0021        5.1912        5.1933       4.431096       0.03545
   2     792.3        0.7715        0.0022        4.9395        4.9417       4.170243       0.02992
   1     891.5        0.7874        0.0024        4.6486        4.6510       3.863660       0.02609
   0    1013.0        0.8159        0.0025        4.3179        4.3204       3.504555       0.02493



 Wavenumbers:  4650. -  5150. cm-1, ATM      1
 LEVEL PRESSURE   UPWARD FLUX   DIFDOWN FLUX  DIRDOWN FLUX  DOWNWARD FLUX   NET FLUX    HEATING RATE
          mb          W/m2          W/m2          W/m2        W/m2          W/m2       degree/day
  51    .06700        0.4662        0.0000        6.5710        6.5710       6.104806       0.00000
  50    .07753        0.4662        0.0000        6.5708        6.5708       6.104570       0.18887
  49    .09103        0.4662        0.0000        6.5705        6.5705       6.104276       0.18362
  48    0.1069        0.4662        0.0000        6.5701        6.5701       6.103942       0.17806
  47    0.1255        0.4662        0.0000        6.5697        6.5697       6.103562       0.17238
  46    0.1487        0.4662        0.0000        6.5693        6.5693       6.103088       0.17268
  45    0.1794        0.4662        0.0000        6.5686        6.5686       6.102451       0.17473
  44    0.2165        0.4662        0.0000        6.5679        6.5679       6.101713       0.16788
  43    0.2613        0.4662        0.0000        6.5670        6.5670       6.100861       0.16078
  42    0.3336        0.4662        0.0000        6.5657        6.5657       6.099497       0.15894
  41    0.4307        0.4662        0.0000        6.5640        6.5640       6.097775       0.14971
  40    0.5894        0.4662        0.0000        6.5613        6.5613       6.095159       0.13913
  39     1.339        0.4662        0.0000        6.5516        6.5516       6.085382       0.11008
  38     1.782        0.4662        0.0000        6.5473        6.5473       6.081166       0.08026
  37     2.292        0.4662        0.0000        6.5434        6.5435       6.077279       0.06438
  36     2.964        0.4662        0.0000        6.5395        6.5395       6.073325       0.04964
  35     3.853        0.4662        0.0000        6.5355        6.5356       6.069382       0.03742
  34     5.035        0.4662        0.0000        6.5315        6.5315       6.065380       0.02859
  33     6.613        0.4662        0.0000        6.5271        6.5271       6.060986       0.02349
  32     8.786        0.4661        0.0000        6.5216        6.5216       6.055492       0.02134
  31     11.80        0.4661        0.0001        6.5135        6.5135       6.047415       0.02261
  30     15.07        0.4661        0.0001        6.5041        6.5042       6.038048       0.02418
  29     18.79        0.4661        0.0001        6.4925        6.4926       6.026535       0.02610
  28     23.16        0.4661        0.0001        6.4779        6.4780       6.011947       0.02821
  27     28.12        0.4661        0.0002        6.4599        6.4600       5.993977       0.03055
  26     33.73        0.4660        0.0002        6.4384        6.4386       5.972553       0.03221
  25     40.54        0.4660        0.0002        6.4112        6.4114       5.945438       0.03364
  24     48.69        0.4660        0.0003        6.3775        6.3778       5.911816       0.03479
  23     57.69        0.4660        0.0003        6.3404        6.3407       5.874744       0.03475
  22     68.43        0.4659        0.0004        6.2971        6.2975       5.831581       0.03393
  21     81.20        0.4659        0.0004        6.2483        6.2487       5.782805       0.03223
  20     96.49        0.4659        0.0005        6.1948        6.1953       5.729488       0.02943
  19     114.6        0.4658        0.0006        6.1381        6.1388       5.672927       0.02641
  18     136.5        0.4658        0.0007        6.0790        6.0797       5.613921       0.02269
  17     162.9        0.4658        0.0009        6.0160        6.0169       5.551103       0.02008
  16     196.4        0.4658        0.0010        5.9399        5.9409       5.475077       0.01914
  15     218.7        0.4659        0.0011        5.8896        5.8908       5.424911       0.01905
  14     243.0        0.4659        0.0012        5.8322        5.8334       5.367500       0.01991
  13     269.0        0.4661        0.0014        5.7624        5.7638       5.297689       0.02265
  12     297.5        0.4663        0.0015        5.6767        5.6782       5.211892       0.02545
  11     328.5        0.4667        0.0016        5.5726        5.5742       5.107500       0.02838
  10     361.9        0.4673        0.0018        5.4473        5.4491       4.981809       0.03180
   9     398.1        0.4681        0.0019        5.2995        5.3014       4.833313       0.03460
   8     437.6        0.4692        0.0020        5.1275        5.1295       4.660340       0.03698
   7     480.5        0.4707        0.0022        4.9290        4.9311       4.460456       0.03926
   6     533.0        0.4731        0.0023        4.6794        4.6817       4.208571       0.04052
   5     589.8        0.4765        0.0024        4.4188        4.4212       3.944680       0.03917
   4     651.6        0.4814        0.0025        4.1521        4.1546       3.673268       0.03712
   3     718.7        0.4878        0.0027        3.8929        3.8956       3.407764       0.03337
   2     792.3        0.4963        0.0028        3.6469        3.6497       3.153401       0.02917
   1     891.5        0.5106        0.0029        3.3535        3.3564       2.845774       0.02618
   0    1013.0        0.5353        0.0030        3.0383        3.0414       2.506115       0.02358



 Wavenumbers:  5150. -  6150. cm-1, ATM      1
 LEVEL PRESSURE   UPWARD FLUX   DIFDOWN FLUX  DIRDOWN FLUX  DOWNWARD FLUX   NET FLUX    HEATING RATE
          mb          W/m2          W/m2          W/m2        W/m2          W/m2       degree/day
  51    .06700        1.4663        0.0000       16.4735       16.4735      15.007245       0.00000
  50    .07753        1.4663        0.0000       16.4735       16.4735      15.007210       0.02761
  49    .09103        1.4663        0.0000       16.4734       16.4734      15.007165       0.02810
  48    0.1069        1.4663        0.0000       16.4734       16.4734      15.007112       0.02859
  47    0.1255        1.4663        0.0000       16.4733       16.4733      15.007047       0.02904
  46    0.1487        1.4663        0.0000       16.4732       16.4732      15.006964       0.03059
  45    0.1794        1.4663        0.0000       16.4731       16.4731      15.006844       0.03269
  44    0.2165        1.4663        0.0000       16.4730       16.4730      15.006698       0.03331
  43    0.2613        1.4663        0.0000       16.4728       16.4728      15.006519       0.03376
  42    0.3336        1.4663        0.0000       16.4725       16.4725      15.006213       0.03564
  41    0.4307        1.4663        0.0000       16.4720       16.4720      15.005794       0.03645
  40    0.5894        1.4663        0.0000       16.4713       16.4713      15.005093       0.03729
  39     1.339        1.4662        0.0000       16.4679       16.4679      15.001684       0.03837
  38     1.782        1.4662        0.0000       16.4659       16.4659      14.999685       0.03806
  37     2.292        1.4662        0.0001       16.4635       16.4636      14.997394       0.03795
  36     2.964        1.4662        0.0001       16.4605       16.4606      14.994424       0.03727
  35     3.853        1.4662        0.0001       16.4567       16.4567      14.990571       0.03657
  34     5.035        1.4662        0.0001       16.4516       16.4517      14.985575       0.03569
  33     6.613        1.4661        0.0002       16.4451       16.4452      14.979115       0.03454
  32     8.786        1.4661        0.0002       16.4367       16.4369      14.970804       0.03228
  31     11.80        1.4660        0.0003       16.4254       16.4257      14.959654       0.03122
  30     15.07        1.4659        0.0004       16.4141       16.4145      14.948569       0.02862
  29     18.79        1.4659        0.0005       16.4024       16.4029      14.937049       0.02612
  28     23.16        1.4658        0.0006       16.3900       16.3906      14.924790       0.02370
  27     28.12        1.4657        0.0007       16.3771       16.3778      14.912129       0.02152
  26     33.73        1.4656        0.0009       16.3641       16.3650      14.899406       0.01913
  25     40.54        1.4654        0.0010       16.3502       16.3512      14.885771       0.01692
  24     48.69        1.4653        0.0012       16.3354       16.3366      14.871305       0.01497
  23     57.69        1.4651        0.0015       16.3211       16.3226      14.857414       0.01302
  22     68.43        1.4650        0.0017       16.3062       16.3080      14.843038       0.01130
  21     81.20        1.4647        0.0021       16.2903       16.2924      14.827660       0.01016
  20     96.49        1.4645        0.0025       16.2726       16.2751      14.810606       0.00941
  19     114.6        1.4642        0.0029       16.2521       16.2550      14.790816       0.00924
  18     136.5        1.4638        0.0035       16.2245       16.2280      14.764184       0.01024
  17     162.9        1.4634        0.0041       16.1747       16.1789      14.715436       0.01558
  16     196.4        1.4629        0.0049       16.0518       16.0568      14.593881       0.03060
  15     218.7        1.4626        0.0055       15.8984       15.9038      14.441266       0.05794
  14     243.0        1.4622        0.0060       15.6153       15.6212      14.159000       0.09790
  13     269.0        1.4619        0.0065       15.1390       15.1455      13.683535       0.15424
  12     297.5        1.4617        0.0070       14.5779       14.5848      13.123169       0.16620
  11     328.5        1.4615        0.0074       13.8780       13.8854      12.423919       0.19012
  10     361.9        1.4614        0.0078       13.0814       13.0892      11.627783       0.20143
   9     398.1        1.4615        0.0081       12.2728       12.2810      10.819417       0.18833
   8     437.6        1.4619        0.0084       11.4776       11.4860      10.024090       0.17005
   7     480.5        1.4626        0.0086       10.7300       10.7386       9.276019       0.14692
   6     533.0        1.4641        0.0090       10.0326       10.0416       8.577482       0.11237
   5     589.8        1.4666        0.0094        9.5050        9.5144       8.047798       0.07862
   4     651.6        1.4707        0.0099        9.0814        9.0913       7.620571       0.05842
   3     718.7        1.4767        0.0105        8.7024        8.7129       7.236193       0.04831
   2     792.3        1.4851        0.0112        8.3379        8.3491       6.864040       0.04268
   1     891.5        1.5006        0.0120        7.9064        7.9184       6.417782       0.03797
   0    1013.0        1.5327        0.0129        7.4741        7.4870       5.954290       0.03218



 Wavenumbers:  6150. -  7700. cm-1, ATM      1
 LEVEL PRESSURE   UPWARD FLUX   DIFDOWN FLUX  DIRDOWN FLUX  DOWNWARD FLUX   NET FLUX    HEATING RATE
          mb          W/m2          W/m2          W/m2        W/m2          W/m2       degree/day
  51    .06700        2.3915        0.0000       30.4684       30.4684      28.076885       0.00000
  50    .07753        2.3915        0.0000       30.4683       30.4683      28.076834       0.04144
  49    .09103        2.3915        0.0000       30.4683       30.4683      28.076767       0.04174
  48    0.1069        2.3915        0.0000       30.4682       30.4682      28.076688       0.04202
  47    0.1255        2.3915        0.0000       30.4681       30.4681      28.076595       0.04227
  46    0.1487        2.3915        0.0000       30.4680       30.4680      28.076474       0.04411
  45    0.1794        2.3915        0.0000       30.4678       30.4678      28.076304       0.04669
  44    0.2165        2.3915        0.0000       30.4676       30.4676      28.076096       0.04715
  43    0.2613        2.3915        0.0000       30.4673       30.4673      28.075845       0.04744
  42    0.3336        2.3915        0.0000       30.4669       30.4669      28.075418       0.04974
  41    0.4307        2.3915        0.0000       30.4663       30.4663      28.074837       0.05052
  40    0.5894        2.3914        0.0001       30.4653       30.4653      28.073869       0.05146
  39     1.339        2.3914        0.0001       30.4604       30.4606      28.069186       0.05273
  38     1.782        2.3913        0.0002       30.4576       30.4578      28.066436       0.05235
  37     2.292        2.3913        0.0002       30.4543       30.4546      28.063278       0.05231
  36     2.964        2.3912        0.0003       30.4501       30.4504      28.059170       0.05156
  35     3.853        2.3911        0.0004       30.4445       30.4449      28.053813       0.05084
  34     5.035        2.3910        0.0005       30.4373       30.4378      28.046813       0.05000
  33     6.613        2.3908        0.0007       30.4278       30.4285      28.037666       0.04890
  32     8.786        2.3906        0.0009       30.4154       30.4163      28.025713       0.04642
  31     11.80        2.3903        0.0013       30.3984       30.3996      28.009328       0.04587
  30     15.07        2.3900        0.0016       30.3810       30.3826      27.992614       0.04315
  29     18.79        2.3896        0.0020       30.3623       30.3643      27.974714       0.04059
  28     23.16        2.3892        0.0025       30.3417       30.3442      27.955031       0.03806
  27     28.12        2.3887        0.0030       30.3196       30.3226      27.933931       0.03587
  26     33.73        2.3881        0.0036       30.2965       30.3001      27.912013       0.03295
  25     40.54        2.3874        0.0044       30.2708       30.2751      27.887676       0.03019
  24     48.69        2.3866        0.0052       30.2423       30.2475      27.860900       0.02771
  23     57.69        2.3857        0.0062       30.2139       30.2201      27.834335       0.02490
  22     68.43        2.3847        0.0074       30.1834       30.1907      27.806061       0.02223
  21     81.20        2.3834        0.0087       30.1500       30.1587      27.775333       0.02030
  20     96.49        2.3819        0.0104       30.1126       30.1230      27.741116       0.01889
  19     114.6        2.3801        0.0123       30.0695       30.0818      27.701733       0.01839
  18     136.5        2.3779        0.0146       30.0139       30.0285      27.650582       0.01967
  17     162.9        2.3754        0.0173       29.9225       29.9398      27.564410       0.02754
  16     196.4        2.3721        0.0208       29.7333       29.7541      27.382037       0.04591
  15     218.7        2.3700        0.0230       29.5259       29.5489      27.178922       0.07712
  14     243.0        2.3677        0.0254       29.1375       29.1628      26.795120       0.13312
  13     269.0        2.3654        0.0276       28.3800       28.4076      26.042194       0.24425
  12     297.5        2.3631        0.0297       27.3895       27.4192      25.056114       0.29246
  11     328.5        2.3609        0.0316       26.2257       26.2573      23.896438       0.31531
  10     361.9        2.3589        0.0334       24.8453       24.8787      22.519803       0.34830
   9     398.1        2.3574        0.0349       23.3471       23.3820      21.024614       0.34835
   8     437.6        2.3565        0.0362       21.7966       21.8328      19.476348       0.33103
   7     480.5        2.3568        0.0372       20.1977       20.2349      17.878114       0.31389
   6     533.0        2.3592        0.0381       18.4969       18.5350      16.175837       0.27384
   5     589.8        2.3649        0.0390       16.9754       17.0144      14.649485       0.22656
   4     651.6        2.3758        0.0400       15.6022       15.6421      13.266372       0.18914
   3     718.7        2.3928        0.0410       14.4232       14.4642      12.071406       0.15017
   2     792.3        2.4172        0.0423       13.4386       13.4810      11.063773       0.11556
   1     891.5        2.4632        0.0442       12.3736       12.4177       9.954518       0.09439
   0    1013.0        2.5572        0.0461       11.2911       11.3373       8.780081       0.08155



 Wavenumbers:  7700. -  8050. cm-1, ATM      1
 LEVEL PRESSURE   UPWARD FLUX   DIFDOWN FLUX  DIRDOWN FLUX  DOWNWARD FLUX   NET FLUX    HEATING RATE
          mb          W/m2          W/m2          W/m2        W/m2          W/m2       degree/day
  51    .06700        2.0397        0.0000        7.2006        7.2006       5.160872       0.00000
  50    .07753        2.0397        0.0000        7.2006        7.2006       5.160853       0.01525
  49    .09103        2.0397        0.0000        7.2005        7.2005       5.160829       0.01495
  48    0.1069        2.0397        0.0000        7.2005        7.2005       5.160802       0.01463
  47    0.1255        2.0397        0.0000        7.2005        7.2005       5.160770       0.01432
  46    0.1487        2.0397        0.0000        7.2004        7.2005       5.160730       0.01453
  45    0.1794        2.0397        0.0000        7.2004        7.2004       5.160676       0.01495
  44    0.2165        2.0397        0.0000        7.2003        7.2003       5.160611       0.01467
  43    0.2613        2.0397        0.0000        7.2003        7.2003       5.160535       0.01439
  42    0.3336        2.0397        0.0000        7.2001        7.2001       5.160409       0.01472
  41    0.4307        2.0397        0.0000        7.2000        7.2000       5.160241       0.01456
  40    0.5894        2.0398        0.0000        7.1997        7.1997       5.159968       0.01455
  39     1.339        2.0398        0.0001        7.1984        7.1985       5.158674       0.01456
  38     1.782        2.0399        0.0001        7.1977        7.1978       5.157914       0.01446
  37     2.292        2.0399        0.0001        7.1968        7.1969       5.157035       0.01456
  36     2.964        2.0400        0.0001        7.1957        7.1958       5.155882       0.01448
  35     3.853        2.0400        0.0002        7.1942        7.1944       5.154358       0.01446
  34     5.035        2.0401        0.0002        7.1922        7.1925       5.152336       0.01445
  33     6.613        2.0403        0.0003        7.1896        7.1899       5.149638       0.01443
  32     8.786        2.0404        0.0004        7.1860        7.1864       5.146007       0.01410
  31     11.80        2.0407        0.0005        7.1810        7.1815       5.140824       0.01451
  30     15.07        2.0410        0.0007        7.1755        7.1762       5.135275       0.01433
  29     18.79        2.0413        0.0009        7.1694        7.1703       5.129026       0.01417
  28     23.16        2.0416        0.0011        7.1623        7.1634       5.121755       0.01406
  27     28.12        2.0420        0.0013        7.1542        7.1555       5.113476       0.01407
  26     33.73        2.0425        0.0015        7.1452        7.1468       5.104259       0.01386
  25     40.54        2.0431        0.0018        7.1344        7.1363       5.093189       0.01373
  24     48.69        2.0438        0.0022        7.1215        7.1237       5.079941       0.01371
  23     57.69        2.0445        0.0026        7.1074        7.1101       5.065511       0.01353
  22     68.43        2.0455        0.0031        7.0909        7.0939       5.048490       0.01338
  21     81.20        2.0466        0.0037        7.0713        7.0750       5.028443       0.01325
  20     96.49        2.0479        0.0043        7.0484        7.0528       5.004875       0.01301
  19     114.6        2.0495        0.0051        7.0217        7.0268       4.977329       0.01286
  18     136.5        2.0514        0.0061        6.9906        6.9967       4.945269       0.01233
  17     162.9        2.0537        0.0072        6.9544        6.9616       4.907877       0.01195
  16     196.4        2.0568        0.0087        6.9087        6.9174       4.860592       0.01190
  15     218.7        2.0589        0.0096        6.8794        6.8890       4.830166       0.01155
  14     243.0        2.0612        0.0106        6.8481        6.8588       4.797602       0.01129
  13     269.0        2.0637        0.0118        6.8147        6.8265       4.762780       0.01130
  12     297.5        2.0665        0.0130        6.7791        6.7920       4.725511       0.01105
  11     328.5        2.0697        0.0142        6.7409        6.7552       4.685503       0.01088
  10     361.9        2.0733        0.0156        6.7002        6.7158       4.642518       0.01088
   9     398.1        2.0773        0.0171        6.6563        6.6734       4.596048       0.01083
   8     437.6        2.0820        0.0187        6.6089        6.6276       4.545562       0.01079
   7     480.5        2.0874        0.0204        6.5570        6.5774       4.489969       0.01092
   6     533.0        2.0948        0.0225        6.4915        6.5139       4.419176       0.01139
   5     589.8        2.1036        0.0247        6.4182        6.4429       4.339300       0.01186
   4     651.6        2.1143        0.0270        6.3359        6.3629       4.248552       0.01241
   3     718.7        2.1272        0.0295        6.2441        6.2736       4.146395       0.01284
   2     792.3        2.1425        0.0321        6.1437        6.1758       4.033384       0.01296
   1     891.5        2.1655        0.0356        6.0042        6.0397       3.874287       0.01354
   0    1013.0        2.1983        0.0396        5.8249        5.8645       3.666187       0.01445



 Wavenumbers:  8050. - 12850. cm-1, ATM      1
 LEVEL PRESSURE   UPWARD FLUX   DIFDOWN FLUX  DIRDOWN FLUX  DOWNWARD FLUX   NET FLUX    HEATING RATE
          mb          W/m2          W/m2          W/m2        W/m2          W/m2       degree/day
  51    .06700       46.7069        0.0000      100.8135      100.8135      54.106607       0.00000
  50    .07753       46.7069        0.0000      100.8135      100.8135      54.106607       0.00000
  49    .09103       46.7069        0.0001      100.8134      100.8135      54.106607      -0.00000
  48    0.1069       46.7068        0.0001      100.8134      100.8135      54.106607      -0.00000
  47    0.1255       46.7068        0.0001      100.8133      100.8134      54.106607       0.00000
  46    0.1487       46.7068        0.0002      100.8132      100.8134      54.106607      -0.00000
  45    0.1794       46.7067        0.0003      100.8131      100.8133      54.106607       0.00000
  44    0.2165       46.7067        0.0004      100.8129      100.8133      54.106607      -0.00000
  43    0.2613       46.7066        0.0005      100.8127      100.8132      54.106607       0.00000
  42    0.3336       46.7065        0.0006      100.8125      100.8131      54.106607       0.00000
  41    0.4307       46.7063        0.0009      100.8121      100.8130      54.106607      -0.00000
  40    0.5894       46.7061        0.0013      100.8115      100.8127      54.106607       0.00000
  39     1.339       46.7049        0.0031      100.8085      100.8116      54.106607      -0.00000
  38     1.782       46.7043        0.0041      100.8068      100.8109      54.106607       0.00000
  37     2.292       46.7035        0.0053      100.8047      100.8101      54.106607       0.00000
  36     2.964       46.7025        0.0070      100.8021      100.8091      54.106607      -0.00000
  35     3.853       46.7011        0.0091      100.7986      100.8077      54.106607       0.00000
  34     5.035       46.6993        0.0119      100.7940      100.8059      54.106607      -0.00000
  33     6.613       46.6969        0.0157      100.7878      100.8035      54.106607       0.00000
  32     8.786       46.6936        0.0208      100.7794      100.8002      54.106607       0.00000
  31     11.80       46.6889        0.0281      100.7674      100.7955      54.106607       0.00000
  30     15.07       46.6839        0.0359      100.7546      100.7905      54.106607       0.00000
  29     18.79       46.6782        0.0448      100.7400      100.7848      54.106607      -0.00000
  28     23.16       46.6716        0.0552      100.7230      100.7782      54.106607      -0.00000
  27     28.12       46.6640        0.0671      100.7035      100.7706      54.106607       0.00000
  26     33.73       46.6554        0.0804      100.6817      100.7620      54.106607       0.00000
  25     40.54       46.6451        0.0965      100.6552      100.7517      54.106607      -0.00000
  24     48.69       46.6327        0.1159      100.6234      100.7393      54.106607       0.00000
  23     57.69       46.6190        0.1373      100.5883      100.7256      54.106607       0.00000
  22     68.43       46.6026        0.1628      100.5464      100.7092      54.106607       0.00000
  21     81.20       46.5831        0.1932      100.4965      100.6897      54.106607      -0.00000
  20     96.49       46.5599        0.2295      100.4370      100.6665      54.106607      -0.00000
  19     114.6       46.5323        0.2727      100.3585      100.6312      54.098866       0.00361
  18     136.5       46.4996        0.3239      100.2634      100.5873      54.087730       0.00428
  17     162.9       46.4606        0.3851      100.1407      100.5257      54.065155       0.00722
  16     196.4       46.4100        0.4645       99.9505      100.4150      54.004938       0.01516
  15     218.7       46.3768        0.5166       99.7889      100.3056      53.928772       0.02892
  14     243.0       46.3409        0.5733       99.5472      100.1205      53.779590       0.05174
  13     269.0       46.3027        0.6343       99.1452       99.7796      53.476862       0.09820
  12     297.5       46.2629        0.6999       98.5975       99.2973      53.034441       0.13122
  11     328.5       46.2224        0.7701       97.8659       98.6359      52.413531       0.16882
  10     361.9       46.1829        0.8447       96.8848       97.7295      51.546632       0.21933
   9     398.1       46.1464        0.9236       95.6330       96.5566      50.410241       0.26475
   8     437.6       46.1168        1.0063       94.0655       95.0718      48.955019       0.31114
   7     480.5       46.1018        1.0919       92.0807       93.1726      47.070875       0.37004
   6     533.0       46.1115        1.1932       89.4449       90.6380      44.526535       0.40930
   5     589.8       46.1638        1.2979       86.5544       87.8523      41.688531       0.42125
   4     651.6       46.2821        1.4057       83.4174       84.8231      38.541051       0.43043
   3     718.7       46.4808        1.5173       80.2037       81.7210      35.240281       0.41482
   2     792.3       46.7728        1.6334       77.0811       78.7145      31.941674       0.37831
   1     891.5       47.3360        1.7837       73.2645       75.0483      27.712301       0.35990
   0    1013.0       48.4558        1.9519       68.9425       70.8944      22.438615       0.36618



 Wavenumbers: 12850. - 16000. cm-1, ATM      1
 LEVEL PRESSURE   UPWARD FLUX   DIFDOWN FLUX  DIRDOWN FLUX  DOWNWARD FLUX   NET FLUX    HEATING RATE
          mb          W/m2          W/m2          W/m2        W/m2          W/m2       degree/day
  51    .06700       47.0247        0.0000       63.1686       63.1686      16.143841       0.00000
  50    .07753       47.0247        0.0001       63.1677       63.1678      16.143058       0.62685
  49    .09103       47.0247        0.0001       63.1666       63.1668      16.142083       0.60953
  48    0.1069       47.0247        0.0002       63.1654       63.1656      16.140972       0.59145
  47    0.1255       47.0246        0.0003       63.1640       63.1643      16.139707       0.57335
  46    0.1487       47.0246        0.0005       63.1623       63.1627      16.138129       0.57547
  45    0.1794       47.0246        0.0006       63.1600       63.1606      16.136010       0.58177
  44    0.2165       47.0246        0.0008       63.1573       63.1581      16.133556       0.55815
  43    0.2613       47.0246        0.0011       63.1542       63.1553      16.130722       0.53424
  42    0.3336       47.0246        0.0015       63.1493       63.1508      16.126198       0.52746
  41    0.4307       47.0246        0.0020       63.1431       63.1451      16.120527       0.49309
  40    0.5894       47.0248        0.0029       63.1338       63.1367      16.111906       0.45844
  39     1.339       47.0273        0.0070       63.0956       63.1026      16.075234       0.41286
  38     1.782       47.0301        0.0094       63.0740       63.0834      16.053372       0.41623
  37     2.292       47.0344        0.0122       63.0477       63.0599      16.025485       0.46188
  36     2.964       47.0418        0.0159       63.0095       63.0254      15.983568       0.52618
  35     3.853       47.0542        0.0207       62.9533       62.9740      15.919804       0.60514
  34     5.035       47.0730        0.0272       62.8725       62.8997      15.826628       0.66561
  33     6.613       47.0995        0.0358       62.7621       62.7978      15.698326       0.68590
  32     8.786       47.1338        0.0473       62.6182       62.6656      15.531738       0.64697
  31     11.80       47.1780        0.0638       62.4284       62.4921      15.314101       0.60932
  30     15.07       47.2199        0.0814       62.2426       62.3241      15.104182       0.54197
  29     18.79       47.2620        0.1014       62.0493       62.1507      14.888622       0.48874
  28     23.16       47.3054        0.1246       61.8424       61.9670      14.661608       0.43897
  27     28.12       47.3481        0.1510       61.6278       61.7789      14.430719       0.39250
  26     33.73       47.3862        0.1806       61.4177       61.5983      14.212139       0.32864
  25     40.54       47.4207        0.2163       61.1983       61.4146      13.993879       0.27078
  24     48.69       47.4514        0.2593       60.9680       61.2273      13.775881       0.22559
  23     57.69       47.4744        0.3065       60.7478       61.0543      13.579870       0.18373
  22     68.43       47.4902        0.3626       60.5202       60.8828      13.392591       0.14723
  21     81.20       47.4931        0.4294       60.2938       60.7232      13.230128       0.10735
  20     96.49       47.4820        0.5090       60.0643       60.5733      13.091369       0.07659
  19     114.6       47.4703        0.6043       59.8078       60.4121      12.941820       0.06983
  18     136.5       47.4496        0.7171       59.5157       60.2328      12.783164       0.06101
  17     162.9       47.4188        0.8510       59.1770       60.0281      12.609315       0.05557
  16     196.4       47.3655        1.0244       58.7604       59.7848      12.419383       0.04781
  15     218.7       47.3257        1.1380       58.4948       59.6328      12.307144       0.04261
  14     243.0       47.2803        1.2613       58.2089       59.4702      12.189848       0.04068
  13     269.0       47.2294        1.3946       57.9006       59.2952      12.065824       0.04023
  12     297.5       47.1730        1.5385       57.5668       59.1053      11.932255       0.03962
  11     328.5       47.1126        1.6936       57.2005       58.8941      11.781506       0.04099
  10     361.9       47.0490        1.8603       56.7963       58.6566      11.607564       0.04401
   9     398.1       46.9833        2.0391       56.3475       58.3866      11.403269       0.04760
   8     437.6       46.9179        2.2304       55.8422       58.0727      11.154730       0.05314
   7     480.5       46.8572        2.4345       55.2625       57.6970      10.839882       0.06183
   6     533.0       46.7981        2.6839       54.4972       57.1811      10.382975       0.07350
   5     589.8       46.7540        2.9495       53.6307       56.5802       9.826258       0.08264
   4     651.6       46.7334        3.2306       52.6606       55.8912       9.157831       0.09141
   3     718.7       46.7407        3.5276       51.6100       55.1376       8.396948       0.09562
   2     792.3       46.7815        3.8403       50.5019       54.3421       7.560589       0.09592
   1     891.5       46.9037        4.2532       49.0197       53.2729       6.369190       0.10138
   0    1013.0       47.1870        4.7336       47.2289       51.9624       4.775456       0.11066



 Wavenumbers: 16000. - 22650. cm-1, ATM      1
 LEVEL PRESSURE   UPWARD FLUX   DIFDOWN FLUX  DIRDOWN FLUX  DOWNWARD FLUX   NET FLUX    HEATING RATE
          mb          W/m2          W/m2          W/m2        W/m2          W/m2       degree/day
  51    .06700       86.6405        0.0000      100.7153      100.7153      14.074840       0.00000
  50    .07753       86.6404        0.0003      100.7147      100.7151      14.074718       0.09788
  49    .09103       86.6402        0.0008      100.7140      100.7148      14.074540       0.11102
  48    0.1069       86.6401        0.0013      100.7131      100.7144      14.074302       0.12660
  47    0.1255       86.6399        0.0018      100.7121      100.7139      14.073984       0.14431
  46    0.1487       86.6398        0.0025      100.7108      100.7133      14.073515       0.17100
  45    0.1794       86.6396        0.0035      100.7089      100.7124      14.072781       0.20134
  44    0.2165       86.6394        0.0046      100.7066      100.7112      14.071787       0.22628
  43    0.2613       86.6392        0.0060      100.7037      100.7097      14.070437       0.25439
  42    0.3336       86.6391        0.0082      100.6987      100.7069      14.067871       0.29915
  41    0.4307       86.6390        0.0112      100.6918      100.7030      14.064004       0.33627
  40    0.5894       86.6392        0.0161      100.6797      100.6958      14.056628       0.39223
  39     1.339       86.6464        0.0391      100.6095      100.6486      14.002145       0.61338
  38     1.782       86.6553        0.0526      100.5585      100.6111      13.955744       0.88339
  37     2.292       86.6699        0.0682      100.4903      100.5585      13.888599       1.11211
  36     2.964       86.6956        0.0887      100.3868      100.4755      13.779867       1.36490
  35     3.853       86.7390        0.1158      100.2306      100.3464      13.607450       1.63627
  34     5.035       86.8057        0.1517      100.0045      100.1562      13.350469       1.83576
  33     6.613       86.8996        0.1996       99.6939       99.8934      12.993836       1.90656
  32     8.786       87.0213        0.2639       99.2881       99.5519      12.530634       1.79891
  31     11.80       87.1775        0.3556       98.7496       99.1052      11.927743       1.68790
  30     15.07       87.3243        0.4538       98.2198       98.6737      11.349362       1.49327
  29     18.79       87.4713        0.5644       97.6651       98.2295      10.758198       1.34035
  28     23.16       87.6214        0.6931       97.0671       97.7602      10.138828       1.19766
  27     28.12       87.7676        0.8397       96.4406       97.2802       9.512584       1.06457
  26     33.73       87.8950        1.0032       95.8179       96.8211       8.926137       0.88174
  25     40.54       88.0068        1.2002       95.1548       96.3551       8.348280       0.71690
  24     48.69       88.1008        1.4368       94.4420       95.8788       7.778002       0.59015
  23     57.69       88.1648        1.6958       93.7416       95.4374       7.272564       0.47377
  22     68.43       88.1987        2.0030       92.9954       94.9983       6.799565       0.37184
  21     81.20       88.1812        2.3676       92.2231       94.5907       6.409498       0.25775
  20     96.49       88.1070        2.8003       91.4110       94.2113       6.104325       0.16843
  19     114.6       87.9924        3.3107       90.5070       93.8177       5.825326       0.13027
  18     136.5       87.8393        3.9108       89.4803       93.3911       5.551781       0.10518
  17     162.9       87.6421        4.6187       88.3022       92.9209       5.278790       0.08726
  16     196.4       87.3530        5.5267       86.8606       92.3873       5.034282       0.06155
  15     218.7       87.1518        6.1169       85.9492       92.0661       4.914277       0.04556
  14     243.0       86.9286        6.7528       84.9789       91.7318       4.803139       0.03855
  13     269.0       86.6825        7.4357       83.9493       91.3850       4.702454       0.03266
  12     297.5       86.4130        8.1664       82.8589       91.0253       4.612368       0.02672
  11     328.5       86.1218        8.9475       81.6982       90.6458       4.523933       0.02405
  10     361.9       85.8093        9.7789       80.4669       90.2459       4.436620       0.02209
   9     398.1       85.4747       10.6627       79.1611       89.8239       4.349186       0.02037
   8     437.6       85.1189       11.5994       77.7777       89.3771       4.258195       0.01945
   7     480.5       84.7426       12.5894       76.3136       88.9030       4.160433       0.01920
   6     533.0       84.2875       13.7883       74.5359       88.3242       4.036756       0.01990
   5     589.8       83.8085       15.0568       72.6469       87.7038       3.895215       0.02101
   4     651.6       83.3088       16.3931       70.6456       87.0386       3.729856       0.02261
   3     718.7       82.7892       17.7952       68.5367       86.3319       3.542726       0.02352
   2     792.3       82.2530       19.2581       66.3287       85.5868       3.333747       0.02397
   1     891.5       81.5663       21.1702       63.4246       84.5949       3.028599       0.02597
   0    1013.0       80.8018       23.3723       60.0483       83.4206       2.618797       0.02845



 Wavenumbers: 22650. - 29000. cm-1, ATM      1
 LEVEL PRESSURE   UPWARD FLUX   DIFDOWN FLUX  DIRDOWN FLUX  DOWNWARD FLUX   NET FLUX    HEATING RATE
          mb          W/m2          W/m2          W/m2        W/m2          W/m2       degree/day
  51    .06700       37.3880        0.0000       38.0063       38.0063       0.618252       0.00000
  50    .07753       37.3879        0.0004       38.0057       38.0061       0.618252      -0.00000
  49    .09103       37.3877        0.0009       38.0050       38.0059       0.618252       0.00000
  48    0.1069       37.3875        0.0015       38.0042       38.0057       0.618252      -0.00000
  47    0.1255       37.3872        0.0021       38.0033       38.0054       0.618252       0.00000
  46    0.1487       37.3869        0.0029       38.0022       38.0051       0.618252      -0.00000
  45    0.1794       37.3864        0.0041       38.0006       38.0047       0.618252       0.00000
  44    0.2165       37.3859        0.0054       37.9987       38.0041       0.618252       0.00000
  43    0.2613       37.3853        0.0070       37.9965       38.0035       0.618252      -0.00000
  42    0.3336       37.3842        0.0096       37.9928       38.0025       0.618252       0.00000
  41    0.4307       37.3828        0.0131       37.9880       38.0011       0.618252       0.00000
  40    0.5894       37.3806        0.0188       37.9800       37.9988       0.618252       0.00000
  39     1.339       37.3699        0.0457       37.9425       37.9881       0.618252       0.00000
  38     1.782       37.3636        0.0615       37.9204       37.9819       0.618252       0.00000
  37     2.292       37.3564        0.0797       37.8949       37.9746       0.618252       0.00000
  36     2.964       37.3469        0.1037       37.8614       37.9651       0.618252      -0.00000
  35     3.853       37.3343        0.1353       37.8172       37.9525       0.618252       0.00000
  34     5.035       37.3176        0.1773       37.7586       37.9359       0.618252      -0.00000
  33     6.613       37.2954        0.2333       37.6803       37.9136       0.618252      -0.00000
  32     8.786       37.2654        0.3086       37.5750       37.8837       0.618252       0.00000
  31     11.80       37.2227        0.4161       37.4249       37.8410       0.618252      -0.00000
  30     15.07       37.1770        0.5311       37.2642       37.7953       0.618252       0.00000
  29     18.79       37.1256        0.6606       37.0833       37.7439       0.618252       0.00000
  28     23.16       37.0658        0.8111       36.8730       37.6841       0.618252      -0.00000
  27     28.12       36.9978        0.9823       36.6338       37.6160       0.618252       0.00000
  26     33.73       36.9221        1.1727       36.3677       37.5404       0.618252       0.00000
  25     40.54       36.8313        1.4010       36.0486       37.4496       0.618252       0.00000
  24     48.69       36.7228        1.6739       35.6672       37.3411       0.618252      -0.00000
  23     57.69       36.6049        1.9704       35.2527       37.2231       0.618252       0.00000
  22     68.43       36.4661        2.3194       34.7649       37.0843       0.618252       0.00000
  21     81.20       36.3030        2.7291       34.1922       36.9213       0.618252       0.00000
  20     96.49       36.1121        3.2086       33.5217       36.7304       0.618252       0.00000
  19     114.6       35.8901        3.7660       32.7424       36.5084       0.618252       0.00000
  18     136.5       35.6334        4.4101       31.8416       36.2517       0.618252       0.00000
  17     162.9       35.3367        5.1542       30.8008       35.9550       0.618252       0.00000
  16     196.4       34.9658        6.0834       29.5007       35.5841       0.618252       0.00000
  15     218.7       34.7306        6.6722       28.6767       35.3489       0.618252       0.00000
  14     243.0       34.4821        7.2936       27.8068       35.1004       0.618252       0.00000
  13     269.0       34.2211        7.9460       26.8933       34.8393       0.618252       0.00000
  12     297.5       33.9482        8.6272       25.9393       34.5665       0.618252       0.00000
  11     328.5       33.6637        9.3369       24.9451       34.2820       0.618252       0.00000
  10     361.9       33.3689       10.0712       23.9160       33.9872       0.618252      -0.00000
   9     398.1       33.0645       10.8286       22.8541       33.6827       0.618252       0.00000
   8     437.6       32.7517       11.6055       21.7645       33.3699       0.618252      -0.00000
   7     480.5       32.4320       12.3981       20.6521       33.0502       0.618252      -0.00000
   6     533.0       32.0592       13.3205       19.3569       32.6774       0.618252       0.00000
   5     589.8       31.6813       14.2529       18.0467       32.2996       0.618252       0.00000
   4     651.6       31.3012       15.1879       16.7316       31.9195       0.618252      -0.00000
   3     718.7       30.9216       16.1185       15.4214       31.5399       0.618252       0.00000
   2     792.3       30.5456       17.0363       14.1276       31.1639       0.618252      -0.00000
   1     891.5       30.0842       18.1565       12.5459       30.7024       0.618252       0.00000
   0    1013.0       29.5929       19.3394       10.8717       30.2111       0.618252       0.00000



 Wavenumbers: 29000. - 38000. cm-1, ATM      1
 LEVEL PRESSURE   UPWARD FLUX   DIFDOWN FLUX  DIRDOWN FLUX  DOWNWARD FLUX   NET FLUX    HEATING RATE
          mb          W/m2          W/m2          W/m2        W/m2          W/m2       degree/day
  51    .06700        5.3240        0.0000       13.4026       13.4026       8.078620       0.00000
  50    .07753        5.3238        0.0003       13.3983       13.3986       8.074821       3.04479
  49    .09103        5.3235        0.0007       13.3921       13.3928       8.069301       3.45013
  48    0.1069        5.3232        0.0011       13.3840       13.3851       8.061924       3.92730
  47    0.1255        5.3229        0.0016       13.3733       13.3749       8.052077       4.46380
  46    0.1487        5.3224        0.0022       13.3579       13.3601       8.037633       5.26513
  45    0.1794        5.3219        0.0030       13.3340       13.3371       8.015230       6.15016
  44    0.2165        5.3212        0.0040       13.3024       13.3064       7.985207       6.82979
  43    0.2613        5.3205        0.0052       13.2604       13.2656       7.945146       7.55128
  42    0.3336        5.3193        0.0071       13.1833       13.1904       7.871127       8.62983
  41    0.4307        5.3178        0.0096       13.0729       13.0825       7.764737       9.25041
  40    0.5894        5.3155        0.0135       12.8796       12.8931       7.577658       9.94864
  39     1.339        5.3075        0.0300       11.9165       11.9465       6.639045      10.56707
  38     1.782        5.3045        0.0384       11.4399       11.4783       6.173833       8.85689
  37     2.292        5.3024        0.0474       10.9796       11.0270       5.724572       7.44093
  36     2.964        5.3017        0.0585       10.4786       10.5371       5.235417       6.14037
  35     3.853        5.3033        0.0722        9.9429       10.0151       4.711737       4.96982
  34     5.035        5.3082        0.0893        9.4007        9.4900       4.181789       3.78573
  33     6.613        5.3165        0.1110        8.8752        8.9863       3.669717       2.73754
  32     8.786        5.3279        0.1391        8.3786        8.5177       3.189797       1.86383
  31     11.80        5.3420        0.1776        7.8897        8.0673       2.725276       1.30051
  30     15.07        5.3546        0.2174        7.5108        7.7282       2.373570       0.90804
  29     18.79        5.3668        0.2608        7.1776        7.4384       2.071587       0.68469
  28     23.16        5.3786        0.3097        6.8664        7.1761       1.797510       0.52998
  27     28.12        5.3892        0.3638        6.5780        6.9418       1.552653       0.41624
  26     33.73        5.3959        0.4228        6.3195        6.7423       1.346437       0.31005
  25     40.54        5.3978        0.4925        6.0663        6.5588       1.160990       0.23007
  24     48.69        5.3945        0.5742        5.8128        6.3871       0.992606       0.17425
  23     57.69        5.3854        0.6615        5.5777        6.2392       0.853837       0.13008
  22     68.43        5.3687        0.7626        5.3379        6.1005       0.731839       0.09591
  21     81.20        5.3399        0.8801        5.0965        5.9766       0.636657       0.06290
  20     96.49        5.2980        1.0160        4.8476        5.8636       0.565614       0.03921
  19     114.6        5.2464        1.1701        4.5799        5.7500       0.503623       0.02895
  18     136.5        5.1865        1.3427        4.2891        5.6318       0.445360       0.02240
  17     162.9        5.1182        1.5346        3.9732        5.5078       0.389638       0.01781
  16     196.4        5.0314        1.7652        3.6080        5.3732       0.341824       0.01204
  15     218.7        4.9768        1.9060        3.3898        5.2958       0.318980       0.00867
  14     243.0        4.9203        2.0499        3.1686        5.2185       0.298198       0.00721
  13     269.0        4.8622        2.1959        2.9461        5.1420       0.279811       0.00596
  12     297.5        4.8029        2.3428        2.7239        5.0667       0.263850       0.00473
  11     328.5        4.7433        2.4892        2.5029        4.9921       0.248803       0.00409
  10     361.9        4.6840        2.6341        2.2846        4.9187       0.234696       0.00357
   9     398.1        4.6253        2.7761        2.0708        4.8468       0.221524       0.00307
   8     437.6        4.5679        2.9143        1.8626        4.7769       0.209009       0.00268
   7     480.5        4.5121        3.0472        1.6621        4.7094       0.197289       0.00230
   6     533.0        4.4508        3.1918        1.4437        4.6355       0.184689       0.00203
   5     589.8        4.3931        3.3267        1.2390        4.5657       0.172655       0.00179
   4     651.6        4.3395        3.4505        1.0500        4.5005       0.161025       0.00159
   3     718.7        4.2904        3.5623        0.8778        4.4401       0.149760       0.00142
   2     792.3        4.2462        3.6613        0.7237        4.3850       0.138836       0.00125
   1     891.5        4.1980        3.7672        0.5563        4.3235       0.125470       0.00114
   0    1013.0        4.1540        3.8609        0.4039        4.2649       0.110833       0.00102



 Wavenumbers: 38000. - 50000. cm-1, ATM      1
 LEVEL PRESSURE   UPWARD FLUX   DIFDOWN FLUX  DIRDOWN FLUX  DOWNWARD FLUX   NET FLUX    HEATING RATE
          mb          W/m2          W/m2          W/m2        W/m2          W/m2       degree/day
  51    .06700        0.0051        0.0000        0.8267        0.8267       0.821528       0.00000
  50    .07753        0.0051        0.0001        0.8242        0.8243       0.819196       1.86936
  49    .09103        0.0050        0.0002        0.8207        0.8209       0.815872       2.07705
  48    0.1069        0.0049        0.0002        0.8162        0.8164       0.811514       2.31984
  47    0.1255        0.0048        0.0004        0.8103        0.8106       0.805801       2.59006
  46    0.1487        0.0047        0.0005        0.8018        0.8023       0.797567       3.00143
  45    0.1794        0.0045        0.0007        0.7889        0.7896       0.785013       3.44648
  44    0.2165        0.0044        0.0009        0.7720        0.7729       0.768507       3.75474
  43    0.2613        0.0042        0.0011        0.7500        0.7511       0.746955       4.06246
  42    0.3336        0.0039        0.0015        0.7106        0.7121       0.708267       4.51071
  41    0.4307        0.0035        0.0019        0.6566        0.6584       0.654972       4.63387
  40    0.5894        0.0029        0.0024        0.5680        0.5704       0.567464       4.65357
  39     1.339        0.0015        0.0030        0.2422        0.2452       0.243720       3.64476
  38     1.782        0.0010        0.0026        0.1493        0.1519       0.150889       1.76735
  37     2.292        0.0007        0.0022        0.0924        0.0946       0.093932       0.94336
  36     2.964        0.0005        0.0018        0.0539        0.0557       0.055224       0.48589
  35     3.853        0.0003        0.0013        0.0295        0.0308       0.030502       0.23462
  34     5.035        0.0002        0.0010        0.0154        0.0164       0.016181       0.10230
  33     6.613        0.0001        0.0007        0.0073        0.0080       0.007912       0.04420
  32     8.786        0.0000        0.0004        0.0030        0.0034       0.003390       0.01756
  31     11.80        0.0000        0.0003        0.0010        0.0012       0.001199       0.00613
  30     15.07        0.0000        0.0001        0.0003        0.0005       0.000463       0.00190
  29     18.79        0.0000        0.0001        0.0001        0.0002       0.000182       0.00064
  28     23.16        0.0000        0.0000        0.0000        0.0001       0.000071       0.00022
  27     28.12        0.0000        0.0000        0.0000        0.0000       0.000028       0.00007
  26     33.73        0.0000        0.0000        0.0000        0.0000       0.000011       0.00002
  25     40.54        0.0000        0.0000        0.0000        0.0000       0.000005       0.00001
  24     48.69        0.0000        0.0000        0.0000        0.0000       0.000002       0.00000
  23     57.69        0.0000        0.0000        0.0000        0.0000       0.000001       0.00000
  22     68.43        0.0000        0.0000        0.0000        0.0000       0.000000       0.00000
  21     81.20        0.0000        0.0000        0.0000        0.0000       0.000000       0.00000
  20     96.49        0.0000        0.0000        0.0000        0.0000       0.000000       0.00000
  19     114.6        0.0000        0.0000        0.0000        0.0000       0.000000       0.00000
  18     136.5        0.0000        0.0000        0.0000        0.0000       0.000000       0.00000
  17     162.9        0.0000        0.0000        0.0000        0.0000       0.000000       0.00000
  16     196.4        0.0000        0.0000        0.0000        0.0000       0.000000       0.00000
  15     218.7        0.0000        0.0000        0.0000        0.0000       0.000000       0.00000
  14     243.0        0.0000        0.0000        0.0000        0.0000       0.000000       0.00000
  13     269.0        0.0000        0.0000        0.0000        0.0000       0.000000       0.00000
  12     297.5        0.0000        0.0000        0.0000        0.0000       0.000000       0.00000
  11     328.5        0.0000        0.0000        0.0000        0.0000       0.000000       0.00000
  10     361.9        0.0000        0.0000        0.0000        0.0000       0.000000       0.00000
   9     398.1        0.0000        0.0000        0.0000        0.0000       0.000000       0.00000
   8     437.6        0.0000        0.0000        0.0000        0.0000       0.000000       0.00000
   7     480.5        0.0000        0.0000        0.0000        0.0000       0.000000       0.00000
   6     533.0        0.0000        0.0000        0.0000        0.0000       0.000000       0.00000
   5     589.8        0.0000        0.0000        0.0000        0.0000       0.000000       0.00000
   4     651.6        0.0000        0.0000        0.0000        0.0000       0.000000       0.00000
   3     718.7        0.0000        0.0000        0.0000        0.0000       0.000000       0.00000
   2     792.3        0.0000        0.0000        0.0000        0.0000       0.000000       0.00000
   1     891.5        0.0000        0.0000        0.0000        0.0000       0.000000       0.00000
   0    1013.0        0.0000        0.0000        0.0000        0.0000       0.000000       0.00000



 Wavenumbers:   820. -  2600. cm-1, ATM      1
 LEVEL PRESSURE   UPWARD FLUX   DIFDOWN FLUX  DIRDOWN FLUX  DOWNWARD FLUX   NET FLUX    HEATING RATE
          mb          W/m2          W/m2          W/m2        W/m2          W/m2       degree/day
  51    .06700        0.1281        0.0000        3.8670        3.8670       3.738873       0.00000
  50    .07753        0.1281        0.0000        3.8643        3.8643       3.736156       2.17769
  49    .09103        0.1281        0.0000        3.8635        3.8635       3.735346       0.50638
  48    0.1069        0.1281        0.0000        3.8626        3.8626       3.734455       0.47415
  47    0.1255        0.1281        0.0000        3.8616        3.8616       3.733494       0.43559
  46    0.1487        0.1281        0.0000        3.8605        3.8605       3.732385       0.40437
  45    0.1794        0.1281        0.0000        3.8592        3.8592       3.731050       0.36647
  44    0.2165        0.1281        0.0000        3.8578        3.8578       3.729672       0.31346
  43    0.2613        0.1281        0.0000        3.8564        3.8564       3.728212       0.27522
  42    0.3336        0.1281        0.0000        3.8541        3.8541       3.725981       0.26012
  41    0.4307        0.1281        0.0000        3.8512        3.8512       3.723098       0.25063
  40    0.5894        0.1281        0.0000        3.8465        3.8465       3.718372       0.25133
  39     1.339        0.1281        0.0000        3.8251        3.8251       3.696997       0.24064
  38     1.782        0.1281        0.0000        3.8133        3.8133       3.685184       0.22489
  37     2.292        0.1281        0.0000        3.8003        3.8003       3.672123       0.21632
  36     2.964        0.1281        0.0000        3.7841        3.7841       3.655995       0.20246
  35     3.853        0.1281        0.0000        3.7642        3.7642       3.636080       0.18899
  34     5.035        0.1281        0.0000        3.7395        3.7395       3.611390       0.17638
  33     6.613        0.1281        0.0000        3.7090        3.7090       3.580855       0.16324
  32     8.786        0.1281        0.0000        3.6726        3.6726       3.544462       0.14133
  31     11.80        0.1281        0.0000        3.6320        3.6320       3.503869       0.11365
  30     15.07        0.1281        0.0000        3.6016        3.6016       3.473486       0.07844
  29     18.79        0.1282        0.0000        3.5777        3.5777       3.449589       0.05418
  28     23.16        0.1282        0.0000        3.5564        3.5564       3.428237       0.04129
  27     28.12        0.1282        0.0000        3.5348        3.5348       3.406692       0.03662
  26     33.73        0.1282        0.0000        3.5118        3.5118       3.383661       0.03463
  25     40.54        0.1282        0.0000        3.4849        3.4849       3.356775       0.03335
  24     48.69        0.1282        0.0000        3.4537        3.4537       3.325525       0.03234
  23     57.69        0.1282        0.0000        3.4210        3.4210       3.292855       0.03062
  22     68.43        0.1282        0.0000        3.3844        3.3844       3.256271       0.02876
  21     81.20        0.1282        0.0000        3.3441        3.3441       3.215976       0.02663
  20     96.49        0.1282        0.0000        3.2998        3.2998       3.171615       0.02448
  19     114.6        0.1282        0.0000        3.2506        3.2506       3.122470       0.02295
  18     136.5        0.1282        0.0000        3.1936        3.1936       3.065424       0.02194
  17     162.9        0.1282        0.0000        3.1181        3.1181       2.989925       0.02413
  16     196.4        0.1282        0.0000        3.0090        3.0090       2.880744       0.02748
  15     218.7        0.1283        0.0000        2.9420        2.9420       2.813745       0.02544
  14     243.0        0.1283        0.0000        2.8605        2.8605       2.732189       0.02829
  13     269.0        0.1284        0.0000        2.7419        2.7420       2.613618       0.03846
  12     297.5        0.1285        0.0000        2.5729        2.5729       2.444426       0.05018
  11     328.5        0.1286        0.0000        2.3602        2.3602       2.231557       0.05788
  10     361.9        0.1289        0.0000        2.1524        2.1524       2.023510       0.05264
   9     398.1        0.1293        0.0000        1.9974        1.9974       1.868094       0.03621
   8     437.6        0.1299        0.0000        1.8835        1.8835       1.753600       0.02448
   7     480.5        0.1308        0.0000        1.7734        1.7734       1.642665       0.02179
   6     533.0        0.1322        0.0000        1.6397        1.6398       1.507544       0.02174
   5     589.8        0.1343        0.0000        1.5068        1.5069       1.372552       0.02004
   4     651.6        0.1374        0.0000        1.3807        1.3807       1.243317       0.01767
   3     718.7        0.1415        0.0000        1.2680        1.2680       1.126509       0.01468
   2     792.3        0.1466        0.0000        1.1659        1.1660       1.019366       0.01229
   1     891.5        0.1552        0.0000        1.0372        1.0373       0.882115       0.01168
   0    1013.0        0.1707        0.0000        0.8716        0.8717       0.701003       0.01258

  Modules and versions used in this calculation:

       rrtmg_sw.1col.f90:  $Revision$                    rrtmg_sw_init.f90:  $Revision$        
     rrtmgsw_cldprop.f90:  $Revision$                  rrtmgsw_cldprmc.f90:  NOT USED          
     rrtmg_sw_reftra.f90:  $Revision$                  rrtmg_sw_spcvrt.f90:  NOT USED          
     rrtmg_sw_spcvmc.f90:  NOT USED                    rrtmgsw_setcoef.f90:  NOT USED          
     rrtmg_sw_taumol.f90:  $Revision$                  rrtmg_sw_vrtqdr.f90:  NOT USED          
                rrtatm.f:  NOT USED                             util_xxx.f:  NOT USED          
                 extra.f:  NOT USED                       rrtmg_sw_k_g.f90:  $Revision$        

