

 Wavenumbers:   820. - 50000. cm-1, ATM      1
 LEVEL PRESSURE   UPWARD FLUX   DIFDOWN FLUX  DIRDOWN FLUX  DOWNWARD FLUX   NET FLUX    HEATING RATE
          mb          W/m2          W/m2          W/m2        W/m2          W/m2       degree/day
  51    .06700      225.0332        0.0000      397.8738      397.8738     172.840568       0.00000
  50    .07753      225.0326        0.0012      397.8577      397.8589     172.826277      11.45446
  49    .09103      225.0319        0.0027      397.8418      397.8445     172.812589       8.55572
  48    0.1069      225.0311        0.0044      397.8230      397.8273     172.796240       8.70232
  47    0.1255      225.0302        0.0063      397.7997      397.8060     172.775796       9.26817
  46    0.1487      225.0291        0.0088      397.7676      397.7764     172.747337      10.37375
  45    0.1794      225.0277        0.0122      397.7205      397.7327     172.705042      11.61112
  44    0.2165      225.0260        0.0162      397.6602      397.6764     172.650388      12.43272
  43    0.2613      225.0242        0.0209      397.5829      397.6038     172.579583      13.34641
  42    0.3336      225.0213        0.0286      397.4449      397.4735     172.452128      14.85999
  41    0.4307      225.0178        0.0387      397.2524      397.2911     172.273233      15.55451
  40    0.5894      225.0128        0.0550      396.9253      396.9803     171.967463      16.26047
  39     1.339      225.0009        0.1278      395.4254      395.5531     170.552280      15.93240
  38     1.782      225.0018        0.1686      394.7288      394.8974     169.895622      12.50170
  37     2.292      225.0099        0.2152      394.0572      394.2723     169.262441      10.48714
  36     2.964      225.0309        0.2756      393.3007      393.5762     168.545335       9.00184
  35     3.853      225.0731        0.3545      392.4318      392.7863     167.713174       7.89736
  34     5.035      225.1436        0.4584      391.4441      391.9025     166.758927       6.81674
  33     6.613      225.2455        0.5961      390.3268      390.9229     165.677338       5.78218
  32     8.786      225.3771        0.7803      389.0624      389.8427     164.465582       4.70602
  31     11.80      225.5408        1.0417      387.5500      388.5917     163.050855       3.96079
  30     15.07      225.6880        1.3201      386.1556      387.4757     161.787775       3.26103
  29     18.79      225.8286        1.6323      384.7502      386.3824     160.553793       2.79782
  28     23.16      225.9635        1.9939      383.2686      385.2626     159.299021       2.42632
  27     28.12      226.0834        2.4043      381.7329      384.1372     158.053735       2.11690
  26     33.73      226.1672        2.8602      380.1982      383.0584     156.891165       1.74796
  25     40.54      226.2101        3.4071      378.5384      381.9455     155.735399       1.43386
  24     48.69      226.2059        4.0608      376.7214      380.7822     154.576335       1.19945
  23     57.69      226.1477        4.7722      374.8959      379.6681     153.520481       0.98970
  22     68.43      226.0208        5.6112      372.8999      378.5111     152.490386       0.80979
  21     81.20      225.7901        6.6004      370.7496      377.3500     151.559916       0.61484
  20     96.49      225.4435        7.7646      368.4056      376.1701     150.726650       0.45990
  19     114.6      225.0103        9.1251      365.7513      374.8764     149.866023       0.40185
  18     136.5      224.4808       10.7061      362.7231      373.4292     148.948323       0.35288
  17     162.9      223.8415       12.5451      359.1748      371.7199     147.878408       0.34199
  16     196.4      222.9822       14.8658      354.5718      369.4376     146.455418       0.35818
  15     218.7      222.4127       16.3512      351.4437      367.7949     145.382186       0.40747
  14     243.0      221.7978       17.9322      347.7111      365.6434     143.845562       0.53295
  13     269.0      221.1379       19.6072      342.9441      362.5513     141.413447       0.78897
  12     297.5      220.4346       21.3742      337.4137      358.7879     138.353268       0.90762
  11     328.5      219.6934       23.2351      331.1302      354.3654     134.671991       1.00093
  10     361.9      218.9189       25.1847      324.1219      349.3066     130.387682       1.08397
   9     398.1      218.1150       27.2227      316.6066      343.8293     125.714246       1.08881
   8     437.6      217.2909       29.3448      308.5895      337.9343     120.643311       1.08420
   7     480.5      216.4619       31.5455      299.9349      331.4804     115.018525       1.10469
   6     533.0      215.5243       34.1563      289.7021      323.8584     108.334130       1.07531
   5     589.8      214.6233       36.8559      279.3388      316.1947     101.571461       1.00380
   4     651.6      213.7993       39.6327      268.7786      308.4113      94.612023       0.95172
   3     718.7      213.0765       42.4782      258.2837      300.7618      87.685294       0.87050
   2     792.3      212.4814       45.3784      248.0774      293.4558      80.974370       0.76967
   1     891.5      212.0241       49.0685      235.5216      284.5901      72.566011       0.71551
   0    1013.0      212.2410       53.1814      221.4731      274.6545      62.413525       0.70494



 Wavenumbers:  2600. -  3250. cm-1, ATM      1
 LEVEL PRESSURE   UPWARD FLUX   DIFDOWN FLUX  DIRDOWN FLUX  DOWNWARD FLUX   NET FLUX    HEATING RATE
          mb          W/m2          W/m2          W/m2        W/m2          W/m2       degree/day
  51    .06700        0.2244        0.0000        3.5066        3.5066       3.282240       0.00000
  50    .07753        0.2244        0.0000        3.5066        3.5066       3.282232       0.00640
  49    .09103        0.2244        0.0000        3.5066        3.5066       3.282222       0.00627
  48    0.1069        0.2244        0.0000        3.5066        3.5066       3.282211       0.00613
  47    0.1255        0.2244        0.0000        3.5066        3.5066       3.282198       0.00599
  46    0.1487        0.2244        0.0000        3.5066        3.5066       3.282181       0.00607
  45    0.1794        0.2244        0.0000        3.5065        3.5065       3.282158       0.00624
  44    0.2165        0.2244        0.0000        3.5065        3.5065       3.282131       0.00611
  43    0.2613        0.2244        0.0000        3.5065        3.5065       3.282100       0.00598
  42    0.3336        0.2244        0.0000        3.5064        3.5064       3.282047       0.00615
  41    0.4307        0.2244        0.0000        3.5064        3.5064       3.281976       0.00618
  40    0.5894        0.2244        0.0000        3.5062        3.5062       3.281857       0.00633
  39     1.339        0.2244        0.0000        3.5055        3.5055       3.281158       0.00787
  38     1.782        0.2244        0.0000        3.5050        3.5050       3.280627       0.01011
  37     2.292        0.2244        0.0000        3.5043        3.5043       3.279935       0.01147
  36     2.964        0.2244        0.0000        3.5033        3.5033       3.278943       0.01245
  35     3.853        0.2244        0.0000        3.5019        3.5019       3.277566       0.01307
  34     5.035        0.2244        0.0000        3.5001        3.5001       3.275705       0.01329
  33     6.613        0.2244        0.0000        3.4977        3.4977       3.273296       0.01288
  32     8.786        0.2244        0.0000        3.4947        3.4947       3.270325       0.01154
  31     11.80        0.2244        0.0000        3.4911        3.4911       3.266689       0.01018
  30     15.07        0.2244        0.0000        3.4878        3.4878       3.263469       0.00832
  29     18.79        0.2244        0.0000        3.4848        3.4848       3.260405       0.00695
  28     23.16        0.2244        0.0000        3.4816        3.4816       3.257185       0.00623
  27     28.12        0.2244        0.0000        3.4779        3.4779       3.253568       0.00615
  26     33.73        0.2244        0.0000        3.4735        3.4735       3.249102       0.00671
  25     40.54        0.2244        0.0000        3.4671        3.4671       3.242776       0.00785
  24     48.69        0.2244        0.0000        3.4582        3.4583       3.233882       0.00920
  23     57.69        0.2244        0.0000        3.4472        3.4472       3.222834       0.01036
  22     68.43        0.2244        0.0000        3.4329        3.4329       3.208576       0.01121
  21     81.20        0.2244        0.0000        3.4152        3.4152       3.190849       0.01171
  20     96.49        0.2244        0.0000        3.3940        3.3941       3.169706       0.01167
  19     114.6        0.2244        0.0000        3.3692        3.3692       3.144819       0.01162
  18     136.5        0.2244        0.0001        3.3419        3.3420       3.117605       0.01046
  17     162.9        0.2244        0.0001        3.3129        3.3129       3.088535       0.00929
  16     196.4        0.2244        0.0001        3.2793        3.2794       3.054969       0.00845
  15     218.7        0.2245        0.0001        3.2578        3.2578       3.033358       0.00820
  14     243.0        0.2246        0.0001        3.2320        3.2320       3.007494       0.00897
  13     269.0        0.2247        0.0001        3.1968        3.1969       2.972259       0.01143
  12     297.5        0.2249        0.0001        3.1489        3.1490       2.924197       0.01425
  11     328.5        0.2251        0.0001        3.0821        3.0822       2.857044       0.01826
  10     361.9        0.2255        0.0001        2.9902        2.9904       2.764823       0.02333
   9     398.1        0.2261        0.0001        2.8715        2.8716       2.645505       0.02780
   8     437.6        0.2269        0.0001        2.7276        2.7278       2.500857       0.03093
   7     480.5        0.2281        0.0001        2.5595        2.5597       2.331527       0.03326
   6     533.0        0.2301        0.0001        2.3617        2.3619       2.131760       0.03214
   5     589.8        0.2330        0.0002        2.1649        2.1651       1.932082       0.02964
   4     651.6        0.2371        0.0002        1.9608        1.9609       1.723792       0.02848
   3     718.7        0.2428        0.0002        1.7593        1.7595       1.516727       0.02602
   2     792.3        0.2501        0.0002        1.5761        1.5762       1.326112       0.02186
   1     891.5        0.2627        0.0002        1.3714        1.3716       1.108861       0.01849
   0    1013.0        0.2856        0.0002        1.1584        1.1586       0.873006       0.01638



 Wavenumbers:  3250. -  4000. cm-1, ATM      1
 LEVEL PRESSURE   UPWARD FLUX   DIFDOWN FLUX  DIRDOWN FLUX  DOWNWARD FLUX   NET FLUX    HEATING RATE
          mb          W/m2          W/m2          W/m2        W/m2          W/m2       degree/day
  51    .06700        0.0004        0.0000        5.9117        5.9117       5.911216       0.00000
  50    .07753        0.0004        0.0000        5.9075        5.9075       5.907026       3.35808
  49    .09103        0.0004        0.0000        5.9050        5.9050       5.904584       1.52677
  48    0.1069        0.0004        0.0000        5.9032        5.9032       5.902717       0.99346
  47    0.1255        0.0004        0.0000        5.9014        5.9014       5.900959       0.79708
  46    0.1487        0.0004        0.0000        5.8995        5.8995       5.899070       0.68848
  45    0.1794        0.0004        0.0000        5.8974        5.8974       5.896922       0.58983
  44    0.2165        0.0004        0.0000        5.8952        5.8952       5.894805       0.48155
  43    0.2613        0.0004        0.0000        5.8931        5.8931       5.892646       0.40696
  42    0.3336        0.0004        0.0000        5.8899        5.8899       5.889488       0.36820
  41    0.4307        0.0004        0.0000        5.8861        5.8861       5.885651       0.33365
  40    0.5894        0.0004        0.0000        5.8803        5.8803       5.879848       0.30857
  39     1.339        0.0004        0.0000        5.8597        5.8597       5.859251       0.23189
  38     1.782        0.0004        0.0000        5.8513        5.8513       5.850826       0.16039
  37     2.292        0.0004        0.0000        5.8431        5.8431       5.842655       0.13533
  36     2.964        0.0004        0.0000        5.8334        5.8334       5.833015       0.12100
  35     3.853        0.0004        0.0000        5.8213        5.8213       5.820840       0.11555
  34     5.035        0.0004        0.0000        5.8052        5.8052       5.804745       0.11498
  33     6.613        0.0004        0.0000        5.7833        5.7834       5.782923       0.11666
  32     8.786        0.0004        0.0000        5.7531        5.7531       5.752722       0.11729
  31     11.80        0.0004        0.0000        5.7090        5.7090       5.708553       0.12366
  30     15.07        0.0004        0.0000        5.6615        5.6615       5.661088       0.12254
  29     18.79        0.0004        0.0000        5.6093        5.6094       5.608953       0.11821
  28     23.16        0.0004        0.0000        5.5524        5.5524       5.552027       0.11008
  27     28.12        0.0004        0.0000        5.4935        5.4935       5.493148       0.10009
  26     33.73        0.0004        0.0000        5.4348        5.4349       5.434459       0.08824
  25     40.54        0.0004        0.0001        5.3707        5.3708       5.370398       0.07948
  24     48.69        0.0004        0.0001        5.2985        5.2985       5.298165       0.07475
  23     57.69        0.0004        0.0001        5.2215        5.2216       5.221226       0.07212
  22     68.43        0.0003        0.0001        5.1318        5.1319       5.131566       0.07048
  21     81.20        0.0003        0.0001        5.0284        5.0285       5.028136       0.06834
  20     96.49        0.0003        0.0001        4.9122        4.9123       4.912002       0.06410
  19     114.6        0.0003        0.0001        4.7780        4.7782       4.777891       0.06262
  18     136.5        0.0003        0.0002        4.6285        4.6287       4.628413       0.05748
  17     162.9        0.0002        0.0002        4.4406        4.4407       4.440500       0.06006
  16     196.4        0.0002        0.0002        4.1548        4.1550       4.154827       0.07191
  15     218.7        0.0002        0.0002        3.9564        3.9566       3.956446       0.07532
  14     243.0        0.0002        0.0002        3.7055        3.7058       3.705611       0.08700
  13     269.0        0.0001        0.0002        3.3399        3.3401       3.339973       0.11861
  12     297.5        0.0001        0.0002        2.8954        2.8956       2.895483       0.13183
  11     328.5        0.0001        0.0002        2.4388        2.4390       2.438942       0.12413
  10     361.9        0.0001        0.0002        2.0269        2.0271       2.027003       0.10422
   9     398.1        0.0001        0.0002        1.6753        1.6755       1.675415       0.08191
   8     437.6        0.0001        0.0002        1.3592        1.3594       1.359296       0.06759
   7     480.5        0.0001        0.0002        1.0616        1.0618       1.061713       0.05844
   6     533.0        0.0001        0.0001        0.7543        0.7544       0.754377       0.04944
   5     589.8        0.0001        0.0001        0.4951        0.4952       0.495181       0.03847
   4     651.6        0.0001        0.0001        0.2943        0.2943       0.294278       0.02747
   3     718.7        0.0001        0.0001        0.1528        0.1529       0.152770       0.01778
   2     792.3        0.0001        0.0000        0.0658        0.0658       0.065710       0.00998
   1     891.5        0.0003        0.0000        0.0157        0.0157       0.015360       0.00428
   0    1013.0        0.0013        0.0000        0.0013        0.0013       0.000051       0.00106



 Wavenumbers:  4000. -  4650. cm-1, ATM      1
 LEVEL PRESSURE   UPWARD FLUX   DIFDOWN FLUX  DIRDOWN FLUX  DOWNWARD FLUX   NET FLUX    HEATING RATE
          mb          W/m2          W/m2          W/m2        W/m2          W/m2       degree/day
  51    .06700        0.7007        0.0000        6.9421        6.9421       6.241389       0.00000
  50    .07753        0.7007        0.0000        6.9421        6.9421       6.241388       0.00079
  49    .09103        0.7007        0.0000        6.9421        6.9421       6.241387       0.00078
  48    0.1069        0.7007        0.0000        6.9421        6.9421       6.241386       0.00076
  47    0.1255        0.7007        0.0000        6.9421        6.9421       6.241384       0.00074
  46    0.1487        0.7007        0.0000        6.9421        6.9421       6.241382       0.00075
  45    0.1794        0.7007        0.0000        6.9421        6.9421       6.241379       0.00077
  44    0.2165        0.7007        0.0000        6.9421        6.9421       6.241376       0.00076
  43    0.2613        0.7007        0.0000        6.9420        6.9420       6.241372       0.00074
  42    0.3336        0.7007        0.0000        6.9420        6.9420       6.241365       0.00076
  41    0.4307        0.7007        0.0000        6.9420        6.9420       6.241356       0.00077
  40    0.5894        0.7007        0.0000        6.9420        6.9420       6.241341       0.00079
  39     1.339        0.7007        0.0000        6.9419        6.9419       6.241253       0.00100
  38     1.782        0.7007        0.0000        6.9418        6.9419       6.241183       0.00132
  37     2.292        0.7007        0.0000        6.9418        6.9418       6.241090       0.00155
  36     2.964        0.7007        0.0000        6.9416        6.9416       6.240950       0.00175
  35     3.853        0.7007        0.0000        6.9414        6.9414       6.240744       0.00196
  34     5.035        0.7007        0.0000        6.9411        6.9411       6.240439       0.00218
  33     6.613        0.7007        0.0000        6.9406        6.9406       6.239992       0.00239
  32     8.786        0.7006        0.0000        6.9399        6.9400       6.239332       0.00256
  31     11.80        0.7006        0.0000        6.9389        6.9389       6.238298       0.00290
  30     15.07        0.7006        0.0001        6.9377        6.9377       6.237088       0.00312
  29     18.79        0.7006        0.0001        6.9362        6.9362       6.235631       0.00330
  28     23.16        0.7006        0.0001        6.9343        6.9344       6.233829       0.00348
  27     28.12        0.7006        0.0001        6.9321        6.9322       6.231657       0.00369
  26     33.73        0.7006        0.0001        6.9294        6.9296       6.228993       0.00401
  25     40.54        0.7006        0.0001        6.9258        6.9260       6.225403       0.00445
  24     48.69        0.7005        0.0002        6.9210        6.9212       6.220651       0.00492
  23     57.69        0.7005        0.0002        6.9154        6.9156       6.215062       0.00524
  22     68.43        0.7005        0.0003        6.9083        6.9086       6.208117       0.00546
  21     81.20        0.7004        0.0003        6.8998        6.9001       6.199630       0.00561
  20     96.49        0.7004        0.0004        6.8894        6.8898       6.189384       0.00565
  19     114.6        0.7004        0.0004        6.8765        6.8770       6.176568       0.00598
  18     136.5        0.7004        0.0005        6.8610        6.8615       6.161120       0.00594
  17     162.9        0.7003        0.0006        6.8417        6.8423       6.141925       0.00614
  16     196.4        0.7003        0.0007        6.8147        6.8154       6.115037       0.00677
  15     218.7        0.7004        0.0008        6.7948        6.7956       6.095258       0.00751
  14     243.0        0.7005        0.0009        6.7698        6.7707       6.070202       0.00869
  13     269.0        0.7006        0.0010        6.7349        6.7358       6.035200       0.01135
  12     297.5        0.7009        0.0011        6.6869        6.6879       5.987018       0.01429
  11     328.5        0.7013        0.0012        6.6194        6.6205       5.919204       0.01844
  10     361.9        0.7019        0.0013        6.5295        6.5307       5.828815       0.02287
   9     398.1        0.7027        0.0014        6.4202        6.4216       5.718891       0.02561
   8     437.6        0.7037        0.0015        6.2962        6.2977       5.593912       0.02672
   7     480.5        0.7052        0.0016        6.1555        6.1571       5.451904       0.02789
   6     533.0        0.7075        0.0017        5.9675        5.9693       5.261737       0.03059
   5     589.8        0.7109        0.0019        5.7368        5.7386       5.027686       0.03474
   4     651.6        0.7159        0.0020        5.4662        5.4682       4.752329       0.03766
   3     718.7        0.7227        0.0021        5.1912        5.1933       4.470615       0.03540
   2     792.3        0.7315        0.0022        4.9395        4.9417       4.210251       0.02986
   1     891.5        0.7465        0.0024        4.6486        4.6510       3.904504       0.02602
   0    1013.0        0.7735        0.0025        4.3179        4.3204       3.546892       0.02483



 Wavenumbers:  4650. -  5150. cm-1, ATM      1
 LEVEL PRESSURE   UPWARD FLUX   DIFDOWN FLUX  DIRDOWN FLUX  DOWNWARD FLUX   NET FLUX    HEATING RATE
          mb          W/m2          W/m2          W/m2        W/m2          W/m2       degree/day
  51    .06700        0.4573        0.0000        6.5710        6.5710       6.113742       0.00000
  50    .07753        0.4573        0.0000        6.5708        6.5708       6.113506       0.18887
  49    .09103        0.4573        0.0000        6.5705        6.5705       6.113212       0.18362
  48    0.1069        0.4573        0.0000        6.5701        6.5701       6.112878       0.17806
  47    0.1255        0.4573        0.0000        6.5697        6.5697       6.112498       0.17238
  46    0.1487        0.4573        0.0000        6.5693        6.5693       6.112024       0.17268
  45    0.1794        0.4573        0.0000        6.5686        6.5686       6.111387       0.17473
  44    0.2165        0.4573        0.0000        6.5679        6.5679       6.110649       0.16788
  43    0.2613        0.4573        0.0000        6.5670        6.5670       6.109796       0.16078
  42    0.3336        0.4573        0.0000        6.5657        6.5657       6.108433       0.15894
  41    0.4307        0.4573        0.0000        6.5640        6.5640       6.106711       0.14971
  40    0.5894        0.4572        0.0000        6.5613        6.5613       6.104095       0.13913
  39     1.339        0.4572        0.0000        6.5516        6.5516       6.094318       0.11008
  38     1.782        0.4572        0.0000        6.5473        6.5473       6.090102       0.08026
  37     2.292        0.4572        0.0000        6.5434        6.5435       6.086215       0.06438
  36     2.964        0.4572        0.0000        6.5395        6.5395       6.082261       0.04964
  35     3.853        0.4572        0.0000        6.5355        6.5356       6.078318       0.03742
  34     5.035        0.4572        0.0000        6.5315        6.5315       6.074316       0.02859
  33     6.613        0.4572        0.0000        6.5271        6.5271       6.069922       0.02349
  32     8.786        0.4572        0.0000        6.5216        6.5216       6.064428       0.02134
  31     11.80        0.4572        0.0001        6.5135        6.5135       6.056351       0.02261
  30     15.07        0.4572        0.0001        6.5041        6.5042       6.046984       0.02418
  29     18.79        0.4572        0.0001        6.4925        6.4926       6.035471       0.02610
  28     23.16        0.4571        0.0001        6.4779        6.4780       6.020883       0.02821
  27     28.12        0.4571        0.0002        6.4599        6.4600       6.002913       0.03055
  26     33.73        0.4571        0.0002        6.4384        6.4386       5.981489       0.03221
  25     40.54        0.4571        0.0002        6.4112        6.4114       5.954374       0.03364
  24     48.69        0.4570        0.0003        6.3775        6.3778       5.920753       0.03479
  23     57.69        0.4570        0.0003        6.3404        6.3407       5.883681       0.03475
  22     68.43        0.4570        0.0004        6.2971        6.2975       5.840519       0.03393
  21     81.20        0.4570        0.0004        6.2483        6.2487       5.791743       0.03223
  20     96.49        0.4569        0.0005        6.1948        6.1953       5.738427       0.02943
  19     114.6        0.4569        0.0006        6.1381        6.1388       5.681867       0.02641
  18     136.5        0.4569        0.0007        6.0790        6.0797       5.622862       0.02269
  17     162.9        0.4569        0.0009        6.0160        6.0169       5.560047       0.02008
  16     196.4        0.4569        0.0010        5.9399        5.9409       5.484024       0.01914
  15     218.7        0.4569        0.0011        5.8896        5.8908       5.433860       0.01905
  14     243.0        0.4570        0.0012        5.8322        5.8334       5.376453       0.01991
  13     269.0        0.4571        0.0014        5.7624        5.7638       5.306647       0.02264
  12     297.5        0.4574        0.0015        5.6767        5.6782       5.220858       0.02544
  11     328.5        0.4577        0.0016        5.5726        5.5742       5.116475       0.02838
  10     361.9        0.4583        0.0018        5.4473        5.4491       4.990798       0.03180
   9     398.1        0.4591        0.0019        5.2995        5.3014       4.842321       0.03459
   8     437.6        0.4601        0.0020        5.1275        5.1295       4.669371       0.03698
   7     480.5        0.4616        0.0022        4.9290        4.9311       4.469520       0.03925
   6     533.0        0.4640        0.0023        4.6794        4.6817       4.217685       0.04051
   5     589.8        0.4673        0.0024        4.4188        4.4212       3.953864       0.03916
   4     651.6        0.4721        0.0025        4.1521        4.1546       3.682549       0.03710
   3     718.7        0.4784        0.0027        3.8929        3.8956       3.417173       0.03335
   2     792.3        0.4867        0.0028        3.6469        3.6496       3.162977       0.02915
   1     891.5        0.5007        0.0029        3.3535        3.3564       2.855633       0.02615
   0    1013.0        0.5249        0.0030        3.0383        3.0414       2.516456       0.02355



 Wavenumbers:  5150. -  6150. cm-1, ATM      1
 LEVEL PRESSURE   UPWARD FLUX   DIFDOWN FLUX  DIRDOWN FLUX  DOWNWARD FLUX   NET FLUX    HEATING RATE
          mb          W/m2          W/m2          W/m2        W/m2          W/m2       degree/day
  51    .06700        1.3862        0.0000       16.4735       16.4735      15.087276       0.00000
  50    .07753        1.3862        0.0000       16.4735       16.4735      15.087241       0.02761
  49    .09103        1.3862        0.0000       16.4734       16.4734      15.087196       0.02810
  48    0.1069        1.3862        0.0000       16.4734       16.4734      15.087143       0.02859
  47    0.1255        1.3862        0.0000       16.4733       16.4733      15.087079       0.02904
  46    0.1487        1.3862        0.0000       16.4732       16.4732      15.086995       0.03059
  45    0.1794        1.3862        0.0000       16.4731       16.4731      15.086876       0.03269
  44    0.2165        1.3862        0.0000       16.4730       16.4730      15.086729       0.03331
  43    0.2613        1.3862        0.0000       16.4728       16.4728      15.086550       0.03376
  42    0.3336        1.3862        0.0000       16.4725       16.4725      15.086244       0.03564
  41    0.4307        1.3862        0.0000       16.4720       16.4720      15.085825       0.03645
  40    0.5894        1.3862        0.0000       16.4713       16.4713      15.085124       0.03729
  39     1.339        1.3862        0.0000       16.4679       16.4679      15.081716       0.03837
  38     1.782        1.3862        0.0000       16.4659       16.4659      15.079716       0.03806
  37     2.292        1.3862        0.0001       16.4635       16.4636      15.077425       0.03795
  36     2.964        1.3862        0.0001       16.4605       16.4606      15.074456       0.03727
  35     3.853        1.3861        0.0001       16.4567       16.4567      15.070603       0.03656
  34     5.035        1.3861        0.0001       16.4516       16.4517      15.065607       0.03569
  33     6.613        1.3861        0.0002       16.4451       16.4452      15.059147       0.03453
  32     8.786        1.3860        0.0002       16.4367       16.4369      15.050836       0.03228
  31     11.80        1.3860        0.0003       16.4254       16.4257      15.039687       0.03121
  30     15.07        1.3859        0.0004       16.4141       16.4145      15.028602       0.02862
  29     18.79        1.3858        0.0005       16.4024       16.4029      15.017083       0.02612
  28     23.16        1.3857        0.0006       16.3900       16.3906      15.004825       0.02370
  27     28.12        1.3856        0.0007       16.3771       16.3778      14.992165       0.02152
  26     33.73        1.3855        0.0009       16.3641       16.3650      14.979443       0.01913
  25     40.54        1.3854        0.0010       16.3502       16.3512      14.965810       0.01691
  24     48.69        1.3853        0.0012       16.3354       16.3366      14.951346       0.01497
  23     57.69        1.3851        0.0015       16.3211       16.3225      14.937458       0.01302
  22     68.43        1.3849        0.0017       16.3062       16.3080      14.923086       0.01130
  21     81.20        1.3847        0.0021       16.2903       16.2924      14.907713       0.01016
  20     96.49        1.3844        0.0025       16.2726       16.2751      14.890664       0.00941
  19     114.6        1.3841        0.0029       16.2521       16.2550      14.870881       0.00924
  18     136.5        1.3837        0.0035       16.2245       16.2280      14.844257       0.01024
  17     162.9        1.3833        0.0041       16.1747       16.1788      14.795520       0.01558
  16     196.4        1.3828        0.0049       16.0518       16.0568      14.673979       0.03059
  15     218.7        1.3825        0.0055       15.8984       15.9038      14.521373       0.05794
  14     243.0        1.3821        0.0060       15.6153       15.6212      14.239119       0.09790
  13     269.0        1.3818        0.0065       15.1390       15.1455      13.763668       0.15423
  12     297.5        1.3815        0.0069       14.5779       14.5848      13.203320       0.16619
  11     328.5        1.3813        0.0074       13.8780       13.8854      12.504092       0.19012
  10     361.9        1.3812        0.0078       13.0814       13.0892      11.707986       0.20142
   9     398.1        1.3813        0.0081       12.2728       12.2809      10.899660       0.18832
   8     437.6        1.3816        0.0084       11.4776       11.4859      10.104386       0.17003
   7     480.5        1.3822        0.0086       10.7300       10.7386       9.356389       0.14690
   6     533.0        1.3836        0.0089       10.0326       10.0415       8.657973       0.11235
   5     589.8        1.3859        0.0093        9.5050        9.5144       8.128469       0.07860
   4     651.6        1.3897        0.0099        9.0814        9.0912       7.701510       0.05839
   3     718.7        1.3954        0.0105        8.7024        8.7129       7.317510       0.04826
   2     792.3        1.4032        0.0111        8.3379        8.3491       6.945862       0.04262
   1     891.5        1.4178        0.0119        7.9064        7.9183       6.500521       0.03790
   0    1013.0        1.4481        0.0129        7.4741        7.4870       6.038875       0.03205



 Wavenumbers:  6150. -  7700. cm-1, ATM      1
 LEVEL PRESSURE   UPWARD FLUX   DIFDOWN FLUX  DIRDOWN FLUX  DOWNWARD FLUX   NET FLUX    HEATING RATE
          mb          W/m2          W/m2          W/m2        W/m2          W/m2       degree/day
  51    .06700        2.2480        0.0000       30.4684       30.4684      28.220336       0.00000
  50    .07753        2.2480        0.0000       30.4683       30.4683      28.220284       0.04144
  49    .09103        2.2480        0.0000       30.4683       30.4683      28.220217       0.04174
  48    0.1069        2.2480        0.0000       30.4682       30.4682      28.220138       0.04202
  47    0.1255        2.2480        0.0000       30.4681       30.4681      28.220045       0.04227
  46    0.1487        2.2480        0.0000       30.4680       30.4680      28.219924       0.04411
  45    0.1794        2.2480        0.0000       30.4678       30.4678      28.219754       0.04669
  44    0.2165        2.2480        0.0000       30.4676       30.4676      28.219547       0.04715
  43    0.2613        2.2480        0.0000       30.4673       30.4673      28.219295       0.04744
  42    0.3336        2.2480        0.0000       30.4669       30.4669      28.218868       0.04974
  41    0.4307        2.2480        0.0000       30.4663       30.4663      28.218287       0.05052
  40    0.5894        2.2480        0.0001       30.4653       30.4653      28.217320       0.05146
  39     1.339        2.2479        0.0001       30.4604       30.4606      28.212636       0.05273
  38     1.782        2.2479        0.0002       30.4576       30.4578      28.209886       0.05235
  37     2.292        2.2478        0.0002       30.4543       30.4546      28.206728       0.05231
  36     2.964        2.2478        0.0003       30.4501       30.4504      28.202620       0.05156
  35     3.853        2.2477        0.0004       30.4445       30.4449      28.197263       0.05084
  34     5.035        2.2475        0.0005       30.4373       30.4378      28.190264       0.05000
  33     6.613        2.2474        0.0007       30.4278       30.4285      28.181116       0.04890
  32     8.786        2.2472        0.0009       30.4154       30.4163      28.169163       0.04642
  31     11.80        2.2469        0.0013       30.3984       30.3996      28.152778       0.04587
  30     15.07        2.2465        0.0016       30.3810       30.3826      28.136065       0.04315
  29     18.79        2.2462        0.0020       30.3623       30.3643      28.118164       0.04059
  28     23.16        2.2457        0.0025       30.3417       30.3442      28.098481       0.03806
  27     28.12        2.2452        0.0030       30.3196       30.3226      28.077381       0.03587
  26     33.73        2.2447        0.0036       30.2965       30.3001      28.055463       0.03295
  25     40.54        2.2440        0.0044       30.2708       30.2751      28.031126       0.03019
  24     48.69        2.2432        0.0052       30.2423       30.2475      28.004350       0.02771
  23     57.69        2.2423        0.0062       30.2139       30.2201      27.977785       0.02490
  22     68.43        2.2412        0.0073       30.1834       30.1907      27.949511       0.02223
  21     81.20        2.2399        0.0087       30.1500       30.1587      27.918783       0.02030
  20     96.49        2.2384        0.0103       30.1126       30.1230      27.884567       0.01889
  19     114.6        2.2366        0.0123       30.0695       30.0818      27.845184       0.01839
  18     136.5        2.2344        0.0146       30.0139       30.0285      27.794033       0.01967
  17     162.9        2.2319        0.0173       29.9225       29.9398      27.707862       0.02754
  16     196.4        2.2286        0.0208       29.7333       29.7541      27.525490       0.04591
  15     218.7        2.2265        0.0230       29.5259       29.5489      27.322377       0.07711
  14     243.0        2.2242        0.0253       29.1375       29.1628      26.938578       0.13311
  13     269.0        2.2219        0.0275       28.3800       28.4075      26.185658       0.24424
  12     297.5        2.2196        0.0296       27.3895       27.4192      25.199592       0.29246
  11     328.5        2.2173        0.0316       26.2257       26.2573      24.039940       0.31531
  10     361.9        2.2153        0.0333       24.8453       24.8787      22.663346       0.34829
   9     398.1        2.2137        0.0349       23.3471       23.3819      21.168225       0.34833
   8     437.6        2.2127        0.0361       21.7966       21.8327      19.620068       0.33101
   7     480.5        2.2128        0.0371       20.1977       20.2348      18.022016       0.31385
   6     533.0        2.2149        0.0380       18.4969       18.5349      16.320074       0.27379
   5     589.8        2.2200        0.0389       16.9754       17.0143      14.794260       0.22648
   4     651.6        2.2300        0.0398       15.6022       15.6420      13.411997       0.18903
   3     718.7        2.2458        0.0409       14.4232       14.4641      12.218268       0.15002
   2     792.3        2.2685        0.0422       13.4386       13.4808      11.212326       0.11537
   1     891.5        2.3114        0.0440       12.3736       12.4176      10.106156       0.09413
   0    1013.0        2.3993        0.0459       11.2911       11.3371       8.937802       0.08112



 Wavenumbers:  7700. -  8050. cm-1, ATM      1
 LEVEL PRESSURE   UPWARD FLUX   DIFDOWN FLUX  DIRDOWN FLUX  DOWNWARD FLUX   NET FLUX    HEATING RATE
          mb          W/m2          W/m2          W/m2        W/m2          W/m2       degree/day
  51    .06700        1.7843        0.0000        7.2006        7.2006       5.416281       0.00000
  50    .07753        1.7843        0.0000        7.2006        7.2006       5.416262       0.01512
  49    .09103        1.7843        0.0000        7.2005        7.2005       5.416238       0.01482
  48    0.1069        1.7843        0.0000        7.2005        7.2005       5.416211       0.01451
  47    0.1255        1.7843        0.0000        7.2005        7.2005       5.416180       0.01420
  46    0.1487        1.7843        0.0000        7.2004        7.2005       5.416140       0.01441
  45    0.1794        1.7843        0.0000        7.2004        7.2004       5.416086       0.01482
  44    0.2165        1.7843        0.0000        7.2003        7.2003       5.416022       0.01454
  43    0.2613        1.7843        0.0000        7.2003        7.2003       5.415947       0.01427
  42    0.3336        1.7843        0.0000        7.2001        7.2001       5.415821       0.01460
  41    0.4307        1.7843        0.0000        7.2000        7.2000       5.415655       0.01444
  40    0.5894        1.7843        0.0000        7.1997        7.1997       5.415384       0.01442
  39     1.339        1.7844        0.0001        7.1984        7.1985       5.414101       0.01444
  38     1.782        1.7844        0.0001        7.1977        7.1978       5.413348       0.01434
  37     2.292        1.7845        0.0001        7.1968        7.1969       5.412477       0.01443
  36     2.964        1.7845        0.0001        7.1957        7.1958       5.411333       0.01436
  35     3.853        1.7846        0.0002        7.1942        7.1944       5.409823       0.01433
  34     5.035        1.7846        0.0002        7.1922        7.1925       5.407818       0.01432
  33     6.613        1.7847        0.0003        7.1896        7.1899       5.405143       0.01430
  32     8.786        1.7849        0.0004        7.1860        7.1864       5.401543       0.01398
  31     11.80        1.7851        0.0005        7.1810        7.1815       5.396405       0.01438
  30     15.07        1.7853        0.0007        7.1755        7.1762       5.390905       0.01420
  29     18.79        1.7856        0.0008        7.1694        7.1703       5.384711       0.01404
  28     23.16        1.7859        0.0010        7.1623        7.1634       5.377504       0.01394
  27     28.12        1.7862        0.0013        7.1542        7.1555       5.369299       0.01395
  26     33.73        1.7866        0.0015        7.1452        7.1468       5.360165       0.01373
  25     40.54        1.7871        0.0018        7.1344        7.1362       5.349196       0.01361
  24     48.69        1.7876        0.0022        7.1215        7.1237       5.336070       0.01358
  23     57.69        1.7882        0.0026        7.1074        7.1100       5.321774       0.01340
  22     68.43        1.7890        0.0030        7.0909        7.0939       5.304914       0.01325
  21     81.20        1.7899        0.0036        7.0713        7.0749       5.285060       0.01312
  20     96.49        1.7910        0.0043        7.0484        7.0527       5.261724       0.01288
  19     114.6        1.7923        0.0051        7.0217        7.0267       5.234456       0.01273
  18     136.5        1.7939        0.0060        6.9906        6.9966       5.202729       0.01220
  17     162.9        1.7958        0.0071        6.9544        6.9615       5.165738       0.01182
  16     196.4        1.7983        0.0085        6.9087        6.9173       5.118981       0.01177
  15     218.7        1.8000        0.0095        6.8794        6.8889       5.088908       0.01142
  14     243.0        1.8019        0.0105        6.8481        6.8586       5.056733       0.01116
  13     269.0        1.8040        0.0116        6.8147        6.8263       5.022339       0.01116
  12     297.5        1.8063        0.0128        6.7791        6.7918       4.985544       0.01091
  11     328.5        1.8089        0.0140        6.7409        6.7550       4.946063       0.01073
  10     361.9        1.8119        0.0154        6.7002        6.7156       4.903667       0.01073
   9     398.1        1.8153        0.0169        6.6563        6.6731       4.857858       0.01067
   8     437.6        1.8192        0.0184        6.6089        6.6273       4.808119       0.01063
   7     480.5        1.8237        0.0201        6.5570        6.5771       4.753381       0.01075
   6     533.0        1.8299        0.0221        6.4915        6.5136       4.683725       0.01121
   5     589.8        1.8373        0.0243        6.4182        6.4425       4.605193       0.01166
   4     651.6        1.8464        0.0266        6.3359        6.3625       4.516048       0.01219
   3     718.7        1.8574        0.0290        6.2441        6.2732       4.415785       0.01260
   2     792.3        1.8704        0.0316        6.1437        6.1753       4.304983       0.01271
   1     891.5        1.8900        0.0350        6.0042        6.0392       4.149179       0.01326
   0    1013.0        1.9181        0.0389        5.8249        5.8638       3.945696       0.01413



 Wavenumbers:  8050. - 12850. cm-1, ATM      1
 LEVEL PRESSURE   UPWARD FLUX   DIFDOWN FLUX  DIRDOWN FLUX  DOWNWARD FLUX   NET FLUX    HEATING RATE
          mb          W/m2          W/m2          W/m2        W/m2          W/m2       degree/day
  51    .06700       43.5357        0.0000      100.8135      100.8135      57.277805       0.00000
  50    .07753       43.5357        0.0000      100.8135      100.8135      57.277805       0.00000
  49    .09103       43.5357        0.0001      100.8134      100.8135      57.277805       0.00000
  48    0.1069       43.5356        0.0001      100.8134      100.8135      57.277805      -0.00000
  47    0.1255       43.5356        0.0001      100.8133      100.8134      57.277805       0.00000
  46    0.1487       43.5356        0.0002      100.8132      100.8134      57.277805      -0.00000
  45    0.1794       43.5355        0.0003      100.8131      100.8133      57.277805       0.00000
  44    0.2165       43.5355        0.0004      100.8129      100.8133      57.277805       0.00000
  43    0.2613       43.5354        0.0005      100.8127      100.8132      57.277805       0.00000
  42    0.3336       43.5353        0.0006      100.8125      100.8131      57.277805      -0.00000
  41    0.4307       43.5351        0.0009      100.8121      100.8129      57.277805       0.00000
  40    0.5894       43.5349        0.0012      100.8115      100.8127      57.277805      -0.00000
  39     1.339       43.5337        0.0030      100.8085      100.8115      57.277805       0.00000
  38     1.782       43.5330        0.0041      100.8068      100.8108      57.277805      -0.00000
  37     2.292       43.5322        0.0053      100.8047      100.8100      57.277805       0.00000
  36     2.964       43.5312        0.0069      100.8021      100.8090      57.277805      -0.00000
  35     3.853       43.5298        0.0090      100.7986      100.8076      57.277805      -0.00000
  34     5.035       43.5279        0.0118      100.7940      100.8057      57.277805       0.00000
  33     6.613       43.5255        0.0155      100.7878      100.8033      57.277805      -0.00000
  32     8.786       43.5221        0.0205      100.7794      100.7999      57.277805       0.00000
  31     11.80       43.5174        0.0278      100.7674      100.7952      57.277805      -0.00000
  30     15.07       43.5123        0.0355      100.7546      100.7901      57.277805       0.00000
  29     18.79       43.5065        0.0443      100.7400      100.7843      57.277805      -0.00000
  28     23.16       43.4997        0.0545      100.7230      100.7775      57.277805      -0.00000
  27     28.12       43.4919        0.0663      100.7035      100.7697      57.277805       0.00000
  26     33.73       43.4833        0.0794      100.6817      100.7611      57.277805      -0.00000
  25     40.54       43.4727        0.0953      100.6552      100.7505      57.277805       0.00000
  24     48.69       43.4601        0.1145      100.6234      100.7379      57.277805      -0.00000
  23     57.69       43.4461        0.1356      100.5883      100.7239      57.277805       0.00000
  22     68.43       43.4294        0.1608      100.5464      100.7072      57.277805      -0.00000
  21     81.20       43.4096        0.1908      100.4965      100.6874      57.277805      -0.00000
  20     96.49       43.3858        0.2267      100.4370      100.6637      57.277805       0.00000
  19     114.6       43.3577        0.2693      100.3585      100.6278      57.270072       0.00361
  18     136.5       43.3244        0.3200      100.2634      100.5833      57.258946       0.00428
  17     162.9       43.2846        0.3803      100.1407      100.5210      57.236388       0.00721
  16     196.4       43.2331        0.4588       99.9505      100.4093      57.176201       0.01515
  15     218.7       43.1992        0.5103       99.7889      100.2992      57.100056       0.02891
  14     243.0       43.1625        0.5662       99.5472      100.1134      56.950910       0.05173
  13     269.0       43.1235        0.6265       99.1452       99.7717      56.648268       0.09818
  12     297.5       43.0827        0.6912       98.5975       99.2887      56.206029       0.13116
  11     328.5       43.0409        0.7605       97.8659       98.6264      55.585473       0.16873
  10     361.9       42.9998        0.8342       96.8848       97.7190      54.719213       0.21917
   9     398.1       42.9611        0.9120       95.6330       96.5450      53.583893       0.26450
   8     437.6       42.9286        0.9936       94.0655       95.0591      52.130445       0.31076
   7     480.5       42.9094        1.0779       92.0807       93.1587      50.249299       0.36945
   6     533.0       42.9120        1.1777       89.4449       90.6226      47.710520       0.40841
   5     589.8       42.9539        1.2808       86.5544       87.8352      44.881325       0.41995
   4     651.6       43.0567        1.3869       83.4174       84.8043      41.747535       0.42855
   3     718.7       43.2339        1.4966       80.2037       81.7003      38.466370       0.41235
   2     792.3       43.4975        1.6107       77.0811       78.6917      35.194210       0.37528
   1     891.5       44.0105        1.7583       73.2645       75.0228      31.012257       0.35586
   0    1013.0       45.0391        1.9232       68.9425       70.8656      25.826561       0.36007



 Wavenumbers: 12850. - 16000. cm-1, ATM      1
 LEVEL PRESSURE   UPWARD FLUX   DIFDOWN FLUX  DIRDOWN FLUX  DOWNWARD FLUX   NET FLUX    HEATING RATE
          mb          W/m2          W/m2          W/m2        W/m2          W/m2       degree/day
  51    .06700       45.9978        0.0000       63.1686       63.1686      17.170809       0.00000
  50    .07753       45.9977        0.0001       63.1677       63.1678      17.170027       0.62667
  49    .09103       45.9977        0.0001       63.1666       63.1668      17.169052       0.60932
  48    0.1069       45.9977        0.0002       63.1654       63.1656      17.167941       0.59122
  47    0.1255       45.9977        0.0003       63.1640       63.1643      17.166677       0.57309
  46    0.1487       45.9976        0.0004       63.1623       63.1627      17.165099       0.57516
  45    0.1794       45.9976        0.0006       63.1600       63.1606      17.162981       0.58139
  44    0.2165       45.9976        0.0008       63.1573       63.1581      17.160530       0.55773
  43    0.2613       45.9976        0.0011       63.1542       63.1553      17.157698       0.53377
  42    0.3336       45.9976        0.0015       63.1493       63.1508      17.153179       0.52690
  41    0.4307       45.9976        0.0020       63.1431       63.1451      17.147515       0.49247
  40    0.5894       45.9978        0.0029       63.1338       63.1367      17.138908       0.45771
  39     1.339       46.0002        0.0070       63.0956       63.1025      17.102337       0.41172
  38     1.782       46.0028        0.0094       63.0740       63.0834      17.080561       0.41459
  37     2.292       46.0070        0.0122       63.0477       63.0598      17.052798       0.45981
  36     2.964       46.0143        0.0158       63.0095       63.0253      17.011083       0.52365
  35     3.853       46.0262        0.0206       62.9533       62.9739      16.947640       0.60209
  34     5.035       46.0446        0.0270       62.8725       62.8995      16.854943       0.66219
  33     6.613       46.0703        0.0356       62.7621       62.7976      16.727308       0.68234
  32     8.786       46.1037        0.0471       62.6182       62.6653      16.561590       0.64359
  31     11.80       46.1467        0.0635       62.4284       62.4918      16.345092       0.60613
  30     15.07       46.1874        0.0810       62.2426       62.3236      16.136274       0.53913
  29     18.79       46.2283        0.1008       62.0493       62.1501      15.921847       0.48617
  28     23.16       46.2703        0.1239       61.8424       61.9663      15.696030       0.43666
  27     28.12       46.3117        0.1502       61.6278       61.7781      15.466360       0.39042
  26     33.73       46.3484        0.1797       61.4177       61.5973      15.248933       0.32691
  25     40.54       46.3817        0.2152       61.1983       61.4135      15.031818       0.26936
  24     48.69       46.4109        0.2579       60.9680       61.2259      14.814961       0.22441
  23     57.69       46.4326        0.3048       60.7478       61.0526      14.619970       0.18277
  22     68.43       46.4472        0.3606       60.5202       60.8808      14.433653       0.14647
  21     81.20       46.4489        0.4271       60.2938       60.7209      14.271989       0.10683
  20     96.49       46.4367        0.5063       60.0643       60.5706      14.133860       0.07624
  19     114.6       46.4237        0.6010       59.8078       60.4088      13.985091       0.06946
  18     136.5       46.4017        0.7131       59.5157       60.2289      13.827205       0.06071
  17     162.9       46.3692        0.8463       59.1770       60.0234      13.654131       0.05532
  16     196.4       46.3142        1.0187       58.7604       59.7791      13.464903       0.04763
  15     218.7       46.2734        1.1316       58.4948       59.6264      13.353018       0.04248
  14     243.0       46.2270        1.2542       58.2089       59.4631      13.236057       0.04057
  13     269.0       46.1750        1.3868       57.9006       59.2874      13.112352       0.04013
  12     297.5       46.1175        1.5298       57.5668       59.0966      12.979094       0.03952
  11     328.5       46.0558        1.6840       57.2005       58.8845      12.828689       0.04089
  10     361.9       45.9908        1.8496       56.7963       58.6460      12.655146       0.04391
   9     398.1       45.9235        2.0274       56.3475       58.3749      12.451336       0.04748
   8     437.6       45.8563        2.2175       55.8422       58.0597      12.203426       0.05300
   7     480.5       45.7934        2.4203       55.2625       57.6828      11.889457       0.06166
   6     533.0       45.7313        2.6681       54.4972       57.1653      11.433980       0.07327
   5     589.8       45.6835        2.9320       53.6307       56.5627      10.879242       0.08234
   4     651.6       45.6583        3.2112       52.6606       55.8718      10.213550       0.09104
   3     718.7       45.6599        3.5062       51.6100       55.1162       9.456268       0.09517
   2     792.3       45.6940        3.8167       50.5019       54.3185       8.624514       0.09539
   1     891.5       45.8055        4.2267       49.0197       53.2464       7.440867       0.10072
   0    1013.0       46.0727        4.7034       47.2289       51.9323       5.859613       0.10979



 Wavenumbers: 16000. - 22650. cm-1, ATM      1
 LEVEL PRESSURE   UPWARD FLUX   DIFDOWN FLUX  DIRDOWN FLUX  DOWNWARD FLUX   NET FLUX    HEATING RATE
          mb          W/m2          W/m2          W/m2        W/m2          W/m2       degree/day
  51    .06700       86.0311        0.0000      100.7153      100.7153      14.684168       0.00000
  50    .07753       86.0310        0.0003      100.7147      100.7151      14.684046       0.09766
  49    .09103       86.0309        0.0008      100.7140      100.7148      14.683869       0.11077
  48    0.1069       86.0308        0.0012      100.7131      100.7144      14.683632       0.12631
  47    0.1255       86.0306        0.0018      100.7121      100.7139      14.683314       0.14398
  46    0.1487       86.0304        0.0025      100.7108      100.7133      14.682846       0.17061
  45    0.1794       86.0302        0.0035      100.7089      100.7124      14.682114       0.20088
  44    0.2165       86.0301        0.0046      100.7066      100.7112      14.681122       0.22577
  43    0.2613       86.0299        0.0060      100.7037      100.7097      14.679775       0.25381
  42    0.3336       86.0297        0.0082      100.6987      100.7069      14.677215       0.29848
  41    0.4307       86.0296        0.0112      100.6918      100.7030      14.673356       0.33551
  40    0.5894       86.0298        0.0160      100.6797      100.6958      14.665997       0.39134
  39     1.339       86.0369        0.0390      100.6095      100.6485      14.611638       0.61199
  38     1.782       86.0456        0.0525      100.5585      100.6110      14.565343       0.88138
  37     2.292       86.0600        0.0681      100.4903      100.5583      14.498350       1.10958
  36     2.964       86.0855        0.0886      100.3868      100.4753      14.389867       1.36179
  35     3.853       86.1283        0.1156      100.2306      100.3462      14.217843       1.63253
  34     5.035       86.1944        0.1514      100.0045      100.1559      13.961450       1.83156
  33     6.613       86.2874        0.1992       99.6939       99.8930      13.605636       1.90218
  32     8.786       86.4079        0.2634       99.2881       99.5514      13.143504       1.79475
  31     11.80       86.5625        0.3549       98.7496       99.1045      12.542015       1.68398
  30     15.07       86.7078        0.4529       98.2198       98.6728      11.964988       1.48977
  29     18.79       86.8532        0.5633       97.6651       98.2284      11.375219       1.33719
  28     23.16       87.0015        0.6917       97.0671       97.7588      10.757322       1.19481
  27     28.12       87.1460        0.8380       96.4406       97.2786      10.132580       1.06202
  26     33.73       87.2716        1.0012       95.8179       96.8191       9.547552       0.87961
  25     40.54       87.3815        1.1978       95.1548       96.3526       8.971104       0.71515
  24     48.69       87.4737        1.4339       94.4420       95.8759       8.402228       0.58870
  23     57.69       87.5359        1.6923       93.7416       95.4339       7.898044       0.47260
  22     68.43       87.5680        1.9989       92.9954       94.9942       7.426229       0.37091
  21     81.20       87.5487        2.3627       92.2231       94.5859       7.037147       0.25710
  20     96.49       87.4727        2.7945       91.4110       94.2055       6.732750       0.16801
  19     114.6       87.3563        3.3038       90.5070       93.8108       6.454469       0.12994
  18     136.5       87.2012        3.9026       89.4803       93.3829       6.181636       0.10491
  17     162.9       87.0018        4.6089       88.3022       92.9111       5.909362       0.08703
  16     196.4       86.7100        5.5149       86.8606       92.3755       5.665504       0.06138
  15     218.7       86.5071        6.1037       85.9492       92.0529       5.545821       0.04544
  14     243.0       86.2821        6.7382       84.9789       91.7171       5.434984       0.03844
  13     269.0       86.0342        7.4195       83.9493       91.3687       5.334573       0.03257
  12     297.5       85.7626        8.1484       82.8589       91.0073       5.244733       0.02665
  11     328.5       85.4693        8.9276       81.6982       90.6259       5.156540       0.02398
  10     361.9       85.1545        9.7570       80.4669       90.2239       5.069466       0.02203
   9     398.1       84.8175       10.6386       79.1611       89.7997       4.982268       0.02032
   8     437.6       84.4591       11.5728       77.7777       89.3506       4.891523       0.01940
   7     480.5       84.0799       12.5602       76.3136       88.8739       4.794020       0.01915
   6     533.0       83.6212       13.7560       74.5359       88.2919       4.670667       0.01984
   5     589.8       83.1385       15.0210       72.6469       87.6680       4.529497       0.02095
   4     651.6       82.6345       16.3535       70.6456       86.9991       4.364577       0.02255
   3     718.7       82.1103       17.7515       68.5367       86.2882       4.177957       0.02345
   2     792.3       81.5691       19.2100       66.3287       85.5387       3.969572       0.02390
   1     891.5       80.8754       21.1161       63.4246       84.5407       3.665342       0.02589
   0    1013.0       80.1022       23.3108       60.0483       83.3591       3.256861       0.02836



 Wavenumbers: 22650. - 29000. cm-1, ATM      1
 LEVEL PRESSURE   UPWARD FLUX   DIFDOWN FLUX  DIRDOWN FLUX  DOWNWARD FLUX   NET FLUX    HEATING RATE
          mb          W/m2          W/m2          W/m2        W/m2          W/m2       degree/day
  51    .06700       37.2337        0.0000       38.0063       38.0063       0.772592       0.00000
  50    .07753       37.2335        0.0004       38.0057       38.0061       0.772592       0.00000
  49    .09103       37.2333        0.0009       38.0050       38.0059       0.772592      -0.00000
  48    0.1069       37.2331        0.0015       38.0042       38.0057       0.772592       0.00000
  47    0.1255       37.2329        0.0021       38.0033       38.0054       0.772592      -0.00000
  46    0.1487       37.2325        0.0029       38.0022       38.0051       0.772592       0.00000
  45    0.1794       37.2321        0.0041       38.0006       38.0047       0.772592       0.00000
  44    0.2165       37.2315        0.0054       37.9987       38.0041       0.772592      -0.00000
  43    0.2613       37.2309        0.0070       37.9965       38.0035       0.772592      -0.00000
  42    0.3336       37.2299        0.0096       37.9928       38.0025       0.772592       0.00000
  41    0.4307       37.2285        0.0131       37.9880       38.0011       0.772592       0.00000
  40    0.5894       37.2262        0.0188       37.9800       37.9988       0.772592      -0.00000
  39     1.339       37.2155        0.0456       37.9425       37.9881       0.772592       0.00000
  38     1.782       37.2092        0.0614       37.9204       37.9818       0.772592      -0.00000
  37     2.292       37.2019        0.0796       37.8949       37.9745       0.772592       0.00000
  36     2.964       37.1924        0.1036       37.8614       37.9650       0.772592       0.00000
  35     3.853       37.1798        0.1351       37.8172       37.9524       0.772592       0.00000
  34     5.035       37.1631        0.1771       37.7586       37.9356       0.772592      -0.00000
  33     6.613       37.1407        0.2330       37.6803       37.9133       0.772592       0.00000
  32     8.786       37.1107        0.3083       37.5750       37.8833       0.772592      -0.00000
  31     11.80       37.0679        0.4156       37.4249       37.8405       0.772592       0.00000
  30     15.07       37.0220        0.5305       37.2642       37.7946       0.772592       0.00000
  29     18.79       36.9705        0.6597       37.0833       37.7430       0.772592      -0.00000
  28     23.16       36.9105        0.8100       36.8730       37.6830       0.772592       0.00000
  27     28.12       36.8422        0.9810       36.6338       37.6148       0.772592       0.00000
  26     33.73       36.7663        1.1712       36.3677       37.5389       0.772592       0.00000
  25     40.54       36.6752        1.3992       36.0486       37.4478       0.772592       0.00000
  24     48.69       36.5664        1.6717       35.6672       37.3389       0.772592      -0.00000
  23     57.69       36.4480        1.9679       35.2527       37.2206       0.772592       0.00000
  22     68.43       36.3087        2.3164       34.7649       37.0813       0.772592       0.00000
  21     81.20       36.1451        2.7255       34.1922       36.9177       0.772592       0.00000
  20     96.49       35.9535        3.2044       33.5217       36.7261       0.772592       0.00000
  19     114.6       35.7307        3.7610       32.7424       36.5033       0.772592      -0.00000
  18     136.5       35.4731        4.4041       31.8416       36.2457       0.772592       0.00000
  17     162.9       35.1753        5.1470       30.8008       35.9478       0.772592       0.00000
  16     196.4       34.8029        6.0748       29.5007       35.5755       0.772592       0.00000
  15     218.7       34.5667        6.6626       28.6767       35.3393       0.772592       0.00000
  14     243.0       34.3172        7.2830       27.8068       35.0897       0.772592       0.00000
  13     269.0       34.0549        7.9342       26.8933       34.8275       0.772592      -0.00000
  12     297.5       33.7809        8.6141       25.9393       34.5534       0.772592       0.00000
  11     328.5       33.4949        9.3224       24.9451       34.2675       0.772592       0.00000
  10     361.9       33.1987       10.0553       23.9160       33.9713       0.772592       0.00000
   9     398.1       32.8926       10.8111       22.8541       33.6652       0.772592       0.00000
   8     437.6       32.5781       11.5863       21.7645       33.3507       0.772592      -0.00000
   7     480.5       32.2566       12.3770       20.6521       33.0292       0.772592       0.00000
   6     533.0       31.8815       13.2971       19.3569       32.6541       0.772592      -0.00000
   5     589.8       31.5011       14.2270       18.0467       32.2737       0.772592      -0.00000
   4     651.6       31.1183       15.1593       16.7316       31.8909       0.772592       0.00000
   3     718.7       30.7358       16.0869       15.4214       31.5083       0.772592      -0.00000
   2     792.3       30.3566       17.0016       14.1276       31.1292       0.772592       0.00000
   1     891.5       29.8908       18.1174       12.5459       30.6633       0.772592      -0.00000
   0    1013.0       29.3942       19.2950       10.8717       30.1667       0.772592      -0.00000



 Wavenumbers: 29000. - 38000. cm-1, ATM      1
 LEVEL PRESSURE   UPWARD FLUX   DIFDOWN FLUX  DIRDOWN FLUX  DOWNWARD FLUX   NET FLUX    HEATING RATE
          mb          W/m2          W/m2          W/m2        W/m2          W/m2       degree/day
  51    .06700        5.3005        0.0000       13.4026       13.4026       8.102052       0.00000
  50    .07753        5.3003        0.0003       13.3983       13.3986       8.098253       3.04477
  49    .09103        5.3001        0.0007       13.3921       13.3928       8.092734       3.45011
  48    0.1069        5.2998        0.0011       13.3840       13.3851       8.085356       3.92727
  47    0.1255        5.2994        0.0016       13.3733       13.3749       8.075510       4.46376
  46    0.1487        5.2990        0.0022       13.3579       13.3601       8.061065       5.26509
  45    0.1794        5.2984        0.0030       13.3340       13.3371       8.038662       6.15011
  44    0.2165        5.2978        0.0040       13.3024       13.3064       8.008639       6.82973
  43    0.2613        5.2970        0.0052       13.2604       13.2656       7.968579       7.55121
  42    0.3336        5.2958        0.0071       13.1833       13.1904       7.894561       8.62975
  41    0.4307        5.2943        0.0096       13.0729       13.0825       7.788172       9.25033
  40    0.5894        5.2920        0.0135       12.8796       12.8931       7.601094       9.94853
  39     1.339        5.2840        0.0299       11.9165       11.9465       6.662497      10.56690
  38     1.782        5.2810        0.0384       11.4399       11.4783       6.197297       8.85665
  37     2.292        5.2789        0.0474       10.9796       11.0270       5.748054       7.44063
  36     2.964        5.2781        0.0584       10.4786       10.5371       5.258928       6.14001
  35     3.853        5.2797        0.0721        9.9429       10.0150       4.735293       4.96939
  34     5.035        5.2845        0.0892        9.4007        9.4899       4.205411       3.78526
  33     6.613        5.2927        0.1109        8.8752        8.9862       3.693429       2.73705
  32     8.786        5.3039        0.1390        8.3786        8.5175       3.213628       1.86337
  31     11.80        5.3178        0.1775        7.8897        8.0671       2.749261       1.30008
  30     15.07        5.3303        0.2172        7.5108        7.7280       2.397705       0.90765
  29     18.79        5.3423        0.2605        7.1776        7.4381       2.095878       0.68433
  28     23.16        5.3538        0.3094        6.8664        7.1758       1.821968       0.52965
  27     28.12        5.3642        0.3634        6.5780        6.9415       1.577284       0.41595
  26     33.73        5.3706        0.4224        6.3195        6.7419       1.371234       0.30980
  25     40.54        5.3723        0.4920        6.0663        6.5582       1.185956       0.22986
  24     48.69        5.3686        0.5735        5.8128        6.3864       1.017744       0.17407
  23     57.69        5.3593        0.6607        5.5777        6.2384       0.879132       0.12993
  22     68.43        5.3423        0.7617        5.3379        6.0996       0.757285       0.09579
  21     81.20        5.3132        0.8790        5.0965        5.9755       0.662232       0.06281
  20     96.49        5.2709        1.0146        4.8476        5.8622       0.591293       0.03915
  19     114.6        5.2190        1.1685        4.5799        5.7484       0.529401       0.02890
  18     136.5        5.1586        1.3408        4.2891        5.6299       0.471238       0.02237
  17     162.9        5.0899        1.5323        3.9732        5.5055       0.415621       0.01778
  16     196.4        5.0025        1.7624        3.6080        5.3704       0.367905       0.01201
  15     218.7        4.9475        1.9029        3.3898        5.2926       0.345112       0.00865
  14     243.0        4.8906        2.0464        3.1686        5.2150       0.324379       0.00719
  13     269.0        4.8320        2.1920        2.9461        5.1381       0.306039       0.00595
  12     297.5        4.7722        2.3384        2.7239        5.0623       0.290121       0.00472
  11     328.5        4.7121        2.4844        2.5029        4.9873       0.275117       0.00408
  10     361.9        4.6523        2.6287        2.2846        4.9133       0.261053       0.00356
   9     398.1        4.5930        2.7702        2.0708        4.8409       0.247924       0.00306
   8     437.6        4.5349        2.9078        1.8626        4.7704       0.235452       0.00267
   7     480.5        4.4784        3.0401        1.6621        4.7022       0.223776       0.00229
   6     533.0        4.4163        3.1839        1.4437        4.6276       0.211226       0.00202
   5     589.8        4.3576        3.3179        1.2390        4.5569       0.199244       0.00178
   4     651.6        4.3030        3.4407        1.0500        4.4907       0.187669       0.00158
   3     718.7        4.2528        3.5515        0.8778        4.4293       0.176460       0.00141
   2     792.3        4.2075        3.6494        0.7237        4.3731       0.165596       0.00125
   1     891.5        4.1577        3.7537        0.5563        4.3100       0.152309       0.00113
   0    1013.0        4.1117        3.8456        0.4039        4.2495       0.137767       0.00101



 Wavenumbers: 38000. - 50000. cm-1, ATM      1
 LEVEL PRESSURE   UPWARD FLUX   DIFDOWN FLUX  DIRDOWN FLUX  DOWNWARD FLUX   NET FLUX    HEATING RATE
          mb          W/m2          W/m2          W/m2        W/m2          W/m2       degree/day
  51    .06700        0.0051        0.0000        0.8267        0.8267       0.821528       0.00000
  50    .07753        0.0051        0.0001        0.8242        0.8243       0.819196       1.86936
  49    .09103        0.0050        0.0002        0.8207        0.8209       0.815872       2.07705
  48    0.1069        0.0049        0.0002        0.8162        0.8164       0.811514       2.31984
  47    0.1255        0.0048        0.0004        0.8103        0.8106       0.805801       2.59006
  46    0.1487        0.0047        0.0005        0.8018        0.8023       0.797567       3.00143
  45    0.1794        0.0045        0.0007        0.7889        0.7896       0.785013       3.44648
  44    0.2165        0.0044        0.0009        0.7720        0.7729       0.768507       3.75474
  43    0.2613        0.0042        0.0011        0.7500        0.7511       0.746955       4.06246
  42    0.3336        0.0039        0.0015        0.7106        0.7121       0.708267       4.51071
  41    0.4307        0.0035        0.0019        0.6566        0.6584       0.654972       4.63387
  40    0.5894        0.0029        0.0024        0.5680        0.5704       0.567464       4.65357
  39     1.339        0.0015        0.0030        0.2422        0.2452       0.243720       3.64476
  38     1.782        0.0010        0.0026        0.1493        0.1519       0.150889       1.76735
  37     2.292        0.0007        0.0022        0.0924        0.0946       0.093932       0.94336
  36     2.964        0.0005        0.0018        0.0539        0.0557       0.055224       0.48589
  35     3.853        0.0003        0.0013        0.0295        0.0308       0.030502       0.23462
  34     5.035        0.0002        0.0010        0.0154        0.0164       0.016181       0.10230
  33     6.613        0.0001        0.0007        0.0073        0.0080       0.007912       0.04420
  32     8.786        0.0000        0.0004        0.0030        0.0034       0.003390       0.01756
  31     11.80        0.0000        0.0003        0.0010        0.0012       0.001199       0.00613
  30     15.07        0.0000        0.0001        0.0003        0.0005       0.000463       0.00190
  29     18.79        0.0000        0.0001        0.0001        0.0002       0.000182       0.00064
  28     23.16        0.0000        0.0000        0.0000        0.0001       0.000071       0.00022
  27     28.12        0.0000        0.0000        0.0000        0.0000       0.000028       0.00007
  26     33.73        0.0000        0.0000        0.0000        0.0000       0.000011       0.00002
  25     40.54        0.0000        0.0000        0.0000        0.0000       0.000005       0.00001
  24     48.69        0.0000        0.0000        0.0000        0.0000       0.000002       0.00000
  23     57.69        0.0000        0.0000        0.0000        0.0000       0.000001       0.00000
  22     68.43        0.0000        0.0000        0.0000        0.0000       0.000000       0.00000
  21     81.20        0.0000        0.0000        0.0000        0.0000       0.000000       0.00000
  20     96.49        0.0000        0.0000        0.0000        0.0000       0.000000       0.00000
  19     114.6        0.0000        0.0000        0.0000        0.0000       0.000000       0.00000
  18     136.5        0.0000        0.0000        0.0000        0.0000       0.000000       0.00000
  17     162.9        0.0000        0.0000        0.0000        0.0000       0.000000       0.00000
  16     196.4        0.0000        0.0000        0.0000        0.0000       0.000000       0.00000
  15     218.7        0.0000        0.0000        0.0000        0.0000       0.000000       0.00000
  14     243.0        0.0000        0.0000        0.0000        0.0000       0.000000       0.00000
  13     269.0        0.0000        0.0000        0.0000        0.0000       0.000000       0.00000
  12     297.5        0.0000        0.0000        0.0000        0.0000       0.000000       0.00000
  11     328.5        0.0000        0.0000        0.0000        0.0000       0.000000       0.00000
  10     361.9        0.0000        0.0000        0.0000        0.0000       0.000000       0.00000
   9     398.1        0.0000        0.0000        0.0000        0.0000       0.000000       0.00000
   8     437.6        0.0000        0.0000        0.0000        0.0000       0.000000       0.00000
   7     480.5        0.0000        0.0000        0.0000        0.0000       0.000000       0.00000
   6     533.0        0.0000        0.0000        0.0000        0.0000       0.000000       0.00000
   5     589.8        0.0000        0.0000        0.0000        0.0000       0.000000       0.00000
   4     651.6        0.0000        0.0000        0.0000        0.0000       0.000000       0.00000
   3     718.7        0.0000        0.0000        0.0000        0.0000       0.000000       0.00000
   2     792.3        0.0000        0.0000        0.0000        0.0000       0.000000       0.00000
   1     891.5        0.0000        0.0000        0.0000        0.0000       0.000000       0.00000
   0    1013.0        0.0000        0.0000        0.0000        0.0000       0.000000       0.00000



 Wavenumbers:   820. -  2600. cm-1, ATM      1
 LEVEL PRESSURE   UPWARD FLUX   DIFDOWN FLUX  DIRDOWN FLUX  DOWNWARD FLUX   NET FLUX    HEATING RATE
          mb          W/m2          W/m2          W/m2        W/m2          W/m2       degree/day
  51    .06700        0.1279        0.0000        3.8670        3.8670       3.739134       0.00000
  50    .07753        0.1279        0.0000        3.8643        3.8643       3.736417       2.17769
  49    .09103        0.1279        0.0000        3.8635        3.8635       3.735607       0.50638
  48    0.1069        0.1279        0.0000        3.8626        3.8626       3.734717       0.47415
  47    0.1255        0.1279        0.0000        3.8616        3.8616       3.733756       0.43559
  46    0.1487        0.1279        0.0000        3.8605        3.8605       3.732646       0.40437
  45    0.1794        0.1279        0.0000        3.8592        3.8592       3.731311       0.36647
  44    0.2165        0.1279        0.0000        3.8578        3.8578       3.729934       0.31346
  43    0.2613        0.1279        0.0000        3.8564        3.8564       3.728473       0.27522
  42    0.3336        0.1279        0.0000        3.8541        3.8541       3.726242       0.26012
  41    0.4307        0.1279        0.0000        3.8512        3.8512       3.723360       0.25063
  40    0.5894        0.1279        0.0000        3.8465        3.8465       3.718634       0.25133
  39     1.339        0.1279        0.0000        3.8251        3.8251       3.697259       0.24064
  38     1.782        0.1279        0.0000        3.8133        3.8133       3.685446       0.22489
  37     2.292        0.1279        0.0000        3.8003        3.8003       3.672385       0.21632
  36     2.964        0.1279        0.0000        3.7841        3.7841       3.656256       0.20246
  35     3.853        0.1279        0.0000        3.7642        3.7642       3.636342       0.18899
  34     5.035        0.1279        0.0000        3.7395        3.7395       3.611652       0.17638
  33     6.613        0.1279        0.0000        3.7090        3.7090       3.581116       0.16324
  32     8.786        0.1279        0.0000        3.6726        3.6726       3.544724       0.14133
  31     11.80        0.1279        0.0000        3.6320        3.6320       3.504130       0.11365
  30     15.07        0.1279        0.0000        3.6016        3.6016       3.473748       0.07844
  29     18.79        0.1279        0.0000        3.5777        3.5777       3.449851       0.05418
  28     23.16        0.1279        0.0000        3.5564        3.5564       3.428499       0.04129
  27     28.12        0.1279        0.0000        3.5348        3.5348       3.406954       0.03662
  26     33.73        0.1279        0.0000        3.5118        3.5118       3.383923       0.03463
  25     40.54        0.1279        0.0000        3.4849        3.4849       3.357037       0.03335
  24     48.69        0.1279        0.0000        3.4537        3.4537       3.325787       0.03234
  23     57.69        0.1279        0.0000        3.4210        3.4210       3.293116       0.03062
  22     68.43        0.1279        0.0000        3.3844        3.3844       3.256533       0.02876
  21     81.20        0.1279        0.0000        3.3441        3.3441       3.216237       0.02663
  20     96.49        0.1279        0.0000        3.2998        3.2998       3.171876       0.02448
  19     114.6        0.1279        0.0000        3.2506        3.2506       3.122732       0.02295
  18     136.5        0.1279        0.0000        3.1936        3.1936       3.065686       0.02194
  17     162.9        0.1279        0.0000        3.1181        3.1181       2.990187       0.02413
  16     196.4        0.1280        0.0000        3.0090        3.0090       2.881006       0.02748
  15     218.7        0.1280        0.0000        2.9420        2.9420       2.814007       0.02544
  14     243.0        0.1280        0.0000        2.8605        2.8605       2.732451       0.02829
  13     269.0        0.1281        0.0000        2.7419        2.7420       2.613880       0.03846
  12     297.5        0.1282        0.0000        2.5729        2.5729       2.444689       0.05018
  11     328.5        0.1284        0.0000        2.3602        2.3602       2.231820       0.05788
  10     361.9        0.1287        0.0000        2.1524        2.1524       2.023773       0.05264
   9     398.1        0.1291        0.0000        1.9974        1.9974       1.868358       0.03621
   8     437.6        0.1297        0.0000        1.8835        1.8835       1.753865       0.02448
   7     480.5        0.1305        0.0000        1.7734        1.7734       1.642932       0.02179
   6     533.0        0.1319        0.0000        1.6397        1.6398       1.507814       0.02174
   5     589.8        0.1340        0.0000        1.5068        1.5069       1.372826       0.02004
   4     651.6        0.1371        0.0000        1.3807        1.3807       1.243598       0.01767
   3     718.7        0.1412        0.0000        1.2680        1.2680       1.126798       0.01468
   2     792.3        0.1463        0.0000        1.1659        1.1660       1.019665       0.01229
   1     891.5        0.1548        0.0000        1.0372        1.0373       0.882432       0.01168
   0    1013.0        0.1703        0.0000        0.8716        0.8717       0.701352       0.01257

  Modules and versions used in this calculation:

       rrtmg_sw.1col.f90:  $Revision$                    rrtmg_sw_init.f90:  $Revision$        
     rrtmgsw_cldprop.f90:  $Revision$                  rrtmgsw_cldprmc.f90:  NOT USED          
     rrtmg_sw_reftra.f90:  $Revision$                  rrtmg_sw_spcvrt.f90:  NOT USED          
     rrtmg_sw_spcvmc.f90:  NOT USED                    rrtmgsw_setcoef.f90:  NOT USED          
     rrtmg_sw_taumol.f90:  $Revision$                  rrtmg_sw_vrtqdr.f90:  NOT USED          
                rrtatm.f:  NOT USED                             util_xxx.f:  NOT USED          
                 extra.f:  NOT USED                       rrtmg_sw_k_g.f90:  $Revision$        

