

 Wavenumbers:   820. - 50000. cm-1, ATM      1
 LEVEL PRESSURE   UPWARD FLUX   DIFDOWN FLUX  DIRDOWN FLUX  DOWNWARD FLUX   NET FLUX    HEATING RATE
          mb          W/m2          W/m2          W/m2        W/m2          W/m2       degree/day
  51    .06700      234.8623        0.0000      397.8738      397.8738     163.011487       0.00000
  50    .07753      234.8617        0.0012      397.8577      397.8589     162.997196      11.45502
  49    .09103      234.8610        0.0027      397.8418      397.8445     162.983506       8.55623
  48    0.1069      234.8602        0.0044      397.8230      397.8273     162.967157       8.70277
  47    0.1255      234.8593        0.0063      397.7997      397.8060     162.946713       9.26855
  46    0.1487      234.8582        0.0088      397.7676      397.7764     162.918252      10.37406
  45    0.1794      234.8567        0.0122      397.7205      397.7327     162.875956      11.61136
  44    0.2165      234.8551        0.0162      397.6602      397.6764     162.821302      12.43288
  43    0.2613      234.8533        0.0208      397.5829      397.6037     162.750497      13.34647
  42    0.3336      234.8504        0.0286      397.4449      397.4734     162.623042      14.85994
  41    0.4307      234.8469        0.0387      397.2524      397.2911     162.444149      15.55435
  40    0.5894      234.8419        0.0549      396.9253      396.9802     162.138385      16.26014
  39     1.339      234.8298        0.1277      395.4254      395.5531     160.723288      15.93143
  38     1.782      234.8306        0.1686      394.7288      394.8973     160.066723      12.49994
  37     2.292      234.8385        0.2150      394.0572      394.2722     159.433687      10.48472
  36     2.964      234.8593        0.2754      393.3007      393.5761     158.716833       8.99869
  35     3.853      234.9010        0.3543      392.4318      392.7861     157.885087       7.89342
  34     5.035      234.9708        0.4582      391.4441      391.9023     156.931476       6.81221
  33     6.613      235.0718        0.5958      390.3268      390.9225     155.850776       5.77743
  32     8.786      235.2021        0.7798      389.0624      389.8422     154.640171       4.70155
  31     11.80      235.3642        1.0411      387.5500      388.5911     153.226921       3.95665
  30     15.07      235.5098        1.3194      386.1556      387.4750     151.965231       3.25744
  29     18.79      235.6489        1.6313      384.7502      386.3815     150.732639       2.79466
  28     23.16      235.7821        1.9928      383.2686      385.2614     149.479286       2.42358
  27     28.12      235.9004        2.4029      381.7329      384.1358     148.235382       2.11455
  26     33.73      235.9827        2.8586      380.1982      383.0567     147.074014       1.74615
  25     40.54      236.0242        3.4051      378.5384      381.9435     145.919298       1.43256
  24     48.69      236.0187        4.0584      376.7214      380.7798     144.761102       1.19855
  23     57.69      235.9595        4.7694      374.8959      379.6653     143.705813       0.98918
  22     68.43      235.8318        5.6079      372.8999      378.5078     142.675963       0.80960
  21     81.20      235.6008        6.5964      370.7496      377.3460     141.745204       0.61503
  20     96.49      235.2543        7.7598      368.4056      376.1654     140.911046       0.46040
  19     114.6      234.8210        9.1194      365.7513      374.8707     140.049630       0.40222
  18     136.5      234.2918       10.6993      362.7231      373.4224     139.130604       0.35339
  17     162.9      233.6531       12.5370      359.1748      371.7118     138.058672       0.34263
  16     196.4      232.7955       14.8559      354.5718      369.4277     136.632188       0.35906
  15     218.7      232.2276       16.3402      351.4437      367.7839     135.556217       0.40851
  14     243.0      231.6149       17.9199      347.7111      365.6311     134.016184       0.53413
  13     269.0      230.9581       19.5936      342.9441      362.5377     131.579595       0.79042
  12     297.5      230.2593       21.3591      337.4137      358.7728     128.513522       0.90936
  11     328.5      229.5241       23.2184      331.1302      354.3486     124.824544       1.00302
  10     361.9      228.7579       25.1662      324.1219      349.2881     120.530216       1.08651
   9     398.1      227.9651       27.2023      316.6066      343.8089     115.843773       1.09184
   8     437.6      227.1561       29.3223      308.5895      337.9118     110.755744       1.08785
   7     480.5      226.3480       31.5208      299.9349      331.4557     105.107681       1.10926
   6     533.0      225.4447       34.1288      289.7021      323.8309      98.386219       1.08127
   5     589.8      224.5935       36.8254      279.3388      316.1641      91.570625       1.01166
   4     651.6      223.8429       39.5988      268.7786      308.3774      84.534565       0.96220
   3     718.7      223.2215       42.4407      258.2837      300.7244      77.502911       0.88368
   2     792.3      222.7594       45.3371      248.0774      293.4145      70.655121       0.78536
   1     891.5      222.5352       49.0220      235.5216      284.5436      62.008421       0.73579
   0    1013.0      223.1902       53.1286      221.4731      274.6018      51.411538       0.73580



 Wavenumbers:  2600. -  3250. cm-1, ATM      1
 LEVEL PRESSURE   UPWARD FLUX   DIFDOWN FLUX  DIRDOWN FLUX  DOWNWARD FLUX   NET FLUX    HEATING RATE
          mb          W/m2          W/m2          W/m2        W/m2          W/m2       degree/day
  51    .06700        0.5737        0.0000        3.5066        3.5066       2.932914       0.00000
  50    .07753        0.5737        0.0000        3.5066        3.5066       2.932906       0.00640
  49    .09103        0.5737        0.0000        3.5066        3.5066       2.932896       0.00627
  48    0.1069        0.5737        0.0000        3.5066        3.5066       2.932885       0.00613
  47    0.1255        0.5737        0.0000        3.5066        3.5066       2.932871       0.00599
  46    0.1487        0.5737        0.0000        3.5066        3.5066       2.932855       0.00607
  45    0.1794        0.5737        0.0000        3.5065        3.5065       2.932832       0.00624
  44    0.2165        0.5737        0.0000        3.5065        3.5065       2.932805       0.00611
  43    0.2613        0.5737        0.0000        3.5065        3.5065       2.932773       0.00598
  42    0.3336        0.5737        0.0000        3.5064        3.5064       2.932721       0.00615
  41    0.4307        0.5737        0.0000        3.5064        3.5064       2.932650       0.00618
  40    0.5894        0.5737        0.0000        3.5062        3.5062       2.932530       0.00633
  39     1.339        0.5737        0.0000        3.5055        3.5055       2.931832       0.00787
  38     1.782        0.5737        0.0000        3.5050        3.5050       2.931301       0.01011
  37     2.292        0.5737        0.0000        3.5043        3.5043       2.930608       0.01147
  36     2.964        0.5737        0.0000        3.5033        3.5033       2.929617       0.01245
  35     3.853        0.5737        0.0000        3.5019        3.5019       2.928240       0.01307
  34     5.035        0.5737        0.0000        3.5001        3.5001       2.926379       0.01329
  33     6.613        0.5737        0.0000        3.4977        3.4977       2.923969       0.01288
  32     8.786        0.5737        0.0000        3.4947        3.4947       2.920998       0.01154
  31     11.80        0.5737        0.0000        3.4911        3.4911       2.917363       0.01018
  30     15.07        0.5737        0.0000        3.4878        3.4878       2.914142       0.00832
  29     18.79        0.5737        0.0000        3.4848        3.4848       2.911078       0.00695
  28     23.16        0.5737        0.0000        3.4816        3.4816       2.907857       0.00623
  27     28.12        0.5737        0.0000        3.4779        3.4779       2.904239       0.00615
  26     33.73        0.5737        0.0000        3.4735        3.4735       2.899771       0.00672
  25     40.54        0.5737        0.0000        3.4671        3.4671       2.893444       0.00785
  24     48.69        0.5737        0.0000        3.4582        3.4583       2.884546       0.00921
  23     57.69        0.5737        0.0000        3.4472        3.4472       2.873495       0.01036
  22     68.43        0.5737        0.0000        3.4329        3.4329       2.859230       0.01121
  21     81.20        0.5737        0.0000        3.4152        3.4152       2.841494       0.01172
  20     96.49        0.5737        0.0000        3.3940        3.3941       2.820339       0.01168
  19     114.6        0.5738        0.0000        3.3692        3.3692       2.795434       0.01163
  18     136.5        0.5738        0.0001        3.3419        3.3420       2.768194       0.01047
  17     162.9        0.5739        0.0001        3.3129        3.3129       2.739085       0.00930
  16     196.4        0.5740        0.0001        3.2793        3.2794       2.705444       0.00847
  15     218.7        0.5741        0.0001        3.2578        3.2578       2.683759       0.00823
  14     243.0        0.5743        0.0001        3.2320        3.2321       2.657775       0.00901
  13     269.0        0.5746        0.0001        3.1968        3.1969       2.622346       0.01149
  12     297.5        0.5751        0.0001        3.1489        3.1491       2.573987       0.01434
  11     328.5        0.5758        0.0001        3.0821        3.0822       2.506390       0.01838
  10     361.9        0.5768        0.0001        2.9902        2.9904       2.413523       0.02350
   9     398.1        0.5783        0.0001        2.8715        2.8716       2.293289       0.02801
   8     437.6        0.5804        0.0001        2.7276        2.7278       2.147347       0.03120
   7     480.5        0.5835        0.0002        2.5595        2.5597       1.976124       0.03363
   6     533.0        0.5887        0.0002        2.3617        2.3619       1.773232       0.03264
   5     589.8        0.5960        0.0002        2.1649        2.1651       1.569064       0.03031
   4     651.6        0.6066        0.0002        1.9608        1.9609       1.354320       0.02937
   3     718.7        0.6210        0.0002        1.7593        1.7595       1.138461       0.02713
   2     792.3        0.6398        0.0002        1.5761        1.5762       0.936388       0.02318
   1     891.5        0.6722        0.0002        1.3714        1.3716       0.699409       0.02017
   0    1013.0        0.7306        0.0002        1.1584        1.1586       0.427972       0.01885



 Wavenumbers:  3250. -  4000. cm-1, ATM      1
 LEVEL PRESSURE   UPWARD FLUX   DIFDOWN FLUX  DIRDOWN FLUX  DOWNWARD FLUX   NET FLUX    HEATING RATE
          mb          W/m2          W/m2          W/m2        W/m2          W/m2       degree/day
  51    .06700        0.0004        0.0000        5.9117        5.9117       5.911226       0.00000
  50    .07753        0.0004        0.0000        5.9075        5.9075       5.907037       3.35808
  49    .09103        0.0004        0.0000        5.9050        5.9050       5.904594       1.52677
  48    0.1069        0.0004        0.0000        5.9032        5.9032       5.902728       0.99346
  47    0.1255        0.0004        0.0000        5.9014        5.9014       5.900969       0.79708
  46    0.1487        0.0004        0.0000        5.8995        5.8995       5.899081       0.68848
  45    0.1794        0.0004        0.0000        5.8974        5.8974       5.896932       0.58983
  44    0.2165        0.0004        0.0000        5.8952        5.8952       5.894815       0.48155
  43    0.2613        0.0004        0.0000        5.8931        5.8931       5.892656       0.40696
  42    0.3336        0.0004        0.0000        5.8899        5.8899       5.889498       0.36820
  41    0.4307        0.0004        0.0000        5.8861        5.8861       5.885661       0.33365
  40    0.5894        0.0004        0.0000        5.8803        5.8803       5.879858       0.30857
  39     1.339        0.0004        0.0000        5.8597        5.8597       5.859261       0.23189
  38     1.782        0.0004        0.0000        5.8513        5.8513       5.850836       0.16039
  37     2.292        0.0004        0.0000        5.8431        5.8431       5.842665       0.13533
  36     2.964        0.0004        0.0000        5.8334        5.8334       5.833026       0.12100
  35     3.853        0.0004        0.0000        5.8213        5.8213       5.820850       0.11555
  34     5.035        0.0004        0.0000        5.8052        5.8052       5.804755       0.11498
  33     6.613        0.0004        0.0000        5.7833        5.7834       5.782934       0.11666
  32     8.786        0.0004        0.0000        5.7531        5.7531       5.752732       0.11729
  31     11.80        0.0004        0.0000        5.7090        5.7090       5.708563       0.12366
  30     15.07        0.0004        0.0000        5.6615        5.6615       5.661099       0.12254
  29     18.79        0.0004        0.0000        5.6093        5.6094       5.608963       0.11821
  28     23.16        0.0004        0.0000        5.5524        5.5524       5.552037       0.11008
  27     28.12        0.0004        0.0000        5.4935        5.4935       5.493158       0.10009
  26     33.73        0.0004        0.0000        5.4348        5.4349       5.434469       0.08824
  25     40.54        0.0004        0.0001        5.3707        5.3708       5.370408       0.07948
  24     48.69        0.0004        0.0001        5.2985        5.2985       5.298175       0.07475
  23     57.69        0.0004        0.0001        5.2215        5.2216       5.221236       0.07212
  22     68.43        0.0003        0.0001        5.1318        5.1319       5.131576       0.07048
  21     81.20        0.0003        0.0001        5.0284        5.0285       5.028146       0.06834
  20     96.49        0.0003        0.0001        4.9122        4.9123       4.912012       0.06410
  19     114.6        0.0003        0.0001        4.7780        4.7782       4.777901       0.06262
  18     136.5        0.0003        0.0002        4.6285        4.6287       4.628423       0.05748
  17     162.9        0.0002        0.0002        4.4406        4.4407       4.440510       0.06006
  16     196.4        0.0002        0.0002        4.1548        4.1550       4.154837       0.07191
  15     218.7        0.0002        0.0002        3.9564        3.9566       3.956456       0.07532
  14     243.0        0.0002        0.0002        3.7055        3.7058       3.705622       0.08700
  13     269.0        0.0001        0.0002        3.3399        3.3401       3.339983       0.11861
  12     297.5        0.0001        0.0002        2.8954        2.8956       2.895493       0.13183
  11     328.5        0.0001        0.0002        2.4388        2.4390       2.438952       0.12413
  10     361.9        0.0001        0.0002        2.0269        2.0271       2.027014       0.10422
   9     398.1        0.0001        0.0002        1.6753        1.6755       1.675425       0.08191
   8     437.6        0.0001        0.0002        1.3592        1.3594       1.359307       0.06759
   7     480.5        0.0000        0.0002        1.0616        1.0618       1.061724       0.05844
   6     533.0        0.0000        0.0001        0.7543        0.7544       0.754390       0.04944
   5     589.8        0.0000        0.0001        0.4951        0.4952       0.495196       0.03847
   4     651.6        0.0000        0.0001        0.2943        0.2943       0.294297       0.02747
   3     718.7        0.0001        0.0001        0.1528        0.1529       0.152798       0.01778
   2     792.3        0.0001        0.0000        0.0658        0.0658       0.065755       0.00998
   1     891.5        0.0002        0.0000        0.0157        0.0157       0.015466       0.00428
   0    1013.0        0.0008        0.0000        0.0013        0.0013       0.000496       0.00104



 Wavenumbers:  4000. -  4650. cm-1, ATM      1
 LEVEL PRESSURE   UPWARD FLUX   DIFDOWN FLUX  DIRDOWN FLUX  DOWNWARD FLUX   NET FLUX    HEATING RATE
          mb          W/m2          W/m2          W/m2        W/m2          W/m2       degree/day
  51    .06700        2.4609        0.0000        6.9421        6.9421       4.481181       0.00000
  50    .07753        2.4609        0.0000        6.9421        6.9421       4.481180       0.00079
  49    .09103        2.4609        0.0000        6.9421        6.9421       4.481179       0.00078
  48    0.1069        2.4609        0.0000        6.9421        6.9421       4.481178       0.00076
  47    0.1255        2.4609        0.0000        6.9421        6.9421       4.481176       0.00074
  46    0.1487        2.4609        0.0000        6.9421        6.9421       4.481174       0.00075
  45    0.1794        2.4609        0.0000        6.9421        6.9421       4.481171       0.00077
  44    0.2165        2.4609        0.0000        6.9421        6.9421       4.481168       0.00076
  43    0.2613        2.4609        0.0000        6.9420        6.9420       4.481164       0.00074
  42    0.3336        2.4609        0.0000        6.9420        6.9420       4.481157       0.00076
  41    0.4307        2.4609        0.0000        6.9420        6.9420       4.481149       0.00077
  40    0.5894        2.4609        0.0000        6.9420        6.9420       4.481134       0.00079
  39     1.339        2.4609        0.0000        6.9419        6.9419       4.481045       0.00100
  38     1.782        2.4609        0.0000        6.9418        6.9419       4.480975       0.00132
  37     2.292        2.4609        0.0000        6.9418        6.9418       4.480882       0.00155
  36     2.964        2.4609        0.0000        6.9416        6.9416       4.480743       0.00175
  35     3.853        2.4609        0.0000        6.9414        6.9414       4.480536       0.00196
  34     5.035        2.4609        0.0000        6.9411        6.9411       4.480231       0.00218
  33     6.613        2.4609        0.0000        6.9406        6.9407       4.479784       0.00239
  32     8.786        2.4609        0.0000        6.9399        6.9400       4.479124       0.00256
  31     11.80        2.4609        0.0000        6.9389        6.9389       4.478089       0.00290
  30     15.07        2.4608        0.0001        6.9377        6.9377       4.476879       0.00312
  29     18.79        2.4608        0.0001        6.9362        6.9363       4.475420       0.00331
  28     23.16        2.4608        0.0001        6.9343        6.9344       4.473616       0.00349
  27     28.12        2.4608        0.0001        6.9321        6.9323       4.471441       0.00370
  26     33.73        2.4608        0.0001        6.9294        6.9296       4.468773       0.00401
  25     40.54        2.4608        0.0002        6.9258        6.9260       4.465176       0.00446
  24     48.69        2.4608        0.0002        6.9210        6.9212       4.460413       0.00493
  23     57.69        2.4608        0.0002        6.9154        6.9156       4.454810       0.00525
  22     68.43        2.4608        0.0003        6.9083        6.9086       4.447843       0.00548
  21     81.20        2.4608        0.0003        6.8998        6.9001       4.439323       0.00563
  20     96.49        2.4608        0.0004        6.8894        6.8898       4.429031       0.00568
  19     114.6        2.4609        0.0005        6.8765        6.8770       4.416142       0.00602
  18     136.5        2.4609        0.0006        6.8610        6.8615       4.400588       0.00598
  17     162.9        2.4611        0.0007        6.8417        6.8423       4.381226       0.00619
  16     196.4        2.4614        0.0008        6.8147        6.8155       4.354042       0.00684
  15     218.7        2.4617        0.0009        6.7948        6.7957       4.334000       0.00761
  14     243.0        2.4622        0.0010        6.7698        6.7708       4.308558       0.00882
  13     269.0        2.4630        0.0011        6.7349        6.7359       4.272932       0.01156
  12     297.5        2.4642        0.0012        6.6869        6.6880       4.223814       0.01457
  11     328.5        2.4660        0.0013        6.6194        6.6207       4.154676       0.01880
  10     361.9        2.4683        0.0014        6.5295        6.5309       4.062553       0.02331
   9     398.1        2.4714        0.0015        6.4202        6.4217       3.950377       0.02613
   8     437.6        2.4754        0.0017        6.2962        6.2978       3.822455       0.02735
   7     480.5        2.4808        0.0018        6.1555        6.1573       3.676500       0.02867
   6     533.0        2.4894        0.0019        5.9675        5.9695       3.480071       0.03160
   5     589.8        2.5018        0.0021        5.7368        5.7389       3.237062       0.03607
   4     651.6        2.5197        0.0022        5.4662        5.4685       2.948815       0.03942
   3     718.7        2.5440        0.0024        5.1912        5.1936       2.649571       0.03761
   2     792.3        2.5754        0.0025        4.9395        4.9420       2.366655       0.03245
   1     891.5        2.6289        0.0027        4.6486        4.6513       2.022399       0.02929
   0    1013.0        2.7248        0.0029        4.3179        4.3208       1.595982       0.02961



 Wavenumbers:  4650. -  5150. cm-1, ATM      1
 LEVEL PRESSURE   UPWARD FLUX   DIFDOWN FLUX  DIRDOWN FLUX  DOWNWARD FLUX   NET FLUX    HEATING RATE
          mb          W/m2          W/m2          W/m2        W/m2          W/m2       degree/day
  51    .06700        1.6610        0.0000        6.5710        6.5710       4.910014       0.00000
  50    .07753        1.6610        0.0000        6.5708        6.5708       4.909779       0.18887
  49    .09103        1.6610        0.0000        6.5705        6.5705       4.909485       0.18362
  48    0.1069        1.6610        0.0000        6.5701        6.5701       4.909150       0.17806
  47    0.1255        1.6610        0.0000        6.5697        6.5697       4.908770       0.17238
  46    0.1487        1.6610        0.0000        6.5693        6.5693       4.908296       0.17268
  45    0.1794        1.6610        0.0000        6.5686        6.5686       4.907660       0.17473
  44    0.2165        1.6610        0.0000        6.5679        6.5679       4.906922       0.16788
  43    0.2613        1.6610        0.0000        6.5670        6.5670       4.906069       0.16078
  42    0.3336        1.6610        0.0000        6.5657        6.5657       4.904706       0.15894
  41    0.4307        1.6610        0.0000        6.5640        6.5640       4.902984       0.14971
  40    0.5894        1.6610        0.0000        6.5613        6.5613       4.900368       0.13913
  39     1.339        1.6610        0.0000        6.5516        6.5516       4.890590       0.11008
  38     1.782        1.6610        0.0000        6.5473        6.5473       4.886374       0.08026
  37     2.292        1.6610        0.0000        6.5434        6.5435       4.882487       0.06438
  36     2.964        1.6610        0.0000        6.5395        6.5395       4.878533       0.04964
  35     3.853        1.6610        0.0000        6.5355        6.5356       4.874590       0.03742
  34     5.035        1.6610        0.0000        6.5315        6.5315       4.870587       0.02859
  33     6.613        1.6610        0.0000        6.5271        6.5271       4.866192       0.02349
  32     8.786        1.6609        0.0001        6.5216        6.5216       4.860696       0.02134
  31     11.80        1.6609        0.0001        6.5135        6.5135       4.852616       0.02262
  30     15.07        1.6609        0.0001        6.5041        6.5042       4.843245       0.02419
  29     18.79        1.6609        0.0001        6.4925        6.4926       4.831726       0.02612
  28     23.16        1.6609        0.0001        6.4779        6.4780       4.817129       0.02823
  27     28.12        1.6609        0.0002        6.4599        6.4600       4.799147       0.03057
  26     33.73        1.6609        0.0002        6.4384        6.4386       4.777707       0.03224
  25     40.54        1.6609        0.0002        6.4112        6.4115       4.750570       0.03367
  24     48.69        1.6609        0.0003        6.3775        6.3778       4.716916       0.03483
  23     57.69        1.6609        0.0003        6.3404        6.3407       4.679803       0.03479
  22     68.43        1.6609        0.0004        6.2971        6.2975       4.636584       0.03398
  21     81.20        1.6610        0.0005        6.2483        6.2487       4.587729       0.03228
  20     96.49        1.6611        0.0006        6.1948        6.1954       4.534303       0.02949
  19     114.6        1.6612        0.0007        6.1381        6.1388       4.477593       0.02648
  18     136.5        1.6614        0.0008        6.0790        6.0798       4.418380       0.02277
  17     162.9        1.6617        0.0009        6.0160        6.0170       4.355275       0.02017
  16     196.4        1.6622        0.0011        5.9399        5.9410       4.278801       0.01925
  15     218.7        1.6626        0.0012        5.8896        5.8909       4.228277       0.01918
  14     243.0        1.6631        0.0013        5.8322        5.8335       4.170393       0.02008
  13     269.0        1.6640        0.0015        5.7624        5.7639       4.099897       0.02287
  12     297.5        1.6652        0.0016        5.6767        5.6784       4.013119       0.02574
  11     328.5        1.6670        0.0018        5.5726        5.5744       3.907390       0.02875
  10     361.9        1.6693        0.0019        5.4473        5.4492       3.779899       0.03226
   9     398.1        1.6726        0.0021        5.2995        5.3016       3.629003       0.03516
   8     437.6        1.6769        0.0022        5.1275        5.1297       3.452834       0.03767
   7     480.5        1.6827        0.0024        4.9290        4.9313       3.248632       0.04010
   6     533.0        1.6919        0.0025        4.6794        4.6819       2.989989       0.04161
   5     589.8        1.7047        0.0027        4.4188        4.4215       2.716774       0.04055
   4     651.6        1.7225        0.0028        4.1521        4.1549       2.432383       0.03889
   3     718.7        1.7463        0.0030        3.8929        3.8959       2.149635       0.03553
   2     792.3        1.7770        0.0031        3.6469        3.6500       1.873027       0.03172
   1     891.5        1.8291        0.0033        3.3535        3.3568       1.527647       0.02939
   0    1013.0        1.9183        0.0035        3.0383        3.0418       1.123495       0.02806



 Wavenumbers:  5150. -  6150. cm-1, ATM      1
 LEVEL PRESSURE   UPWARD FLUX   DIFDOWN FLUX  DIRDOWN FLUX  DOWNWARD FLUX   NET FLUX    HEATING RATE
          mb          W/m2          W/m2          W/m2        W/m2          W/m2       degree/day
  51    .06700        4.4831        0.0000       16.4735       16.4735      11.990425       0.00000
  50    .07753        4.4831        0.0000       16.4735       16.4735      11.990390       0.02762
  49    .09103        4.4831        0.0000       16.4734       16.4734      11.990345       0.02812
  48    0.1069        4.4831        0.0000       16.4734       16.4734      11.990291       0.02860
  47    0.1255        4.4831        0.0000       16.4733       16.4733      11.990227       0.02905
  46    0.1487        4.4831        0.0000       16.4732       16.4732      11.990143       0.03061
  45    0.1794        4.4831        0.0000       16.4731       16.4731      11.990024       0.03270
  44    0.2165        4.4831        0.0000       16.4730       16.4730      11.989878       0.03332
  43    0.2613        4.4831        0.0000       16.4728       16.4728      11.989698       0.03377
  42    0.3336        4.4831        0.0000       16.4725       16.4725      11.989393       0.03565
  41    0.4307        4.4831        0.0000       16.4720       16.4720      11.988973       0.03647
  40    0.5894        4.4831        0.0000       16.4713       16.4713      11.988272       0.03730
  39     1.339        4.4831        0.0000       16.4679       16.4679      11.984862       0.03839
  38     1.782        4.4831        0.0000       16.4659       16.4659      11.982861       0.03809
  37     2.292        4.4830        0.0001       16.4635       16.4636      11.980568       0.03798
  36     2.964        4.4830        0.0001       16.4605       16.4606      11.977597       0.03730
  35     3.853        4.4830        0.0001       16.4567       16.4568      11.973740       0.03660
  34     5.035        4.4830        0.0001       16.4516       16.4517      11.968738       0.03573
  33     6.613        4.4830        0.0002       16.4451       16.4452      11.962271       0.03458
  32     8.786        4.4829        0.0002       16.4367       16.4369      11.953948       0.03232
  31     11.80        4.4829        0.0003       16.4254       16.4257      11.942780       0.03127
  30     15.07        4.4829        0.0004       16.4141       16.4145      11.931673       0.02868
  29     18.79        4.4828        0.0005       16.4024       16.4030      11.920129       0.02618
  28     23.16        4.4828        0.0006       16.3900       16.3906      11.907837       0.02377
  27     28.12        4.4827        0.0008       16.3771       16.3779      11.895137       0.02159
  26     33.73        4.4827        0.0009       16.3641       16.3650      11.882365       0.01920
  25     40.54        4.4826        0.0011       16.3502       16.3513      11.868663       0.01700
  24     48.69        4.4826        0.0013       16.3354       16.3367      11.854108       0.01506
  23     57.69        4.4826        0.0016       16.3211       16.3227      11.840109       0.01312
  22     68.43        4.4825        0.0019       16.3062       16.3081      11.825596       0.01141
  21     81.20        4.4825        0.0022       16.2903       16.2926      11.810048       0.01027
  20     96.49        4.4825        0.0027       16.2726       16.2753      11.792783       0.00953
  19     114.6        4.4825        0.0031       16.2521       16.2552      11.772734       0.00936
  18     136.5        4.4825        0.0037       16.2245       16.2283      11.745786       0.01036
  17     162.9        4.4825        0.0044       16.1747       16.1792      11.696645       0.01571
  16     196.4        4.4826        0.0053       16.0518       16.0572      11.574554       0.03073
  15     218.7        4.4827        0.0059       15.8984       15.9043      11.421571       0.05808
  14     243.0        4.4828        0.0065       15.6153       15.6217      11.138878       0.09805
  13     269.0        4.4831        0.0070       15.1390       15.1460      10.662887       0.15441
  12     297.5        4.4836        0.0075       14.5779       14.5854      10.101858       0.16640
  11     328.5        4.4843        0.0080       13.8780       13.8861       9.401745       0.19036
  10     361.9        4.4855        0.0085       13.0814       13.0899       8.604476       0.20172
   9     398.1        4.4871        0.0089       12.2728       12.2817       7.794628       0.18868
   8     437.6        4.4895        0.0093       11.4776       11.4868       6.997309       0.17047
   7     480.5        4.4931        0.0096       10.7300       10.7396       6.246442       0.14747
   6     533.0        4.4993        0.0100       10.0326       10.0426       5.543304       0.11311
   5     589.8        4.5087        0.0105        9.5050        9.5156       5.006847       0.07963
   4     651.6        4.5230        0.0112        9.0814        9.0926       4.569526       0.05980
   3     718.7        4.5434        0.0119        8.7024        8.7143       4.170936       0.05009
   2     792.3        4.5709        0.0127        8.3379        8.3507       3.779723       0.04487
   1     891.5        4.6212        0.0137        7.9064        7.9201       3.298911       0.04091
   0    1013.0        4.7232        0.0149        7.4741        7.4890       2.765810       0.03702



 Wavenumbers:  6150. -  7700. cm-1, ATM      1
 LEVEL PRESSURE   UPWARD FLUX   DIFDOWN FLUX  DIRDOWN FLUX  DOWNWARD FLUX   NET FLUX    HEATING RATE
          mb          W/m2          W/m2          W/m2        W/m2          W/m2       degree/day
  51    .06700        6.5682        0.0000       30.4684       30.4684      23.900184       0.00000
  50    .07753        6.5682        0.0000       30.4683       30.4683      23.900133       0.04144
  49    .09103        6.5682        0.0000       30.4683       30.4683      23.900066       0.04174
  48    0.1069        6.5682        0.0000       30.4682       30.4682      23.899987       0.04202
  47    0.1255        6.5682        0.0000       30.4681       30.4681      23.899894       0.04227
  46    0.1487        6.5682        0.0000       30.4680       30.4680      23.899773       0.04411
  45    0.1794        6.5682        0.0000       30.4678       30.4678      23.899603       0.04669
  44    0.2165        6.5682        0.0000       30.4676       30.4676      23.899395       0.04715
  43    0.2613        6.5682        0.0000       30.4673       30.4673      23.899144       0.04744
  42    0.3336        6.5682        0.0000       30.4669       30.4669      23.898717       0.04974
  41    0.4307        6.5682        0.0000       30.4663       30.4663      23.898136       0.05052
  40    0.5894        6.5681        0.0001       30.4653       30.4653      23.897168       0.05146
  39     1.339        6.5681        0.0001       30.4604       30.4606      23.892485       0.05273
  38     1.782        6.5680        0.0002       30.4576       30.4578      23.889735       0.05235
  37     2.292        6.5680        0.0003       30.4543       30.4546      23.886576       0.05231
  36     2.964        6.5679        0.0003       30.4501       30.4504      23.882469       0.05156
  35     3.853        6.5678        0.0004       30.4445       30.4450      23.877112       0.05084
  34     5.035        6.5677        0.0006       30.4373       30.4378      23.870112       0.05000
  33     6.613        6.5676        0.0008       30.4278       30.4285      23.860965       0.04890
  32     8.786        6.5674        0.0010       30.4154       30.4164      23.849012       0.04642
  31     11.80        6.5671        0.0013       30.3984       30.3997      23.832626       0.04587
  30     15.07        6.5668        0.0017       30.3810       30.3827      23.815913       0.04315
  29     18.79        6.5664        0.0022       30.3623       30.3644      23.798012       0.04059
  28     23.16        6.5660        0.0026       30.3417       30.3444      23.778329       0.03806
  27     28.12        6.5656        0.0032       30.3196       30.3228      23.757229       0.03587
  26     33.73        6.5650        0.0039       30.2965       30.3003      23.735310       0.03296
  25     40.54        6.5644        0.0046       30.2708       30.2754      23.710972       0.03019
  24     48.69        6.5636        0.0055       30.2423       30.2478      23.684195       0.02771
  23     57.69        6.5628        0.0066       30.2139       30.2204      23.657628       0.02490
  22     68.43        6.5618        0.0078       30.1834       30.1912      23.629351       0.02223
  21     81.20        6.5606        0.0092       30.1500       30.1592      23.598621       0.02031
  20     96.49        6.5592        0.0110       30.1126       30.1236      23.564400       0.01889
  19     114.6        6.5575        0.0130       30.0695       30.0825      23.525011       0.01839
  18     136.5        6.5555        0.0154       30.0139       30.0294      23.473850       0.01967
  17     162.9        6.5531        0.0183       29.9225       29.9408      23.387658       0.02755
  16     196.4        6.5501        0.0220       29.7333       29.7554      23.205239       0.04592
  15     218.7        6.5482        0.0244       29.5259       29.5503      23.002077       0.07713
  14     243.0        6.5462        0.0269       29.1375       29.1644      22.618189       0.13315
  13     269.0        6.5442        0.0293       28.3800       28.4093      21.865071       0.24431
  12     297.5        6.5425        0.0315       27.3895       27.4211      20.878612       0.29257
  11     328.5        6.5412        0.0337       26.2257       26.2594      19.718235       0.31550
  10     361.9        6.5406        0.0357       24.8453       24.8810      18.340387       0.34861
   9     398.1        6.5413        0.0374       23.3471       23.3845      16.843222       0.34881
   8     437.6        6.5438        0.0390       21.7966       21.8356      15.291768       0.33171
   7     480.5        6.5496        0.0402       20.1977       20.2379      13.688268       0.31492
   6     533.0        6.5621        0.0414       18.4969       18.5384      11.976230       0.27541
   5     589.8        6.5839        0.0427       16.9754       17.0181      10.434222       0.22888
   4     651.6        6.6198        0.0440       15.6022       15.6462       9.026381       0.19253
   3     718.7        6.6733        0.0455       14.4232       14.4687       7.795391       0.15470
   2     792.3        6.7473        0.0472       13.4386       13.4858       6.738560       0.12121
   1     891.5        6.8837        0.0496       12.3736       12.4232       5.539551       0.10203
   0    1013.0        7.1553        0.0523       11.2911       11.3434       4.188069       0.09384



 Wavenumbers:  7700. -  8050. cm-1, ATM      1
 LEVEL PRESSURE   UPWARD FLUX   DIFDOWN FLUX  DIRDOWN FLUX  DOWNWARD FLUX   NET FLUX    HEATING RATE
          mb          W/m2          W/m2          W/m2        W/m2          W/m2       degree/day
  51    .06700        3.4107        0.0000        7.2006        7.2006       3.789838       0.00000
  50    .07753        3.4107        0.0000        7.2006        7.2006       3.789818       0.01595
  49    .09103        3.4108        0.0000        7.2005        7.2005       3.789793       0.01563
  48    0.1069        3.4108        0.0000        7.2005        7.2005       3.789764       0.01530
  47    0.1255        3.4108        0.0000        7.2005        7.2005       3.789731       0.01498
  46    0.1487        3.4108        0.0000        7.2004        7.2005       3.789689       0.01520
  45    0.1794        3.4108        0.0000        7.2004        7.2004       3.789632       0.01564
  44    0.2165        3.4108        0.0000        7.2003        7.2003       3.789565       0.01534
  43    0.2613        3.4108        0.0000        7.2003        7.2003       3.789485       0.01505
  42    0.3336        3.4108        0.0000        7.2001        7.2001       3.789353       0.01540
  41    0.4307        3.4108        0.0000        7.2000        7.2000       3.789178       0.01523
  40    0.5894        3.4108        0.0000        7.1997        7.1997       3.788892       0.01521
  39     1.339        3.4110        0.0001        7.1984        7.1985       3.787539       0.01523
  38     1.782        3.4110        0.0001        7.1977        7.1978       3.786744       0.01513
  37     2.292        3.4111        0.0001        7.1968        7.1969       3.785825       0.01523
  36     2.964        3.4112        0.0001        7.1957        7.1958       3.784618       0.01515
  35     3.853        3.4114        0.0002        7.1942        7.1944       3.783024       0.01512
  34     5.035        3.4116        0.0002        7.1922        7.1925       3.780909       0.01511
  33     6.613        3.4118        0.0003        7.1896        7.1899       3.778085       0.01509
  32     8.786        3.4122        0.0004        7.1860        7.1865       3.774285       0.01476
  31     11.80        3.4127        0.0006        7.1810        7.1815       3.768861       0.01519
  30     15.07        3.4132        0.0007        7.1755        7.1763       3.763051       0.01500
  29     18.79        3.4139        0.0009        7.1694        7.1704       3.756508       0.01484
  28     23.16        3.4146        0.0011        7.1623        7.1635       3.748891       0.01473
  27     28.12        3.4154        0.0014        7.1542        7.1556       3.740216       0.01475
  26     33.73        3.4163        0.0016        7.1452        7.1469       3.730554       0.01453
  25     40.54        3.4175        0.0020        7.1344        7.1364       3.718945       0.01440
  24     48.69        3.4188        0.0024        7.1215        7.1239       3.705043       0.01439
  23     57.69        3.4204        0.0028        7.1074        7.1102       3.689892       0.01420
  22     68.43        3.4222        0.0033        7.0909        7.0942       3.672006       0.01406
  21     81.20        3.4244        0.0039        7.0713        7.0753       3.650922       0.01393
  20     96.49        3.4270        0.0047        7.0484        7.0531       3.626109       0.01370
  19     114.6        3.4301        0.0055        7.0217        7.0272       3.597071       0.01356
  18     136.5        3.4339        0.0065        6.9906        6.9971       3.563225       0.01301
  17     162.9        3.4385        0.0078        6.9544        6.9622       3.523678       0.01264
  16     196.4        3.4445        0.0093        6.9087        6.9181       3.473554       0.01262
  15     218.7        3.4485        0.0103        6.8794        6.8898       3.441236       0.01227
  14     243.0        3.4530        0.0115        6.8481        6.8596       3.406587       0.01202
  13     269.0        3.4579        0.0127        6.8147        6.8274       3.369465       0.01204
  12     297.5        3.4634        0.0140        6.7791        6.7930       3.329653       0.01181
  11     328.5        3.4695        0.0154        6.7409        6.7563       3.286816       0.01165
  10     361.9        3.4763        0.0168        6.7002        6.7170       3.240670       0.01168
   9     398.1        3.4841        0.0185        6.6563        6.6747       3.190650       0.01165
   8     437.6        3.4929        0.0202        6.6089        6.6290       3.136159       0.01165
   7     480.5        3.5030        0.0220        6.5570        6.5790       3.075973       0.01182
   6     533.0        3.5166        0.0242        6.4915        6.5157       2.999076       0.01237
   5     589.8        3.5329        0.0266        6.4182        6.4449       2.911982       0.01293
   4     651.6        3.5524        0.0292        6.3359        6.3651       2.812635       0.01359
   3     718.7        3.5757        0.0319        6.2441        6.2760       2.700302       0.01412
   2     792.3        3.6031        0.0348        6.1437        6.1785       2.575441       0.01432
   1     891.5        3.6441        0.0385        6.0042        6.0427       2.398664       0.01504
   0    1013.0        3.7020        0.0429        5.8249        5.8678       2.165775       0.01617



 Wavenumbers:  8050. - 12850. cm-1, ATM      1
 LEVEL PRESSURE   UPWARD FLUX   DIFDOWN FLUX  DIRDOWN FLUX  DOWNWARD FLUX   NET FLUX    HEATING RATE
          mb          W/m2          W/m2          W/m2        W/m2          W/m2       degree/day
  51    .06700       43.2832        0.0000      100.8135      100.8135      57.530335       0.00000
  50    .07753       43.2832        0.0000      100.8135      100.8135      57.530335       0.00000
  49    .09103       43.2831        0.0001      100.8134      100.8135      57.530335      -0.00000
  48    0.1069       43.2831        0.0001      100.8134      100.8135      57.530335      -0.00000
  47    0.1255       43.2831        0.0001      100.8133      100.8134      57.530335       0.00000
  46    0.1487       43.2831        0.0002      100.8132      100.8134      57.530335      -0.00000
  45    0.1794       43.2830        0.0003      100.8131      100.8133      57.530335       0.00000
  44    0.2165       43.2829        0.0004      100.8129      100.8133      57.530335      -0.00000
  43    0.2613       43.2829        0.0005      100.8127      100.8132      57.530335      -0.00000
  42    0.3336       43.2828        0.0006      100.8125      100.8131      57.530335       0.00000
  41    0.4307       43.2826        0.0009      100.8121      100.8129      57.530335       0.00000
  40    0.5894       43.2824        0.0012      100.8115      100.8127      57.530335      -0.00000
  39     1.339       43.2812        0.0030      100.8085      100.8115      57.530335       0.00000
  38     1.782       43.2805        0.0041      100.8068      100.8108      57.530335      -0.00000
  37     2.292       43.2797        0.0053      100.8047      100.8100      57.530335       0.00000
  36     2.964       43.2786        0.0069      100.8021      100.8090      57.530335      -0.00000
  35     3.853       43.2772        0.0090      100.7986      100.8076      57.530335       0.00000
  34     5.035       43.2754        0.0118      100.7940      100.8057      57.530335       0.00000
  33     6.613       43.2729        0.0155      100.7878      100.8033      57.530335      -0.00000
  32     8.786       43.2696        0.0205      100.7794      100.7999      57.530335       0.00000
  31     11.80       43.2648        0.0277      100.7674      100.7952      57.530335      -0.00000
  30     15.07       43.2597        0.0355      100.7546      100.7900      57.530335       0.00000
  29     18.79       43.2539        0.0442      100.7400      100.7842      57.530335       0.00000
  28     23.16       43.2471        0.0545      100.7230      100.7774      57.530335      -0.00000
  27     28.12       43.2393        0.0662      100.7035      100.7697      57.530335       0.00000
  26     33.73       43.2306        0.0793      100.6817      100.7610      57.530335      -0.00000
  25     40.54       43.2201        0.0952      100.6552      100.7505      57.530335       0.00000
  24     48.69       43.2074        0.1144      100.6234      100.7377      57.530335      -0.00000
  23     57.69       43.1934        0.1355      100.5883      100.7238      57.530335       0.00000
  22     68.43       43.1768        0.1606      100.5464      100.7071      57.530335       0.00000
  21     81.20       43.1569        0.1907      100.4965      100.6872      57.530335      -0.00000
  20     96.49       43.1331        0.2265      100.4370      100.6634      57.530335       0.00000
  19     114.6       43.1049        0.2691      100.3585      100.6275      57.522602       0.00361
  18     136.5       43.0715        0.3196      100.2634      100.5830      57.511477       0.00428
  17     162.9       43.0317        0.3800      100.1407      100.5206      57.488920       0.00721
  16     196.4       42.9801        0.4583       99.9505      100.4088      57.428736       0.01515
  15     218.7       42.9461        0.5098       99.7889      100.2987      57.352592       0.02891
  14     243.0       42.9094        0.5657       99.5472      100.1128      57.203449       0.05173
  13     269.0       42.8703        0.6259       99.1452       99.7711      56.900814       0.09817
  12     297.5       42.8294        0.6905       98.5975       99.2880      56.458590       0.13116
  11     328.5       42.7876        0.7598       97.8659       98.6256      55.838063       0.16872
  10     361.9       42.7463        0.8334       96.8848       97.7181      54.971854       0.21916
   9     398.1       42.7075        0.9111       95.6330       96.5441      53.836621       0.26448
   8     437.6       42.6747        0.9926       94.0655       95.0581      52.383316       0.31073
   7     480.5       42.6552        1.0768       92.0807       93.1576      50.502413       0.36940
   6     533.0       42.6572        1.1765       89.4449       90.6213      47.964085       0.40834
   5     589.8       42.6983        1.2795       86.5544       87.8339      45.135602       0.41984
   4     651.6       42.7999        1.3854       83.4174       84.8028      42.002919       0.42840
   3     718.7       42.9753        1.4950       80.2037       81.6987      38.723335       0.41215
   2     792.3       43.2366        1.6088       77.0811       78.6899      35.453306       0.37504
   1     891.5       43.7456        1.7562       73.2645       75.0207      31.275155       0.35554
   0    1013.0       44.7669        1.9209       68.9425       70.8634      26.096441       0.35958



 Wavenumbers: 12850. - 16000. cm-1, ATM      1
 LEVEL PRESSURE   UPWARD FLUX   DIFDOWN FLUX  DIRDOWN FLUX  DOWNWARD FLUX   NET FLUX    HEATING RATE
          mb          W/m2          W/m2          W/m2        W/m2          W/m2       degree/day
  51    .06700       42.8795        0.0000       63.1686       63.1686      20.289114       0.00000
  50    .07753       42.8794        0.0001       63.1677       63.1678      20.288333       0.62612
  49    .09103       42.8794        0.0001       63.1666       63.1668      20.287359       0.60870
  48    0.1069       42.8794        0.0002       63.1654       63.1656      20.286249       0.59051
  47    0.1255       42.8794        0.0003       63.1640       63.1643      20.284987       0.57228
  46    0.1487       42.8793        0.0004       63.1623       63.1627      20.283412       0.57420
  45    0.1794       42.8793        0.0006       63.1600       63.1606      20.281298       0.58027
  44    0.2165       42.8793        0.0008       63.1573       63.1581      20.278852       0.55647
  43    0.2613       42.8792        0.0010       63.1542       63.1553      20.276028       0.53234
  42    0.3336       42.8792        0.0014       63.1493       63.1507      20.271523       0.52523
  41    0.4307       42.8792        0.0020       63.1431       63.1451      20.265881       0.49059
  40    0.5894       42.8793        0.0028       63.1338       63.1366      20.257315       0.45551
  39     1.339       42.8814        0.0068       63.0956       63.1024      20.221050       0.40828
  38     1.782       42.8837        0.0092       63.0740       63.0832      20.199534       0.40963
  37     2.292       42.8875        0.0120       63.0477       63.0596      20.172149       0.45357
  36     2.964       42.8940        0.0156       63.0095       63.0251      20.131045       0.51598
  35     3.853       42.9050        0.0203       62.9533       62.9736      20.068572       0.59288
  34     5.035       42.9218        0.0266       62.8725       62.8991      19.977325       0.65183
  33     6.613       42.9454        0.0350       62.7621       62.7971      19.851709       0.67155
  32     8.786       42.9759        0.0463       62.6182       62.6646      19.688624       0.63336
  31     11.80       43.0152        0.0624       62.4284       62.4908      19.475576       0.59647
  30     15.07       43.0522        0.0797       62.2426       62.3223      19.270091       0.53052
  29     18.79       43.0894        0.0992       62.0493       62.1485      19.059095       0.47839
  28     23.16       43.1275        0.1219       61.8424       61.9644      18.836901       0.42965
  27     28.12       43.1647        0.1478       61.6278       61.7756      18.610923       0.38415
  26     33.73       43.1974        0.1768       61.4177       61.5944      18.396984       0.32166
  25     40.54       43.2266        0.2117       61.1983       61.4100      18.183337       0.26505
  24     48.69       43.2518        0.2537       60.9680       61.2217      17.969933       0.22084
  23     57.69       43.2696        0.2998       60.7478       61.0476      17.778031       0.17988
  22     68.43       43.2803        0.3547       60.5202       60.8749      17.594626       0.14418
  21     81.20       43.2785        0.4201       60.2938       60.7139      17.435381       0.10523
  20     96.49       43.2630        0.4979       60.0643       60.5622      17.299162       0.07518
  19     114.6       43.2461        0.5910       59.8078       60.3988      17.152756       0.06836
  18     136.5       43.2197        0.7012       59.5157       60.2169      16.997207       0.05981
  17     162.9       43.1826        0.8321       59.1770       60.0091      16.826483       0.05457
  16     196.4       43.1225        1.0014       58.7604       59.7618      16.639391       0.04709
  15     218.7       43.0786        1.1124       58.4948       59.6072      16.528576       0.04207
  14     243.0       43.0290        1.2327       58.2089       59.4416      16.412631       0.04021
  13     269.0       42.9736        1.3629       57.9006       59.2635      16.289894       0.03982
  12     297.5       42.9126        1.5034       57.5668       59.0701      16.157581       0.03924
  11     328.5       42.8470        1.6548       57.2005       58.8552      16.008218       0.04061
  10     361.9       42.7778        1.8173       56.7963       58.6137      15.835881       0.04360
   9     398.1       42.7058        1.9918       56.3475       58.3393      15.633537       0.04714
   8     437.6       42.6330        2.1784       55.8422       58.0206      15.387533       0.05260
   7     480.5       42.5636        2.3772       55.2625       57.6398      15.076223       0.06114
   6     533.0       42.4923        2.6202       54.4972       57.1174      14.625070       0.07258
   5     589.8       42.4332        2.8789       53.6307       56.5095      14.076316       0.08145
   4     651.6       42.3941        3.1524       52.6606       55.8130      13.418894       0.08990
   3     718.7       42.3787        3.4412       51.6100       55.0512      12.672497       0.09380
   2     792.3       42.3923        3.7451       50.5019       54.2469      11.854659       0.09380
   1     891.5       42.4713        4.1461       49.0197       53.1658      10.694433       0.09873
   0    1013.0       42.6900        4.6120       47.2289       51.8409       9.150863       0.10718



 Wavenumbers: 16000. - 22650. cm-1, ATM      1
 LEVEL PRESSURE   UPWARD FLUX   DIFDOWN FLUX  DIRDOWN FLUX  DOWNWARD FLUX   NET FLUX    HEATING RATE
          mb          W/m2          W/m2          W/m2        W/m2          W/m2       degree/day
  51    .06700       86.7502        0.0000      100.7153      100.7153      13.965062       0.00000
  50    .07753       86.7501        0.0003      100.7147      100.7151      13.964939       0.09792
  49    .09103       86.7500        0.0008      100.7140      100.7148      13.964762       0.11106
  48    0.1069       86.7499        0.0013      100.7131      100.7144      13.964524       0.12665
  47    0.1255       86.7497        0.0018      100.7121      100.7139      13.964205       0.14436
  46    0.1487       86.7496        0.0025      100.7108      100.7133      13.963736       0.17107
  45    0.1794       86.7494        0.0035      100.7089      100.7124      13.963002       0.20142
  44    0.2165       86.7492        0.0046      100.7066      100.7112      13.962007       0.22637
  43    0.2613       86.7490        0.0060      100.7037      100.7097      13.960657       0.25449
  42    0.3336       86.7488        0.0082      100.6987      100.7069      13.958090       0.29927
  41    0.4307       86.7488        0.0112      100.6918      100.7030      13.954221       0.33641
  40    0.5894       86.7490        0.0161      100.6797      100.6958      13.946842       0.39239
  39     1.339       86.7563        0.0391      100.6095      100.6486      13.892338       0.61362
  38     1.782       86.7652        0.0526      100.5585      100.6111      13.845919       0.88374
  37     2.292       86.7798        0.0683      100.4903      100.5585      13.778746       1.11255
  36     2.964       86.8056        0.0888      100.3868      100.4755      13.669972       1.36545
  35     3.853       86.8490        0.1158      100.2306      100.3464      13.497487       1.63692
  34     5.035       86.9158        0.1518      100.0045      100.1562      13.240403       1.83650
  33     6.613       87.0099        0.1996       99.6939       99.8935      12.883627       1.90733
  32     8.786       87.1318        0.2640       99.2881       99.5520      12.420239       1.79963
  31     11.80       87.2883        0.3558       98.7496       99.1054      11.817105       1.68859
  30     15.07       87.4353        0.4540       98.2198       98.6738      11.238487       1.49388
  29     18.79       87.5826        0.5646       97.6651       98.2297      10.647081       1.34090
  28     23.16       87.7330        0.6933       97.0671       97.7604      10.027455       1.19816
  27     28.12       87.8796        0.8400       96.4406       97.2805       9.400949       1.06502
  26     33.73       88.0072        1.0036       95.8179       96.8215       8.814256       0.88211
  25     40.54       88.1193        1.2007       95.1548       96.3555       8.236153       0.71720
  24     48.69       88.2137        1.4374       94.4420       95.8793       7.665631       0.59040
  23     57.69       88.2780        1.6964       93.7416       95.4380       7.159975       0.47398
  22     68.43       88.3123        2.0037       92.9954       94.9991       6.686770       0.37200
  21     81.20       88.2951        2.3685       92.2231       94.5916       6.296532       0.25786
  20     96.49       88.2211        2.8013       91.4110       94.2123       5.991224       0.16851
  19     114.6       88.1069        3.3119       90.5070       93.8190       5.712099       0.13033
  18     136.5       87.9541        3.9123       89.4803       93.3926       5.438431       0.10523
  17     162.9       87.7574        4.6205       88.3022       92.9227       5.165314       0.08730
  16     196.4       87.4688        5.5289       86.8606       92.3895       4.920693       0.06157
  15     218.7       87.2678        6.1193       85.9492       92.0685       4.800631       0.04558
  14     243.0       87.0450        6.7555       84.9789       91.7345       4.689441       0.03856
  13     269.0       86.7993        7.4387       83.9493       91.3880       4.588708       0.03268
  12     297.5       86.5301        8.1697       82.8589       91.0286       4.498579       0.02673
  11     328.5       86.2393        8.9512       81.6982       90.6494       4.410102       0.02406
  10     361.9       85.9271        9.7829       80.4669       90.2499       4.322748       0.02210
   9     398.1       85.5930       10.6672       79.1611       89.8283       4.235272       0.02038
   8     437.6       85.2377       11.6042       77.7777       89.3820       4.144239       0.01946
   7     480.5       84.8619       12.5947       76.3136       88.9083       4.046432       0.01921
   6     533.0       84.4074       13.7943       74.5359       88.3301       3.922698       0.01990
   5     589.8       83.9292       15.0634       72.6469       87.7103       3.781093       0.02102
   4     651.6       83.4302       16.4003       70.6456       87.0459       3.615658       0.02262
   3     718.7       82.9115       17.8032       68.5367       86.3399       3.428441       0.02353
   2     792.3       82.3762       19.2669       66.3287       85.5956       3.219359       0.02398
   1     891.5       81.6907       21.1801       63.4246       84.6048       2.914053       0.02598
   0    1013.0       80.9279       23.3836       60.0483       83.4319       2.504024       0.02847



 Wavenumbers: 22650. - 29000. cm-1, ATM      1
 LEVEL PRESSURE   UPWARD FLUX   DIFDOWN FLUX  DIRDOWN FLUX  DOWNWARD FLUX   NET FLUX    HEATING RATE
          mb          W/m2          W/m2          W/m2        W/m2          W/m2       degree/day
  51    .06700       37.0710        0.0000       38.0063       38.0063       0.935332       0.00000
  50    .07753       37.0708        0.0004       38.0057       38.0061       0.935332       0.00000
  49    .09103       37.0706        0.0009       38.0050       38.0059       0.935332       0.00000
  48    0.1069       37.0704        0.0015       38.0042       38.0057       0.935332       0.00000
  47    0.1255       37.0701        0.0021       38.0033       38.0054       0.935332       0.00000
  46    0.1487       37.0698        0.0029       38.0022       38.0051       0.935332       0.00000
  45    0.1794       37.0693        0.0041       38.0006       38.0047       0.935332      -0.00000
  44    0.2165       37.0688        0.0054       37.9987       38.0041       0.935332       0.00000
  43    0.2613       37.0682        0.0070       37.9965       38.0035       0.935332       0.00000
  42    0.3336       37.0671        0.0096       37.9928       38.0024       0.935332       0.00000
  41    0.4307       37.0657        0.0131       37.9880       38.0011       0.935332      -0.00000
  40    0.5894       37.0634        0.0187       37.9800       37.9988       0.935332       0.00000
  39     1.339       37.0527        0.0456       37.9425       37.9880       0.935332      -0.00000
  38     1.782       37.0464        0.0613       37.9204       37.9817       0.935332       0.00000
  37     2.292       37.0391        0.0795       37.8949       37.9744       0.935332       0.00000
  36     2.964       37.0295        0.1034       37.8614       37.9648       0.935332       0.00000
  35     3.853       37.0169        0.1350       37.8172       37.9522       0.935332       0.00000
  34     5.035       37.0001        0.1768       37.7586       37.9354       0.935332      -0.00000
  33     6.613       36.9777        0.2327       37.6803       37.9130       0.935332       0.00000
  32     8.786       36.9476        0.3079       37.5750       37.8829       0.935332       0.00000
  31     11.80       36.9046        0.4151       37.4249       37.8399       0.935332       0.00000
  30     15.07       36.8586        0.5298       37.2642       37.7939       0.935332       0.00000
  29     18.79       36.8068        0.6589       37.0833       37.7422       0.935332       0.00000
  28     23.16       36.7467        0.8090       36.8730       37.6820       0.935332       0.00000
  27     28.12       36.6782        0.9797       36.6338       37.6135       0.935332      -0.00000
  26     33.73       36.6020        1.1696       36.3677       37.5373       0.935332       0.00000
  25     40.54       36.5106        1.3974       36.0486       37.4459       0.935332       0.00000
  24     48.69       36.4014        1.6695       35.6672       37.3367       0.935332       0.00000
  23     57.69       36.2826        1.9652       35.2527       37.2179       0.935332       0.00000
  22     68.43       36.1428        2.3132       34.7649       37.0782       0.935332       0.00000
  21     81.20       35.9786        2.7217       34.1922       36.9140       0.935332       0.00000
  20     96.49       35.7864        3.1999       33.5217       36.7217       0.935332       0.00000
  19     114.6       35.5627        3.7557       32.7424       36.4981       0.935332      -0.00000
  18     136.5       35.3041        4.3978       31.8416       36.2394       0.935332      -0.00000
  17     162.9       35.0050        5.1396       30.8008       35.9404       0.935332       0.00000
  16     196.4       34.6311        6.0658       29.5007       35.5664       0.935332       0.00000
  15     218.7       34.3939        6.6525       28.6767       35.3292       0.935332      -0.00000
  14     243.0       34.1433        7.2718       27.8068       35.0786       0.935332       0.00000
  13     269.0       33.8798        7.9218       26.8933       34.8152       0.935332      -0.00000
  12     297.5       33.6044        8.6005       25.9393       34.5398       0.935332      -0.00000
  11     328.5       33.3171        9.3073       24.9451       34.2524       0.935332       0.00000
  10     361.9       33.0193       10.0386       23.9160       33.9546       0.935332       0.00000
   9     398.1       32.7116       10.7928       22.8541       33.6469       0.935332      -0.00000
   8     437.6       32.3953       11.5662       21.7645       33.3306       0.935332       0.00000
   7     480.5       32.0718       12.3550       20.6521       33.0071       0.935332      -0.00000
   6     533.0       31.6943       13.2727       19.3569       32.6296       0.935332       0.00000
   5     589.8       31.3113       14.1999       18.0467       32.2466       0.935332      -0.00000
   4     651.6       30.9257       15.1294       16.7316       31.8610       0.935332       0.00000
   3     718.7       30.5400       16.0539       15.4214       31.4753       0.935332       0.00000
   2     792.3       30.1575       16.9652       14.1276       31.0928       0.935332      -0.00000
   1     891.5       29.6871       18.0765       12.5459       30.6224       0.935332       0.00000
   0    1013.0       29.1849       19.2485       10.8717       30.1203       0.935332      -0.00000



 Wavenumbers: 29000. - 38000. cm-1, ATM      1
 LEVEL PRESSURE   UPWARD FLUX   DIFDOWN FLUX  DIRDOWN FLUX  DOWNWARD FLUX   NET FLUX    HEATING RATE
          mb          W/m2          W/m2          W/m2        W/m2          W/m2       degree/day
  51    .06700        5.3027        0.0000       13.4026       13.4026       8.099904       0.00000
  50    .07753        5.3025        0.0003       13.3983       13.3986       8.096105       3.04477
  49    .09103        5.3022        0.0007       13.3921       13.3928       8.090585       3.45011
  48    0.1069        5.3019        0.0011       13.3840       13.3851       8.083207       3.92727
  47    0.1255        5.3016        0.0016       13.3733       13.3749       8.073361       4.46377
  46    0.1487        5.3011        0.0022       13.3579       13.3601       8.058917       5.26509
  45    0.1794        5.3006        0.0030       13.3340       13.3371       8.036514       6.15012
  44    0.2165        5.2999        0.0040       13.3024       13.3064       8.006491       6.82974
  43    0.2613        5.2992        0.0052       13.2604       13.2656       7.966430       7.55122
  42    0.3336        5.2980        0.0071       13.1833       13.1904       7.892412       8.62976
  41    0.4307        5.2965        0.0096       13.0729       13.0825       7.786023       9.25033
  40    0.5894        5.2942        0.0135       12.8796       12.8931       7.598945       9.94854
  39     1.339        5.2861        0.0300       11.9165       11.9465       6.660346      10.56692
  38     1.782        5.2831        0.0384       11.4399       11.4783       6.195145       8.85667
  37     2.292        5.2811        0.0474       10.9796       11.0270       5.745901       7.44066
  36     2.964        5.2803        0.0584       10.4786       10.5371       5.256772       6.14005
  35     3.853        5.2819        0.0721        9.9429       10.0150       4.733133       4.96943
  34     5.035        5.2867        0.0892        9.4007        9.4899       4.203244       3.78531
  33     6.613        5.2949        0.1109        8.8752        8.9862       3.691254       2.73710
  32     8.786        5.3061        0.1390        8.3786        8.5176       3.211441       1.86342
  31     11.80        5.3201        0.1775        7.8897        8.0671       2.747059       1.30012
  30     15.07        5.3325        0.2172        7.5108        7.7280       2.395489       0.90768
  29     18.79        5.3445        0.2605        7.1776        7.4382       2.093647       0.68437
  28     23.16        5.3561        0.3094        6.8664        7.1758       1.819721       0.52968
  27     28.12        5.3665        0.3635        6.5780        6.9415       1.575021       0.41597
  26     33.73        5.3729        0.4224        6.3195        6.7419       1.368955       0.30982
  25     40.54        5.3746        0.4920        6.0663        6.5583       1.183660       0.22988
  24     48.69        5.3710        0.5736        5.8128        6.3865       1.015432       0.17409
  23     57.69        5.3617        0.6608        5.5777        6.2385       0.876805       0.12994
  22     68.43        5.3447        0.7618        5.3379        6.0997       0.754944       0.09580
  21     81.20        5.3157        0.8791        5.0965        5.9756       0.659878       0.06282
  20     96.49        5.2734        1.0147        4.8476        5.8624       0.588929       0.03916
  19     114.6        5.2215        1.1687        4.5799        5.7485       0.527028       0.02890
  18     136.5        5.1612        1.3410        4.2891        5.6301       0.468855       0.02237
  17     162.9        5.0925        1.5325        3.9732        5.5057       0.413228       0.01778
  16     196.4        5.0052        1.7627        3.6080        5.3707       0.365503       0.01201
  15     218.7        4.9502        1.9031        3.3898        5.2929       0.342704       0.00866
  14     243.0        4.8933        2.0467        3.1686        5.2153       0.321967       0.00719
  13     269.0        4.8348        2.1923        2.9461        5.1384       0.303622       0.00595
  12     297.5        4.7750        2.3388        2.7239        5.0627       0.287700       0.00472
  11     328.5        4.7150        2.4848        2.5029        4.9877       0.272692       0.00408
  10     361.9        4.6552        2.6292        2.2846        4.9138       0.258623       0.00356
   9     398.1        4.5960        2.7707        2.0708        4.8415       0.245491       0.00306
   8     437.6        4.5379        2.9084        1.8626        4.7710       0.233015       0.00267
   7     480.5        4.4815        3.0407        1.6621        4.7029       0.221335       0.00229
   6     533.0        4.4195        3.1846        1.4437        4.6283       0.208780       0.00202
   5     589.8        4.3609        3.3187        1.2390        4.5577       0.196793       0.00178
   4     651.6        4.3064        3.4416        1.0500        4.4916       0.185212       0.00158
   3     718.7        4.2563        3.5525        0.8778        4.4303       0.173998       0.00141
   2     792.3        4.2111        3.6505        0.7237        4.3742       0.163128       0.00125
   1     891.5        4.1614        3.7549        0.5563        4.3112       0.149833       0.00113
   0    1013.0        4.1156        3.8470        0.4039        4.2509       0.135283       0.00101



 Wavenumbers: 38000. - 50000. cm-1, ATM      1
 LEVEL PRESSURE   UPWARD FLUX   DIFDOWN FLUX  DIRDOWN FLUX  DOWNWARD FLUX   NET FLUX    HEATING RATE
          mb          W/m2          W/m2          W/m2        W/m2          W/m2       degree/day
  51    .06700        0.0051        0.0000        0.8267        0.8267       0.821528       0.00000
  50    .07753        0.0051        0.0001        0.8242        0.8243       0.819196       1.86936
  49    .09103        0.0050        0.0002        0.8207        0.8209       0.815872       2.07705
  48    0.1069        0.0049        0.0002        0.8162        0.8164       0.811514       2.31984
  47    0.1255        0.0048        0.0004        0.8103        0.8106       0.805801       2.59006
  46    0.1487        0.0047        0.0005        0.8018        0.8023       0.797567       3.00143
  45    0.1794        0.0045        0.0007        0.7889        0.7896       0.785013       3.44648
  44    0.2165        0.0044        0.0009        0.7720        0.7729       0.768507       3.75474
  43    0.2613        0.0042        0.0011        0.7500        0.7511       0.746955       4.06246
  42    0.3336        0.0039        0.0015        0.7106        0.7121       0.708267       4.51071
  41    0.4307        0.0035        0.0019        0.6566        0.6584       0.654972       4.63387
  40    0.5894        0.0029        0.0024        0.5680        0.5704       0.567464       4.65357
  39     1.339        0.0015        0.0030        0.2422        0.2452       0.243720       3.64476
  38     1.782        0.0010        0.0026        0.1493        0.1519       0.150889       1.76735
  37     2.292        0.0007        0.0022        0.0924        0.0946       0.093932       0.94336
  36     2.964        0.0005        0.0018        0.0539        0.0557       0.055224       0.48589
  35     3.853        0.0003        0.0013        0.0295        0.0308       0.030502       0.23462
  34     5.035        0.0002        0.0010        0.0154        0.0164       0.016181       0.10230
  33     6.613        0.0001        0.0007        0.0073        0.0080       0.007912       0.04420
  32     8.786        0.0000        0.0004        0.0030        0.0034       0.003390       0.01756
  31     11.80        0.0000        0.0003        0.0010        0.0012       0.001199       0.00613
  30     15.07        0.0000        0.0001        0.0003        0.0005       0.000463       0.00190
  29     18.79        0.0000        0.0001        0.0001        0.0002       0.000182       0.00064
  28     23.16        0.0000        0.0000        0.0000        0.0001       0.000071       0.00022
  27     28.12        0.0000        0.0000        0.0000        0.0000       0.000028       0.00007
  26     33.73        0.0000        0.0000        0.0000        0.0000       0.000011       0.00002
  25     40.54        0.0000        0.0000        0.0000        0.0000       0.000005       0.00001
  24     48.69        0.0000        0.0000        0.0000        0.0000       0.000002       0.00000
  23     57.69        0.0000        0.0000        0.0000        0.0000       0.000001       0.00000
  22     68.43        0.0000        0.0000        0.0000        0.0000       0.000000       0.00000
  21     81.20        0.0000        0.0000        0.0000        0.0000       0.000000       0.00000
  20     96.49        0.0000        0.0000        0.0000        0.0000       0.000000       0.00000
  19     114.6        0.0000        0.0000        0.0000        0.0000       0.000000       0.00000
  18     136.5        0.0000        0.0000        0.0000        0.0000       0.000000       0.00000
  17     162.9        0.0000        0.0000        0.0000        0.0000       0.000000       0.00000
  16     196.4        0.0000        0.0000        0.0000        0.0000       0.000000       0.00000
  15     218.7        0.0000        0.0000        0.0000        0.0000       0.000000       0.00000
  14     243.0        0.0000        0.0000        0.0000        0.0000       0.000000       0.00000
  13     269.0        0.0000        0.0000        0.0000        0.0000       0.000000       0.00000
  12     297.5        0.0000        0.0000        0.0000        0.0000       0.000000       0.00000
  11     328.5        0.0000        0.0000        0.0000        0.0000       0.000000       0.00000
  10     361.9        0.0000        0.0000        0.0000        0.0000       0.000000       0.00000
   9     398.1        0.0000        0.0000        0.0000        0.0000       0.000000       0.00000
   8     437.6        0.0000        0.0000        0.0000        0.0000       0.000000       0.00000
   7     480.5        0.0000        0.0000        0.0000        0.0000       0.000000       0.00000
   6     533.0        0.0000        0.0000        0.0000        0.0000       0.000000       0.00000
   5     589.8        0.0000        0.0000        0.0000        0.0000       0.000000       0.00000
   4     651.6        0.0000        0.0000        0.0000        0.0000       0.000000       0.00000
   3     718.7        0.0000        0.0000        0.0000        0.0000       0.000000       0.00000
   2     792.3        0.0000        0.0000        0.0000        0.0000       0.000000       0.00000
   1     891.5        0.0000        0.0000        0.0000        0.0000       0.000000       0.00000
   0    1013.0        0.0000        0.0000        0.0000        0.0000       0.000000       0.00000



 Wavenumbers:   820. -  2600. cm-1, ATM      1
 LEVEL PRESSURE   UPWARD FLUX   DIFDOWN FLUX  DIRDOWN FLUX  DOWNWARD FLUX   NET FLUX    HEATING RATE
          mb          W/m2          W/m2          W/m2        W/m2          W/m2       degree/day
  51    .06700        0.4126        0.0000        3.8670        3.8670       3.454431       0.00000
  50    .07753        0.4126        0.0000        3.8643        3.8643       3.451714       2.17770
  49    .09103        0.4126        0.0000        3.8635        3.8635       3.450904       0.50638
  48    0.1069        0.4126        0.0000        3.8626        3.8626       3.450013       0.47415
  47    0.1255        0.4126        0.0000        3.8616        3.8616       3.449052       0.43559
  46    0.1487        0.4126        0.0000        3.8605        3.8605       3.447943       0.40437
  45    0.1794        0.4126        0.0000        3.8592        3.8592       3.446608       0.36648
  44    0.2165        0.4126        0.0000        3.8578        3.8578       3.445230       0.31346
  43    0.2613        0.4126        0.0000        3.8564        3.8564       3.443770       0.27522
  42    0.3336        0.4126        0.0000        3.8541        3.8541       3.441539       0.26013
  41    0.4307        0.4126        0.0000        3.8512        3.8512       3.438656       0.25063
  40    0.5894        0.4126        0.0000        3.8465        3.8465       3.433930       0.25134
  39     1.339        0.4126        0.0000        3.8251        3.8251       3.412554       0.24065
  38     1.782        0.4126        0.0000        3.8133        3.8133       3.400741       0.22490
  37     2.292        0.4126        0.0000        3.8003        3.8003       3.387680       0.21633
  36     2.964        0.4126        0.0000        3.7841        3.7841       3.371551       0.20247
  35     3.853        0.4126        0.0000        3.7642        3.7642       3.351636       0.18900
  34     5.035        0.4126        0.0000        3.7395        3.7395       3.326944       0.17639
  33     6.613        0.4126        0.0000        3.7090        3.7090       3.296408       0.16325
  32     8.786        0.4126        0.0000        3.6726        3.6726       3.260014       0.14134
  31     11.80        0.4126        0.0000        3.6320        3.6320       3.219418       0.11366
  30     15.07        0.4126        0.0000        3.6016        3.6016       3.189032       0.07845
  29     18.79        0.4126        0.0000        3.5777        3.5777       3.165132       0.05419
  28     23.16        0.4126        0.0000        3.5564        3.5564       3.143776       0.04130
  27     28.12        0.4126        0.0000        3.5348        3.5348       3.122227       0.03663
  26     33.73        0.4126        0.0000        3.5118        3.5118       3.099191       0.03464
  25     40.54        0.4126        0.0000        3.4849        3.4849       3.072299       0.03336
  24     48.69        0.4126        0.0000        3.4537        3.4537       3.041042       0.03235
  23     57.69        0.4127        0.0000        3.4210        3.4210       3.008363       0.03063
  22     68.43        0.4127        0.0000        3.3844        3.3844       2.971770       0.02877
  21     81.20        0.4127        0.0000        3.3441        3.3441       2.931463       0.02663
  20     96.49        0.4127        0.0000        3.2998        3.2998       2.887088       0.02449
  19     114.6        0.4127        0.0000        3.2506        3.2506       2.837926       0.02296
  18     136.5        0.4128        0.0000        3.1936        3.1936       2.780856       0.02194
  17     162.9        0.4128        0.0000        3.1181        3.1181       2.705318       0.02415
  16     196.4        0.4129        0.0000        3.0090        3.0090       2.596061       0.02750
  15     218.7        0.4130        0.0000        2.9420        2.9420       2.529004       0.02546
  14     243.0        0.4131        0.0000        2.8605        2.8605       2.447362       0.02832
  13     269.0        0.4133        0.0000        2.7419        2.7420       2.328643       0.03851
  12     297.5        0.4137        0.0000        2.5729        2.5729       2.159203       0.05025
  11     328.5        0.4143        0.0000        2.3602        2.3602       1.945933       0.05799
  10     361.9        0.4152        0.0000        2.1524        2.1524       1.737256       0.05280
   9     398.1        0.4165        0.0000        1.9974        1.9974       1.580925       0.03642
   8     437.6        0.4184        0.0000        1.8835        1.8835       1.465130       0.02476
   7     480.5        0.4212        0.0000        1.7734        1.7734       1.352283       0.02216
   6     533.0        0.4258        0.0000        1.6397        1.6398       1.213962       0.02225
   5     589.8        0.4325        0.0000        1.5068        1.5069       1.074343       0.02072
   4     651.6        0.4425        0.0000        1.3807        1.3807       0.938192       0.01862
   3     718.7        0.4558        0.0000        1.2680        1.2681       0.812212       0.01583
   2     792.3        0.4722        0.0000        1.1659        1.1660       0.693787       0.01358
   1     891.5        0.4997        0.0000        1.0372        1.0373       0.537568       0.01329
   0    1013.0        0.5497        0.0000        0.8716        0.8717       0.321995       0.01497

  Modules and versions used in this calculation:

       rrtmg_sw.1col.f90:  $Revision$                    rrtmg_sw_init.f90:  $Revision$        
     rrtmgsw_cldprop.f90:  $Revision$                  rrtmgsw_cldprmc.f90:  NOT USED          
     rrtmg_sw_reftra.f90:  $Revision$                  rrtmg_sw_spcvrt.f90:  NOT USED          
     rrtmg_sw_spcvmc.f90:  NOT USED                    rrtmgsw_setcoef.f90:  NOT USED          
     rrtmg_sw_taumol.f90:  $Revision$                  rrtmg_sw_vrtqdr.f90:  NOT USED          
                rrtatm.f:  NOT USED                             util_xxx.f:  NOT USED          
                 extra.f:  NOT USED                       rrtmg_sw_k_g.f90:  $Revision$        

