

 Wavenumbers:   820. - 50000. cm-1, ATM      1
 LEVEL PRESSURE   UPWARD FLUX   DIFDOWN FLUX  DIRDOWN FLUX  DOWNWARD FLUX   NET FLUX    HEATING RATE
          mb          W/m2          W/m2          W/m2        W/m2          W/m2       degree/day
  51    .06700      175.9237        0.0000      397.8738      397.8738     221.950040       0.00000
  50    .07753      175.9231        0.0012      397.8578      397.8590     221.935872      11.35573
  49    .09103      175.9224        0.0026      397.8421      397.8447     221.922332       8.46320
  48    0.1069      175.9215        0.0043      397.8234      397.8276     221.906148       8.61473
  47    0.1255      175.9205        0.0062      397.8002      397.8064     221.885891       9.18359
  46    0.1487      175.9193        0.0086      397.7684      397.7770     221.857665      10.28861
  45    0.1794      175.9177        0.0119      397.7216      397.7334     221.815691      11.52279
  44    0.2165      175.9159        0.0158      397.6616      397.6774     221.761432      12.34300
  43    0.2613      175.9139        0.0203      397.5847      397.6050     221.691117      13.25418
  42    0.3336      175.9107        0.0278      397.4473      397.4752     221.564512      14.76093
  41    0.4307      175.9067        0.0377      397.2558      397.2935     221.386787      15.45278
  40    0.5894      175.9007        0.0536      396.9301      396.9837     221.082960      16.15710
  39     1.339      175.8832        0.1244      395.4363      395.5607     219.677531      15.82258
  38     1.782      175.8799        0.1640      394.7430      394.9071     219.027204      12.38118
  37     2.292      175.8822        0.2092      394.0751      394.2842     218.402066      10.35391
  36     2.964      175.8943        0.2678      393.3232      393.5909     217.696670       8.85486
  35     3.853      175.9228        0.3444      392.4599      392.8043     216.881463       7.73646
  34     5.035      175.9732        0.4451      391.4790      391.9242     215.950918       6.64743
  33     6.613      176.0475        0.5786      390.3697      390.9483     214.900744       5.61423
  32     8.786      176.1428        0.7571      389.1141      389.8712     213.728424       4.55287
  31     11.80      176.2582        1.0104      387.6123      388.6226     212.364404       3.81883
  30     15.07      176.3578        1.2800      386.2278      387.5078     211.150010       3.13533
  29     18.79      176.4486        1.5822      384.8328      386.4150     209.966438       2.68352
  28     23.16      176.5296        1.9323      383.3624      385.2947     208.765154       2.32289
  27     28.12      176.5930        2.3293      381.8382      384.1675     207.574552       2.02394
  26     33.73      176.6210        2.7704      380.3146      383.0850     206.464038       1.66969
  25     40.54      176.6050        3.2991      378.6667      381.9659     205.360835       1.36865
  24     48.69      176.5383        3.9309      376.8625      380.7935     204.255192       1.14417
  23     57.69      176.4194        4.6182      375.0489      379.6672     203.247771       0.94431
  22     68.43      176.2291        5.4284      373.0645      378.4929     202.263721       0.77360
  21     81.20      175.9351        6.3830      370.9253      377.3083     201.373242       0.58841
  20     96.49      175.5241        7.5059      368.5927      376.0986     200.574449       0.44088
  19     114.6      175.0164        8.8170      365.9576      374.7746     199.758175       0.38114
  18     136.5      174.4031       10.3391      362.9581      373.2972     198.894108       0.33225
  17     162.9      173.6681       12.1079      359.4713      371.5791     197.911085       0.31421
  16     196.4      172.6934       14.3368      355.0186      369.3554     196.661971       0.31442
  15     218.7      172.0514       15.7618      352.0442      367.8060     195.754581       0.34450
  14     243.0      171.3589       17.2770      348.5965      365.8735     194.514557       0.43008
  13     269.0      170.6157       18.8806      344.2836      363.1641     192.548482       0.63779
  12     297.5      169.8224       20.5701      339.2324      359.8025     189.980113       0.76175
  11     328.5      168.9822       22.3471      333.5449      355.8920     186.909739       0.83483
  10     361.9      168.0982       24.2061      327.2277      351.4338     183.335602       0.90429
   9     398.1      167.1713       26.1468      320.3341      346.4809     179.309526       0.93799
   8     437.6      166.2073       28.1632      312.9091      341.0723     174.865024       0.95026
   7     480.5      165.2132       30.2515      304.8608      335.1123     169.899137       0.97528
   6     533.0      164.0486       32.7223      295.2547      327.9770     163.928447       0.96049
   5     589.8      162.8694       35.2721      285.4330      320.7051     157.835677       0.90437
   4     651.6      161.6987       37.8888      275.4326      313.3214     151.622654       0.84965
   3     718.7      160.5483       40.5617      265.5570      306.1187     145.570415       0.76060
   2     792.3      159.4323       43.2779      255.9180      299.1959     139.763675       0.66597
   1     891.5      158.1392       46.7194      243.9315      290.6509     132.511732       0.61711
   0    1013.0      157.0287       50.5401      230.3820      280.9220     123.893343       0.59842



 Wavenumbers:  2600. -  3250. cm-1, ATM      1
 LEVEL PRESSURE   UPWARD FLUX   DIFDOWN FLUX  DIRDOWN FLUX  DOWNWARD FLUX   NET FLUX    HEATING RATE
          mb          W/m2          W/m2          W/m2        W/m2          W/m2       degree/day
  51    .06700        0.2871        0.0000        3.5066        3.5066       3.219492       0.00000
  50    .07753        0.2871        0.0000        3.5066        3.5066       3.219484       0.00640
  49    .09103        0.2871        0.0000        3.5066        3.5066       3.219474       0.00627
  48    0.1069        0.2871        0.0000        3.5066        3.5066       3.219463       0.00613
  47    0.1255        0.2871        0.0000        3.5066        3.5066       3.219450       0.00599
  46    0.1487        0.2871        0.0000        3.5066        3.5066       3.219433       0.00607
  45    0.1794        0.2871        0.0000        3.5065        3.5065       3.219410       0.00624
  44    0.2165        0.2871        0.0000        3.5065        3.5065       3.219383       0.00611
  43    0.2613        0.2871        0.0000        3.5065        3.5065       3.219352       0.00598
  42    0.3336        0.2871        0.0000        3.5064        3.5064       3.219299       0.00615
  41    0.4307        0.2871        0.0000        3.5064        3.5064       3.219228       0.00618
  40    0.5894        0.2871        0.0000        3.5062        3.5062       3.219109       0.00633
  39     1.339        0.2871        0.0000        3.5055        3.5055       3.218410       0.00787
  38     1.782        0.2871        0.0000        3.5050        3.5050       3.217879       0.01011
  37     2.292        0.2871        0.0000        3.5043        3.5043       3.217187       0.01147
  36     2.964        0.2871        0.0000        3.5033        3.5033       3.216195       0.01245
  35     3.853        0.2871        0.0000        3.5019        3.5019       3.214818       0.01307
  34     5.035        0.2871        0.0000        3.5001        3.5001       3.212957       0.01329
  33     6.613        0.2871        0.0000        3.4977        3.4977       3.210548       0.01288
  32     8.786        0.2871        0.0000        3.4947        3.4947       3.207577       0.01154
  31     11.80        0.2871        0.0000        3.4911        3.4911       3.203941       0.01018
  30     15.07        0.2871        0.0000        3.4878        3.4878       3.200720       0.00832
  29     18.79        0.2871        0.0000        3.4848        3.4848       3.197657       0.00695
  28     23.16        0.2871        0.0000        3.4816        3.4816       3.194437       0.00623
  27     28.12        0.2871        0.0000        3.4779        3.4779       3.190819       0.00615
  26     33.73        0.2871        0.0000        3.4735        3.4735       3.186352       0.00672
  25     40.54        0.2871        0.0000        3.4671        3.4671       3.180026       0.00785
  24     48.69        0.2871        0.0000        3.4582        3.4583       3.171130       0.00921
  23     57.69        0.2871        0.0000        3.4472        3.4472       3.160081       0.01036
  22     68.43        0.2871        0.0000        3.4329        3.4329       3.145820       0.01121
  21     81.20        0.2871        0.0000        3.4152        3.4152       3.128090       0.01172
  20     96.49        0.2871        0.0000        3.3940        3.3941       3.106942       0.01167
  19     114.6        0.2872        0.0000        3.3695        3.3695       3.082381       0.01147
  18     136.5        0.2872        0.0001        3.3426        3.3427       3.055518       0.01033
  17     162.9        0.2872        0.0001        3.3142        3.3142       3.027046       0.00910
  16     196.4        0.2873        0.0001        3.2822        3.2823       2.995007       0.00806
  15     218.7        0.2873        0.0001        3.2626        3.2627       2.975387       0.00745
  14     243.0        0.2874        0.0001        3.2399        3.2400       2.952589       0.00791
  13     269.0        0.2875        0.0001        3.2104        3.2105       2.922914       0.00963
  12     297.5        0.2878        0.0001        3.1718        3.1719       2.884135       0.01150
  11     328.5        0.2881        0.0001        3.1198        3.1199       2.831791       0.01423
  10     361.9        0.2886        0.0001        3.0494        3.0495       2.760945       0.01792
   9     398.1        0.2892        0.0001        2.9574        2.9575       2.668297       0.02158
   8     437.6        0.2902        0.0001        2.8409        2.8410       2.550862       0.02511
   7     480.5        0.2915        0.0002        2.6983        2.6984       2.406929       0.02827
   6     533.0        0.2937        0.0002        2.5191        2.5192       2.225518       0.02918
   5     589.8        0.2969        0.0002        2.3358        2.3360       2.039005       0.02768
   4     651.6        0.3015        0.0002        2.1524        2.1526       1.851075       0.02570
   3     718.7        0.3077        0.0002        1.9718        1.9720       1.664367       0.02346
   2     792.3        0.3156        0.0002        1.7999        1.8001       1.484492       0.02063
   1     891.5        0.3290        0.0002        1.5976        1.5977       1.268712       0.01836
   0    1013.0        0.3529        0.0002        1.3833        1.3835       1.030614       0.01653



 Wavenumbers:  3250. -  4000. cm-1, ATM      1
 LEVEL PRESSURE   UPWARD FLUX   DIFDOWN FLUX  DIRDOWN FLUX  DOWNWARD FLUX   NET FLUX    HEATING RATE
          mb          W/m2          W/m2          W/m2        W/m2          W/m2       degree/day
  51    .06700        0.0023        0.0000        5.9117        5.9117       5.909324       0.00000
  50    .07753        0.0023        0.0000        5.9075        5.9075       5.905195       3.30929
  49    .09103        0.0023        0.0000        5.9051        5.9051       5.902818       1.48583
  48    0.1069        0.0023        0.0000        5.9033        5.9033       5.901016       0.95924
  47    0.1255        0.0023        0.0000        5.9017        5.9017       5.899323       0.76773
  46    0.1487        0.0023        0.0000        5.8998        5.8998       5.897504       0.66277
  45    0.1794        0.0023        0.0000        5.8978        5.8978       5.895442       0.56621
  44    0.2165        0.0023        0.0000        5.8958        5.8958       5.893423       0.45913
  43    0.2613        0.0023        0.0000        5.8937        5.8937       5.891383       0.38455
  42    0.3336        0.0023        0.0000        5.8908        5.8908       5.888426       0.34481
  41    0.4307        0.0023        0.0000        5.8872        5.8872       5.884847       0.31121
  40    0.5894        0.0023        0.0000        5.8817        5.8817       5.879406       0.28930
  39     1.339        0.0023        0.0000        5.8621        5.8621       5.859755       0.22124
  38     1.782        0.0023        0.0000        5.8540        5.8540       5.851644       0.15442
  37     2.292        0.0023        0.0000        5.8461        5.8461       5.843813       0.12970
  36     2.964        0.0023        0.0000        5.8370        5.8370       5.834645       0.11509
  35     3.853        0.0023        0.0000        5.8254        5.8255       5.823130       0.10928
  34     5.035        0.0023        0.0000        5.8102        5.8102       5.807911       0.10872
  33     6.613        0.0023        0.0000        5.7896        5.7896       5.787245       0.11048
  32     8.786        0.0023        0.0000        5.7607        5.7607       5.758371       0.11214
  31     11.80        0.0023        0.0000        5.7183        5.7183       5.716026       0.11855
  30     15.07        0.0023        0.0000        5.6724        5.6724       5.670103       0.11856
  29     18.79        0.0023        0.0000        5.6215        5.6216       5.619247       0.11531
  28     23.16        0.0023        0.0000        5.5655        5.5655       5.563187       0.10840
  27     28.12        0.0023        0.0000        5.5071        5.5072       5.504893       0.09910
  26     33.73        0.0023        0.0000        5.4490        5.4490       5.446750       0.08742
  25     40.54        0.0023        0.0001        5.3860        5.3860       5.383768       0.07814
  24     48.69        0.0023        0.0001        5.3159        5.3159       5.313665       0.07255
  23     57.69        0.0023        0.0001        5.2417        5.2418       5.239520       0.06950
  22     68.43        0.0022        0.0001        5.1551        5.1552       5.152976       0.06804
  21     81.20        0.0022        0.0001        5.0549        5.0550       5.052772       0.06621
  20     96.49        0.0022        0.0001        4.9424        4.9425       4.940313       0.06207
  19     114.6        0.0022        0.0001        4.8149        4.8151       4.812896       0.05950
  18     136.5        0.0022        0.0002        4.6752        4.6754       4.673250       0.05370
  17     162.9        0.0021        0.0002        4.5082        4.5084       4.506260       0.05338
  16     196.4        0.0021        0.0002        4.2669        4.2671       4.264985       0.06073
  15     218.7        0.0021        0.0002        4.0848        4.0850       4.082956       0.06911
  14     243.0        0.0021        0.0002        3.8635        3.8638       3.861715       0.07673
  13     269.0        0.0020        0.0003        3.5550        3.5552       3.553202       0.10008
  12     297.5        0.0020        0.0003        3.1701        3.1703       3.168336       0.11415
  11     328.5        0.0020        0.0003        2.7403        2.7405       2.738519       0.11687
  10     361.9        0.0020        0.0002        2.3282        2.3284       2.326395       0.10427
   9     398.1        0.0020        0.0002        1.9631        1.9633       1.961337       0.08505
   8     437.6        0.0020        0.0002        1.6366        1.6368       1.634762       0.06982
   7     480.5        0.0021        0.0002        1.3301        1.3303       1.328232       0.06020
   6     533.0        0.0022        0.0002        1.0170        1.0172       1.015026       0.05038
   5     589.8        0.0024        0.0001        0.7387        0.7388       0.736420       0.04135
   4     651.6        0.0028        0.0001        0.4995        0.4996       0.496801       0.03277
   3     718.7        0.0035        0.0001        0.3190        0.3191       0.315663       0.02276
   2     792.3        0.0046        0.0001        0.1892        0.1892       0.184617       0.01503
   1     891.5        0.0076        0.0000        0.0803        0.0804       0.072766       0.00952
   0    1013.0        0.0178        0.0000        0.0188        0.0188       0.000984       0.00498



 Wavenumbers:  4000. -  4650. cm-1, ATM      1
 LEVEL PRESSURE   UPWARD FLUX   DIFDOWN FLUX  DIRDOWN FLUX  DOWNWARD FLUX   NET FLUX    HEATING RATE
          mb          W/m2          W/m2          W/m2        W/m2          W/m2       degree/day
  51    .06700        0.6899        0.0000        6.9421        6.9421       6.252199       0.00000
  50    .07753        0.6899        0.0000        6.9421        6.9421       6.252198       0.00080
  49    .09103        0.6899        0.0000        6.9421        6.9421       6.252197       0.00078
  48    0.1069        0.6899        0.0000        6.9421        6.9421       6.252196       0.00076
  47    0.1255        0.6899        0.0000        6.9421        6.9421       6.252194       0.00075
  46    0.1487        0.6899        0.0000        6.9421        6.9421       6.252192       0.00076
  45    0.1794        0.6899        0.0000        6.9421        6.9421       6.252189       0.00078
  44    0.2165        0.6899        0.0000        6.9421        6.9421       6.252186       0.00076
  43    0.2613        0.6899        0.0000        6.9420        6.9421       6.252182       0.00075
  42    0.3336        0.6899        0.0000        6.9420        6.9420       6.252175       0.00077
  41    0.4307        0.6899        0.0000        6.9420        6.9420       6.252166       0.00077
  40    0.5894        0.6899        0.0000        6.9420        6.9420       6.252151       0.00079
  39     1.339        0.6899        0.0000        6.9419        6.9419       6.252062       0.00100
  38     1.782        0.6899        0.0000        6.9418        6.9419       6.251992       0.00133
  37     2.292        0.6899        0.0000        6.9418        6.9418       6.251899       0.00155
  36     2.964        0.6899        0.0000        6.9416        6.9416       6.251759       0.00176
  35     3.853        0.6899        0.0000        6.9414        6.9414       6.251551       0.00197
  34     5.035        0.6899        0.0000        6.9411        6.9411       6.251245       0.00218
  33     6.613        0.6898        0.0000        6.9406        6.9406       6.250796       0.00240
  32     8.786        0.6898        0.0000        6.9399        6.9400       6.250133       0.00257
  31     11.80        0.6898        0.0000        6.9389        6.9389       6.249094       0.00291
  30     15.07        0.6898        0.0001        6.9376        6.9377       6.247879       0.00314
  29     18.79        0.6898        0.0001        6.9362        6.9362       6.246415       0.00332
  28     23.16        0.6898        0.0001        6.9343        6.9344       6.244604       0.00350
  27     28.12        0.6898        0.0001        6.9321        6.9322       6.242422       0.00371
  26     33.73        0.6898        0.0001        6.9294        6.9295       6.239744       0.00403
  25     40.54        0.6897        0.0001        6.9257        6.9259       6.236135       0.00448
  24     48.69        0.6897        0.0002        6.9209        6.9211       6.231357       0.00494
  23     57.69        0.6897        0.0002        6.9152        6.9154       6.225736       0.00527
  22     68.43        0.6897        0.0003        6.9082        6.9084       6.218750       0.00549
  21     81.20        0.6897        0.0003        6.8996        6.8999       6.210209       0.00564
  20     96.49        0.6896        0.0004        6.8892        6.8895       6.199897       0.00569
  19     114.6        0.6896        0.0004        6.8764        6.8768       6.187233       0.00591
  18     136.5        0.6896        0.0005        6.8611        6.8616       6.172012       0.00585
  17     162.9        0.6896        0.0006        6.8423        6.8429       6.153325       0.00597
  16     196.4        0.6896        0.0007        6.8165        6.8172       6.127615       0.00647
  15     218.7        0.6896        0.0008        6.7980        6.7988       6.109176       0.00700
  14     243.0        0.6897        0.0009        6.7754        6.7762       6.086513       0.00786
  13     269.0        0.6899        0.0010        6.7451        6.7461       6.056207       0.00983
  12     297.5        0.6902        0.0011        6.7056        6.7066       6.016485       0.01178
  11     328.5        0.6906        0.0012        6.6525        6.6537       5.963135       0.01451
  10     361.9        0.6912        0.0013        6.5816        6.5829       5.891713       0.01807
   9     398.1        0.6920        0.0014        6.4919        6.4933       5.801331       0.02106
   8     437.6        0.6930        0.0015        6.3840        6.3855       5.692542       0.02326
   7     480.5        0.6943        0.0016        6.2590        6.2606       5.566260       0.02480
   6     533.0        0.6965        0.0018        6.1030        6.1047       5.408245       0.02542
   5     589.8        0.6995        0.0019        5.9237        5.9257       5.226171       0.02703
   4     651.6        0.7037        0.0021        5.7082        5.7102       5.006511       0.03004
   3     718.7        0.7094        0.0022        5.4720        5.4741       4.764701       0.03039
   2     792.3        0.7168        0.0023        5.2394        5.2418       4.524995       0.02749
   1     891.5        0.7292        0.0025        4.9630        4.9655       4.236279       0.02457
   0    1013.0        0.7510        0.0027        4.6608        4.6634       3.912454       0.02248



 Wavenumbers:  4650. -  5150. cm-1, ATM      1
 LEVEL PRESSURE   UPWARD FLUX   DIFDOWN FLUX  DIRDOWN FLUX  DOWNWARD FLUX   NET FLUX    HEATING RATE
          mb          W/m2          W/m2          W/m2        W/m2          W/m2       degree/day
  51    .06700        0.4790        0.0000        6.5710        6.5710       6.092015       0.00000
  50    .07753        0.4790        0.0000        6.5708        6.5708       6.091780       0.18849
  49    .09103        0.4790        0.0000        6.5705        6.5705       6.091487       0.18325
  48    0.1069        0.4790        0.0000        6.5701        6.5701       6.091153       0.17771
  47    0.1255        0.4790        0.0000        6.5698        6.5698       6.090774       0.17204
  46    0.1487        0.4790        0.0000        6.5693        6.5693       6.090301       0.17234
  45    0.1794        0.4790        0.0000        6.5686        6.5686       6.089666       0.17439
  44    0.2165        0.4790        0.0000        6.5679        6.5679       6.088929       0.16754
  43    0.2613        0.4790        0.0000        6.5671        6.5671       6.088078       0.16046
  42    0.3336        0.4790        0.0000        6.5657        6.5657       6.086717       0.15862
  41    0.4307        0.4790        0.0000        6.5640        6.5640       6.084999       0.14941
  40    0.5894        0.4790        0.0000        6.5614        6.5614       6.082388       0.13885
  39     1.339        0.4790        0.0000        6.5516        6.5516       6.072630       0.10986
  38     1.782        0.4790        0.0000        6.5474        6.5474       6.068422       0.08010
  37     2.292        0.4790        0.0000        6.5435        6.5435       6.064543       0.06425
  36     2.964        0.4790        0.0000        6.5395        6.5396       6.060597       0.04954
  35     3.853        0.4790        0.0000        6.5356        6.5356       6.056662       0.03734
  34     5.035        0.4790        0.0000        6.5316        6.5316       6.052668       0.02853
  33     6.613        0.4789        0.0000        6.5272        6.5272       6.048282       0.02344
  32     8.786        0.4789        0.0000        6.5217        6.5217       6.042799       0.02130
  31     11.80        0.4789        0.0001        6.5136        6.5137       6.034736       0.02257
  30     15.07        0.4789        0.0001        6.5042        6.5043       6.025387       0.02414
  29     18.79        0.4789        0.0001        6.4927        6.4928       6.013895       0.02606
  28     23.16        0.4789        0.0001        6.4781        6.4782       5.999334       0.02816
  27     28.12        0.4789        0.0002        6.4601        6.4602       5.981396       0.03049
  26     33.73        0.4788        0.0002        6.4387        6.4388       5.960010       0.03215
  25     40.54        0.4788        0.0002        6.4115        6.4118       5.932943       0.03358
  24     48.69        0.4788        0.0003        6.3779        6.3782       5.899380       0.03473
  23     57.69        0.4788        0.0003        6.3408        6.3411       5.862370       0.03469
  22     68.43        0.4787        0.0004        6.2976        6.2980       5.819279       0.03388
  21     81.20        0.4787        0.0004        6.2489        6.2493       5.770579       0.03218
  20     96.49        0.4787        0.0005        6.1955        6.1960       5.717340       0.02938
  19     114.6        0.4787        0.0006        6.1390        6.1396       5.660926       0.02634
  18     136.5        0.4787        0.0007        6.0800        6.0807       5.602059       0.02264
  17     162.9        0.4787        0.0009        6.0173        6.0182       5.539448       0.02001
  16     196.4        0.4788        0.0010        5.9417        5.9427       5.463904       0.01902
  15     218.7        0.4789        0.0011        5.8921        5.8933       5.414415       0.01879
  14     243.0        0.4790        0.0012        5.8363        5.8375       5.358554       0.01937
  13     269.0        0.4792        0.0014        5.7708        5.7722       5.293008       0.02126
  12     297.5        0.4795        0.0015        5.6921        5.6936       5.214132       0.02339
  11     328.5        0.4799        0.0016        5.5972        5.5988       5.118920       0.02589
  10     361.9        0.4805        0.0018        5.4850        5.4867       5.006227       0.02851
   9     398.1        0.4814        0.0019        5.3540        5.3559       4.874577       0.03067
   8     437.6        0.4825        0.0021        5.2025        5.2045       4.722016       0.03262
   7     480.5        0.4841        0.0022        5.0281        5.0303       4.546186       0.03453
   6     533.0        0.4866        0.0024        4.8065        4.8089       4.322310       0.03601
   5     589.8        0.4900        0.0025        4.5708        4.5733       4.083276       0.03548
   4     651.6        0.4947        0.0026        4.3271        4.3297       3.835003       0.03395
   3     718.7        0.5010        0.0028        4.0869        4.0897       3.588742       0.03095
   2     792.3        0.5091        0.0029        3.8564        3.8593       3.350255       0.02735
   1     891.5        0.5228        0.0031        3.5777        3.5807       3.057972       0.02487
   0    1013.0        0.5458        0.0032        3.2733        3.2766       2.730710       0.02272



 Wavenumbers:  5150. -  6150. cm-1, ATM      1
 LEVEL PRESSURE   UPWARD FLUX   DIFDOWN FLUX  DIRDOWN FLUX  DOWNWARD FLUX   NET FLUX    HEATING RATE
          mb          W/m2          W/m2          W/m2        W/m2          W/m2       degree/day
  51    .06700        1.3128        0.0000       16.4735       16.4735      15.160666       0.00000
  50    .07753        1.3128        0.0000       16.4735       16.4735      15.160645       0.01664
  49    .09103        1.3128        0.0000       16.4735       16.4735      15.160618       0.01694
  48    0.1069        1.3128        0.0000       16.4734       16.4734      15.160586       0.01723
  47    0.1255        1.3128        0.0000       16.4734       16.4734      15.160547       0.01750
  46    0.1487        1.3128        0.0000       16.4733       16.4733      15.160496       0.01844
  45    0.1794        1.3128        0.0000       16.4733       16.4733      15.160425       0.01970
  44    0.2165        1.3128        0.0000       16.4732       16.4732      15.160336       0.02008
  43    0.2613        1.3128        0.0000       16.4731       16.4731      15.160228       0.02035
  42    0.3336        1.3128        0.0000       16.4729       16.4729      15.160044       0.02150
  41    0.4307        1.3128        0.0000       16.4726       16.4726      15.159791       0.02201
  40    0.5894        1.3128        0.0000       16.4722       16.4722      15.159367       0.02254
  39     1.339        1.3128        0.0000       16.4701       16.4701      15.157295       0.02332
  38     1.782        1.3128        0.0000       16.4688       16.4689      15.156071       0.02331
  37     2.292        1.3128        0.0001       16.4674       16.4674      15.154659       0.02338
  36     2.964        1.3128        0.0001       16.4655       16.4656      15.152817       0.02313
  35     3.853        1.3128        0.0001       16.4631       16.4632      15.150404       0.02289
  34     5.035        1.3127        0.0001       16.4598       16.4600      15.147239       0.02261
  33     6.613        1.3127        0.0002       16.4556       16.4558      15.143084       0.02221
  32     8.786        1.3127        0.0002       16.4501       16.4503      15.137630       0.02118
  31     11.80        1.3126        0.0003       16.4424       16.4427      15.130116       0.02104
  30     15.07        1.3125        0.0004       16.4345       16.4349      15.122414       0.01988
  29     18.79        1.3124        0.0005       16.4261       16.4266      15.114143       0.01875
  28     23.16        1.3124        0.0006       16.4168       16.4174      15.105020       0.01764
  27     28.12        1.3123        0.0007       16.4067       16.4075      15.095211       0.01668
  26     33.73        1.3121        0.0009       16.3962       16.3971      15.084935       0.01545
  25     40.54        1.3120        0.0010       16.3844       16.3855      15.073451       0.01425
  24     48.69        1.3119        0.0012       16.3714       16.3726      15.060753       0.01314
  23     57.69        1.3117        0.0015       16.3584       16.3599      15.048139       0.01182
  22     68.43        1.3115        0.0017       16.3445       16.3462      15.034715       0.01055
  21     81.20        1.3113        0.0021       16.3294       16.3314      15.020127       0.00964
  20     96.49        1.3111        0.0025       16.3125       16.3149      15.003893       0.00896
  19     114.6        1.3108        0.0029       16.2931       16.2960      14.985275       0.00869
  18     136.5        1.3104        0.0035       16.2680       16.2714      14.961044       0.00932
  17     162.9        1.3100        0.0041       16.2257       16.2298      14.919825       0.01318
  16     196.4        1.3095        0.0049       16.1348       16.1398      14.830286       0.02254
  15     218.7        1.3091        0.0055       16.0289       16.0344      14.725247       0.03988
  14     243.0        1.3088        0.0060       15.8229       15.8289      14.520114       0.07115
  13     269.0        1.3085        0.0066       15.4279       15.4344      14.125960       0.12786
  12     297.5        1.3082        0.0071       14.9414       14.9485      13.640330       0.14403
  11     328.5        1.3079        0.0076       14.3775       14.3850      13.077117       0.15314
  10     361.9        1.3078        0.0080       13.6959       13.7039      12.396156       0.17229
   9     398.1        1.3078        0.0084       12.9561       12.9646      11.656768       0.17226
   8     437.6        1.3080        0.0088       12.1915       12.2003      10.892322       0.16344
   7     480.5        1.3086        0.0091       11.4147       11.4238      10.115229       0.15262
   6     533.0        1.3098        0.0094       10.6318       10.6413       9.331416       0.12609
   5     589.8        1.3121        0.0098       10.0045       10.0143       8.702253       0.09339
   4     651.6        1.3159        0.0103        9.5134        9.5237       8.207802       0.06762
   3     718.7        1.3216        0.0109        9.1321        9.1429       7.821372       0.04856
   2     792.3        1.3297        0.0116        8.8066        8.8181       7.488482       0.03818
   1     891.5        1.3449        0.0125        8.4086        8.4211       7.076125       0.03509
   0    1013.0        1.3763        0.0136        7.9511        7.9646       6.588264       0.03387



 Wavenumbers:  6150. -  7700. cm-1, ATM      1
 LEVEL PRESSURE   UPWARD FLUX   DIFDOWN FLUX  DIRDOWN FLUX  DOWNWARD FLUX   NET FLUX    HEATING RATE
          mb          W/m2          W/m2          W/m2        W/m2          W/m2       degree/day
  51    .06700        2.0858        0.0000       30.4684       30.4684      28.382587       0.00000
  50    .07753        2.0858        0.0000       30.4683       30.4683      28.382550       0.03007
  49    .09103        2.0858        0.0000       30.4683       30.4683      28.382502       0.03015
  48    0.1069        2.0858        0.0000       30.4682       30.4682      28.382445       0.03021
  47    0.1255        2.0858        0.0000       30.4682       30.4682      28.382378       0.03025
  46    0.1487        2.0858        0.0000       30.4681       30.4681      28.382292       0.03143
  45    0.1794        2.0858        0.0000       30.4679       30.4680      28.382171       0.03313
  44    0.2165        2.0858        0.0000       30.4678       30.4678      28.382025       0.03331
  43    0.2613        2.0858        0.0000       30.4676       30.4676      28.381848       0.03339
  42    0.3336        2.0858        0.0000       30.4673       30.4673      28.381548       0.03489
  41    0.4307        2.0858        0.0000       30.4669       30.4669      28.381142       0.03531
  40    0.5894        2.0857        0.0001       30.4662       30.4662      28.380468       0.03588
  39     1.339        2.0857        0.0001       30.4627       30.4629      28.377208       0.03669
  38     1.782        2.0856        0.0002       30.4607       30.4609      28.375291       0.03650
  37     2.292        2.0856        0.0002       30.4584       30.4587      28.373084       0.03656
  36     2.964        2.0855        0.0003       30.4554       30.4557      28.370204       0.03615
  35     3.853        2.0854        0.0004       30.4514       30.4518      28.366434       0.03578
  34     5.035        2.0853        0.0005       30.4462       30.4468      28.361481       0.03538
  33     6.613        2.0851        0.0007       30.4394       30.4401      28.354964       0.03484
  32     8.786        2.0849        0.0009       30.4303       30.4313      28.346368       0.03338
  31     11.80        2.0846        0.0013       30.4178       30.4190      28.334433       0.03341
  30     15.07        2.0843        0.0016       30.4047       30.4063      28.322074       0.03191
  29     18.79        2.0839        0.0020       30.3905       30.3925      28.308646       0.03045
  28     23.16        2.0835        0.0025       30.3746       30.3771      28.293624       0.02905
  27     28.12        2.0830        0.0030       30.3572       30.3602      28.277236       0.02786
  26     33.73        2.0824        0.0036       30.3386       30.3422      28.259822       0.02618
  25     40.54        2.0817        0.0044       30.3174       30.3218      28.240052       0.02453
  24     48.69        2.0809        0.0052       30.2935       30.2988      28.217865       0.02296
  23     57.69        2.0800        0.0062       30.2691       30.2753      28.195316       0.02114
  22     68.43        2.0789        0.0073       30.2424       30.2497      28.170830       0.01925
  21     81.20        2.0776        0.0087       30.2127       30.2214      28.143814       0.01785
  20     96.49        2.0761        0.0103       30.1793       30.1896      28.113510       0.01673
  19     114.6        2.0743        0.0123       30.1406       30.1529      28.078630       0.01629
  18     136.5        2.0721        0.0146       30.0918       30.1063      28.034203       0.01708
  17     162.9        2.0696        0.0173       30.0142       30.0315      27.961976       0.02309
  16     196.4        2.0662        0.0208       29.8586       29.8794      27.813187       0.03745
  15     218.7        2.0641        0.0230       29.7023       29.7254      27.661276       0.05768
  14     243.0        2.0618        0.0254       29.4258       29.4512      27.389427       0.09429
  13     269.0        2.0594        0.0278       28.8603       28.8881      26.828729       0.18189
  12     297.5        2.0570        0.0301       28.0356       28.0657      26.008724       0.24320
  11     328.5        2.0546        0.0323       27.0537       27.0860      25.031364       0.26574
  10     361.9        2.0524        0.0344       25.9260       25.9604      23.907948       0.28424
   9     398.1        2.0505        0.0363       24.6292       24.6655      22.614969       0.30123
   8     437.6        2.0491        0.0380       23.2095       23.2475      21.198390       0.30287
   7     480.5        2.0487        0.0393       21.6890       21.7283      19.679582       0.29829
   6     533.0        2.0500        0.0406       20.0014       20.0420      17.991932       0.27149
   5     589.8        2.0541        0.0418       18.4573       18.4991      16.444963       0.22962
   4     651.6        2.0625        0.0430       17.0490       17.0920      15.029512       0.19357
   3     718.7        2.0761        0.0443       15.8298       15.8740      13.797893       0.15478
   2     792.3        2.0960        0.0458       14.8014       14.8472      12.751209       0.12004
   1     891.5        2.1340        0.0479       13.6864       13.7343      11.600232       0.09794
   0    1013.0        2.2121        0.0502       12.5366       12.5867      10.374604       0.08510



 Wavenumbers:  7700. -  8050. cm-1, ATM      1
 LEVEL PRESSURE   UPWARD FLUX   DIFDOWN FLUX  DIRDOWN FLUX  DOWNWARD FLUX   NET FLUX    HEATING RATE
          mb          W/m2          W/m2          W/m2        W/m2          W/m2       degree/day
  51    .06700        1.0382        0.0000        7.2006        7.2006       6.162433       0.00000
  50    .07753        1.0382        0.0000        7.2006        7.2006       6.162414       0.01475
  49    .09103        1.0382        0.0000        7.2005        7.2005       6.162391       0.01446
  48    0.1069        1.0382        0.0000        7.2005        7.2005       6.162364       0.01416
  47    0.1255        1.0382        0.0000        7.2005        7.2005       6.162334       0.01385
  46    0.1487        1.0382        0.0000        7.2004        7.2005       6.162295       0.01406
  45    0.1794        1.0382        0.0000        7.2004        7.2004       6.162243       0.01446
  44    0.2165        1.0382        0.0000        7.2003        7.2003       6.162180       0.01419
  43    0.2613        1.0382        0.0000        7.2003        7.2003       6.162106       0.01392
  42    0.3336        1.0382        0.0000        7.2001        7.2001       6.161984       0.01424
  41    0.4307        1.0382        0.0000        7.2000        7.2000       6.161822       0.01409
  40    0.5894        1.0382        0.0000        7.1997        7.1997       6.161558       0.01407
  39     1.339        1.0382        0.0001        7.1984        7.1985       6.160306       0.01409
  38     1.782        1.0382        0.0001        7.1977        7.1978       6.159572       0.01399
  37     2.292        1.0382        0.0001        7.1968        7.1969       6.158722       0.01408
  36     2.964        1.0382        0.0001        7.1957        7.1958       6.157606       0.01401
  35     3.853        1.0382        0.0002        7.1942        7.1944       6.156133       0.01398
  34     5.035        1.0383        0.0002        7.1922        7.1924       6.154177       0.01397
  33     6.613        1.0383        0.0003        7.1896        7.1899       6.151567       0.01395
  32     8.786        1.0384        0.0004        7.1860        7.1864       6.148057       0.01363
  31     11.80        1.0384        0.0005        7.1810        7.1815       6.143046       0.01403
  30     15.07        1.0385        0.0006        7.1755        7.1762       6.137683       0.01385
  29     18.79        1.0386        0.0008        7.1694        7.1702       6.131644       0.01369
  28     23.16        1.0387        0.0010        7.1623        7.1633       6.124619       0.01358
  27     28.12        1.0388        0.0012        7.1542        7.1554       6.116623       0.01359
  26     33.73        1.0390        0.0014        7.1452        7.1467       6.107723       0.01338
  25     40.54        1.0391        0.0017        7.1344        7.1362       6.097038       0.01326
  24     48.69        1.0393        0.0021        7.1215        7.1236       6.084257       0.01323
  23     57.69        1.0395        0.0025        7.1074        7.1099       6.070341       0.01304
  22     68.43        1.0398        0.0029        7.0908        7.0937       6.053937       0.01290
  21     81.20        1.0401        0.0035        7.0713        7.0748       6.034629       0.01276
  20     96.49        1.0405        0.0041        7.0484        7.0525       6.011950       0.01252
  19     114.6        1.0410        0.0048        7.0216        7.0265       5.985471       0.01236
  18     136.5        1.0416        0.0057        6.9905        6.9963       5.954689       0.01184
  17     162.9        1.0423        0.0068        6.9543        6.9611       5.918840       0.01146
  16     196.4        1.0432        0.0082        6.9087        6.9168       5.873589       0.01139
  15     218.7        1.0439        0.0091        6.8793        6.8884       5.844530       0.01103
  14     243.0        1.0446        0.0100        6.8481        6.8581       5.813491       0.01077
  13     269.0        1.0454        0.0111        6.8147        6.8258       5.780405       0.01073
  12     297.5        1.0463        0.0122        6.7793        6.7915       5.745186       0.01045
  11     328.5        1.0474        0.0134        6.7415        6.7549       5.707572       0.01023
  10     361.9        1.0485        0.0147        6.7013        6.7161       5.667531       0.01013
   9     398.1        1.0499        0.0161        6.6584        6.6745       5.624619       0.01000
   8     437.6        1.0515        0.0176        6.6123        6.6300       5.578479       0.00987
   7     480.5        1.0533        0.0192        6.5627        6.5819       5.528552       0.00981
   6     533.0        1.0559        0.0212        6.5008        6.5219       5.466069       0.01005
   5     589.8        1.0590        0.0232        6.4328        6.4561       5.397105       0.01024
   4     651.6        1.0627        0.0254        6.3577        6.3832       5.320474       0.01048
   3     718.7        1.0673        0.0278        6.2752        6.3030       5.235770       0.01064
   2     792.3        1.0727        0.0303        6.1856        6.2159       5.143258       0.01061
   1     891.5        1.0808        0.0336        6.0623        6.0958       5.014992       0.01091
   0    1013.0        1.0925        0.0374        5.9066        5.9440       4.851555       0.01135



 Wavenumbers:  8050. - 12850. cm-1, ATM      1
 LEVEL PRESSURE   UPWARD FLUX   DIFDOWN FLUX  DIRDOWN FLUX  DOWNWARD FLUX   NET FLUX    HEATING RATE
          mb          W/m2          W/m2          W/m2        W/m2          W/m2       degree/day
  51    .06700       22.5807        0.0000      100.8135      100.8135      78.232797       0.00000
  50    .07753       22.5807        0.0000      100.8135      100.8135      78.232797       0.00000
  49    .09103       22.5807        0.0001      100.8134      100.8135      78.232797      -0.00000
  48    0.1069       22.5806        0.0001      100.8134      100.8134      78.232797       0.00000
  47    0.1255       22.5806        0.0001      100.8133      100.8134      78.232797       0.00000
  46    0.1487       22.5806        0.0002      100.8132      100.8134      78.232797      -0.00000
  45    0.1794       22.5805        0.0002      100.8131      100.8133      78.232797       0.00000
  44    0.2165       22.5805        0.0003      100.8129      100.8132      78.232797      -0.00000
  43    0.2613       22.5804        0.0004      100.8127      100.8132      78.232797       0.00000
  42    0.3336       22.5802        0.0006      100.8125      100.8130      78.232797       0.00000
  41    0.4307       22.5801        0.0008      100.8121      100.8129      78.232797       0.00000
  40    0.5894       22.5798        0.0011      100.8115      100.8126      78.232797      -0.00000
  39     1.339       22.5785        0.0028      100.8085      100.8113      78.232797       0.00000
  38     1.782       22.5777        0.0037      100.8068      100.8105      78.232797       0.00000
  37     2.292       22.5768        0.0048      100.8047      100.8096      78.232797       0.00000
  36     2.964       22.5756        0.0063      100.8021      100.8084      78.232797      -0.00000
  35     3.853       22.5740        0.0082      100.7986      100.8068      78.232797       0.00000
  34     5.035       22.5720        0.0108      100.7940      100.8048      78.232797      -0.00000
  33     6.613       22.5692        0.0142      100.7878      100.8020      78.232797       0.00000
  32     8.786       22.5655        0.0188      100.7794      100.7982      78.232797       0.00000
  31     11.80       22.5601        0.0255      100.7674      100.7929      78.232797       0.00000
  30     15.07       22.5543        0.0326      100.7546      100.7871      78.232797       0.00000
  29     18.79       22.5478        0.0406      100.7400      100.7806      78.232797       0.00000
  28     23.16       22.5402        0.0500      100.7230      100.7730      78.232797      -0.00000
  27     28.12       22.5315        0.0608      100.7035      100.7643      78.232797       0.00000
  26     33.73       22.5217        0.0728      100.6817      100.7545      78.232797       0.00000
  25     40.54       22.5099        0.0874      100.6552      100.7427      78.232797      -0.00000
  24     48.69       22.4956        0.1050      100.6234      100.7284      78.232797       0.00000
  23     57.69       22.4799        0.1244      100.5883      100.7127      78.232797       0.00000
  22     68.43       22.4611        0.1475      100.5464      100.6939      78.232797       0.00000
  21     81.20       22.4388        0.1750      100.4965      100.6716      78.232797       0.00000
  20     96.49       22.4121        0.2079      100.4370      100.6449      78.232797      -0.00000
  19     114.6       22.3804        0.2470      100.3615      100.6085      78.228174       0.00216
  18     136.5       22.3427        0.2934      100.2708      100.5642      78.221493       0.00257
  17     162.9       22.2977        0.3488      100.1568      100.5056      78.207841       0.00436
  16     196.4       22.2394        0.4207       99.9894      100.4102      78.170805       0.00932
  15     218.7       22.2009        0.4680       99.8556      100.3235      78.122601       0.01830
  14     243.0       22.1592        0.5194       99.6639      100.1833      78.024027       0.03419
  13     269.0       22.1144        0.5748       99.3484       99.9232      77.808859       0.06980
  12     297.5       22.0665        0.6344       98.9073       99.5417      77.475225       0.09895
  11     328.5       22.0159        0.6984       98.3357       99.0341      77.018249       0.12425
  10     361.9       21.9631        0.7666       97.5991       98.3657      76.402549       0.15578
   9     398.1       21.9090        0.8391       96.6494       97.4885      75.579505       0.19175
   8     437.6       21.8551        0.9155       95.4391       96.3545      74.499456       0.23092
   7     480.5       21.8046        0.9950       93.8818       94.8768      73.072127       0.28032
   6     533.0       21.7548        1.0896       91.7394       92.8290      71.074159       0.32141
   5     589.8       21.7191        1.1877       89.2990       90.4867      68.767596       0.34237
   4     651.6       21.7071        1.2888       86.6157       87.9045      66.197411       0.35148
   3     718.7       21.7242        1.3939       83.8590       85.2529      63.528635       0.33539
   2     792.3       21.7754        1.5036       81.1248       82.6284      60.852937       0.30687
   1     891.5       21.9131        1.6461       77.6612       79.3073      57.394206       0.29432
   0    1013.0       22.2560        1.8057       73.6137       75.4193      53.163392       0.29377



 Wavenumbers: 12850. - 16000. cm-1, ATM      1
 LEVEL PRESSURE   UPWARD FLUX   DIFDOWN FLUX  DIRDOWN FLUX  DOWNWARD FLUX   NET FLUX    HEATING RATE
          mb          W/m2          W/m2          W/m2        W/m2          W/m2       degree/day
  51    .06700       32.5666        0.0000       63.1686       63.1686      30.601931       0.00000
  50    .07753       32.5666        0.0001       63.1677       63.1678      30.601152       0.62450
  49    .09103       32.5666        0.0001       63.1666       63.1668      30.600181       0.60686
  48    0.1069       32.5665        0.0002       63.1654       63.1656      30.599075       0.58841
  47    0.1255       32.5665        0.0003       63.1640       63.1643      30.597818       0.56988
  46    0.1487       32.5665        0.0004       63.1623       63.1627      30.596251       0.57136
  45    0.1794       32.5664        0.0006       63.1600       63.1606      30.594149       0.57693
  44    0.2165       32.5663        0.0008       63.1573       63.1581      30.591720       0.55271
  43    0.2613       32.5663        0.0010       63.1542       63.1552      30.588918       0.52812
  42    0.3336       32.5662        0.0014       63.1493       63.1507      30.584456       0.52026
  41    0.4307       32.5661        0.0019       63.1431       63.1450      30.578878       0.48500
  40    0.5894       32.5661        0.0027       63.1338       63.1365      30.570434       0.44900
  39     1.339       32.5670        0.0065       63.0956       63.1021      30.535076       0.39807
  38     1.782       32.5684        0.0087       63.0740       63.0828      30.514332       0.39492
  37     2.292       32.5709        0.0113       63.0477       63.0590      30.488066       0.43504
  36     2.964       32.5755        0.0147       63.0095       63.0243      30.448774       0.49322
  35     3.853       32.5833        0.0192       62.9533       62.9725      30.389179       0.56557
  34     5.035       32.5955        0.0252       62.8725       62.8977      30.302230       0.62112
  33     6.613       32.6126        0.0332       62.7621       62.7952      30.182598       0.63955
  32     8.786       32.6348        0.0439       62.6183       62.6621      30.027322       0.60304
  31     11.80       32.6630        0.0592       62.4284       62.4875      29.824498       0.56784
  30     15.07       32.6893        0.0755       62.2426       62.3181      29.628892       0.50502
  29     18.79       32.7152        0.0940       62.0493       62.1433      29.428066       0.45534
  28     23.16       32.7413        0.1155       61.8425       61.9579      29.216606       0.40889
  27     28.12       32.7663        0.1400       61.6278       61.7678      29.001569       0.36555
  26     33.73       32.7871        0.1674       61.4177       61.5851      28.797964       0.30613
  25     40.54       32.8041        0.2004       61.1983       61.3987      28.594588       0.25231
  24     48.69       32.8168        0.2402       60.9680       61.2082      28.391408       0.21026
  23     57.69       32.8230        0.2838       60.7478       61.0316      28.208635       0.17132
  22     68.43       32.8220        0.3357       60.5202       60.8559      28.033819       0.13743
  21     81.20       32.8096        0.3974       60.2938       60.6913      27.881688       0.10053
  20     96.49       32.7842        0.4710       60.0643       60.5353      27.751047       0.07210
  19     114.6       32.7541        0.5588       59.8078       60.3666      27.612552       0.06467
  18     136.5       32.7137        0.6626       59.5158       60.1784      27.464788       0.05682
  17     162.9       32.6613        0.7860       59.1773       59.9633      27.301986       0.05204
  16     196.4       32.5844        0.9454       58.7611       59.7065      27.122155       0.04527
  15     218.7       32.5306        1.0499       58.4960       59.5459      27.015264       0.04058
  14     243.0       32.4708        1.1632       58.2112       59.3744      26.903600       0.03873
  13     269.0       32.4046        1.2856       57.9057       59.1913      26.786729       0.03791
  12     297.5       32.3321        1.4176       57.5775       58.9951      26.663049       0.03668
  11     328.5       32.2537        1.5599       57.2211       58.7810      26.527281       0.03692
  10     361.9       32.1698        1.7126       56.8331       58.5456      26.375834       0.03832
   9     398.1       32.0807        1.8763       56.4088       58.2851      26.204461       0.03993
   8     437.6       31.9872        2.0514       55.9402       57.9916      26.004366       0.04278
   7     480.5       31.8913        2.2380       55.4154       57.6534      25.762058       0.04759
   6     533.0       31.7806        2.4661       54.7372       57.2033      25.422703       0.05459
   5     589.8       31.6720        2.7096       53.9702       56.6799      25.007906       0.06157
   4     651.6       31.5706        2.9684       53.1052       56.0736      24.503007       0.06905
   3     718.7       31.4767        3.2422       52.1684       55.4106      23.933959       0.07151
   2     792.3       31.3924        3.5311       51.1777       54.7088      23.316361       0.07083
   1     891.5       31.3113        3.9134       49.8554       53.7688      22.457514       0.07308
   0    1013.0       31.2820        4.3598       48.2630       52.6228      21.340779       0.07754



 Wavenumbers: 16000. - 22650. cm-1, ATM      1
 LEVEL PRESSURE   UPWARD FLUX   DIFDOWN FLUX  DIRDOWN FLUX  DOWNWARD FLUX   NET FLUX    HEATING RATE
          mb          W/m2          W/m2          W/m2        W/m2          W/m2       degree/day
  51    .06700       75.4511        0.0000      100.7153      100.7153      25.264253       0.00000
  50    .07753       75.4509        0.0003      100.7147      100.7151      25.264136       0.09392
  49    .09103       75.4508        0.0007      100.7140      100.7147      25.263966       0.10652
  48    0.1069       75.4506        0.0012      100.7131      100.7143      25.263737       0.12147
  47    0.1255       75.4504        0.0017      100.7121      100.7139      25.263432       0.13846
  46    0.1487       75.4502        0.0024      100.7108      100.7132      25.262982       0.16407
  45    0.1794       75.4500        0.0034      100.7089      100.7122      25.262278       0.19318
  44    0.2165       75.4497        0.0045      100.7066      100.7110      25.261324       0.21711
  43    0.2613       75.4494        0.0058      100.7037      100.7095      25.260029       0.24408
  42    0.3336       75.4491        0.0079      100.6987      100.7066      25.257567       0.28703
  41    0.4307       75.4487        0.0108      100.6918      100.7026      25.253856       0.32264
  40    0.5894       75.4485        0.0155      100.6797      100.6952      25.246780       0.37633
  39     1.339       75.4527        0.0377      100.6095      100.6472      25.194507       0.58850
  38     1.782       75.4592        0.0507      100.5585      100.6092      25.149990       0.84752
  37     2.292       75.4704        0.0658      100.4903      100.5560      25.085572       1.06693
  36     2.964       75.4910        0.0855      100.3868      100.4723      24.981264       1.30939
  35     3.853       75.5263        0.1116      100.2306      100.3422      24.815873       1.56959
  34     5.035       75.5813        0.1462      100.0045      100.1507      24.569391       1.76076
  33     6.613       75.6588        0.1923       99.6939       99.8862      24.227384       1.82837
  32     8.786       75.7591        0.2543       99.2881       99.5423      23.783274       1.72476
  31     11.80       75.8869        0.3427       98.7496       99.0923      23.205399       1.61787
  30     15.07       76.0059        0.4372       98.2198       98.6571      22.651194       1.43085
  29     18.79       76.1239        0.5437       97.6651       98.2088      22.084926       1.28390
  28     23.16       76.2428        0.6676       97.0671       97.7347      21.491844       1.14683
  27     28.12       76.3568        0.8087       96.4406       97.2492      20.892401       1.01901
  26     33.73       76.4527        0.9660       95.8179       96.7839      20.331259       0.84369
  25     40.54       76.5318        1.1555       95.1548       96.3104      19.778542       0.68571
  24     48.69       76.5918        1.3831       94.4420       95.8251      19.233289       0.56425
  23     57.69       76.6234        1.6320       93.7416       95.3736      18.750220       0.45280
  22     68.43       76.6243        1.9273       92.9954       94.9226      18.298331       0.35524
  21     81.20       76.5749        2.2776       92.2231       94.5008      17.925820       0.24615
  20     96.49       76.4697        2.6932       91.4110       94.1042      17.634495       0.16079
  19     114.6       76.3217        3.1831       90.5070       93.6902      17.368478       0.12421
  18     136.5       76.1315        3.7590       89.4803       93.2393      17.107783       0.10024
  17     162.9       75.8924        4.4379       88.3023       92.7401      16.847762       0.08311
  16     196.4       75.5537        5.3080       86.8607       92.1688      16.615065       0.05857
  15     218.7       75.3216        5.8732       85.9494       91.8226      16.500979       0.04331
  14     243.0       75.0658        6.4819       84.9793       91.4613      16.395485       0.03659
  13     269.0       74.7850        7.1352       83.9502       91.0853      16.300275       0.03089
  12     297.5       74.4787        7.8336       82.8608       90.6944      16.215671       0.02509
  11     328.5       74.1480        8.5797       81.7018       90.2815      16.133465       0.02235
  10     361.9       73.7930        9.3732       80.4733       89.8465      16.053521       0.02023
   9     398.1       73.4125       10.2159       79.1717       89.3876      15.975090       0.01827
   8     437.6       73.0071       11.1081       77.7947       88.9027      15.895649       0.01699
   7     480.5       72.5766       12.0500       76.3402       88.3901      15.813536       0.01613
   6     533.0       72.0534       13.1892       74.5780       87.7673      15.713878       0.01603
   5     589.8       71.4987       14.3928       72.7102       87.1030      15.604298       0.01627
   4     651.6       70.9143       15.6586       70.7364       86.3950      15.480748       0.01690
   3     718.7       70.3003       16.9847       68.6599       85.6446      15.344371       0.01714
   2     792.3       69.6588       18.3661       66.4879       84.8540      15.195272       0.01710
   1     891.5       68.8212       20.1677       63.6361       83.8039      14.982689       0.01809
   0    1013.0       67.8598       22.2389       60.3244       82.5632      14.703475       0.01939



 Wavenumbers: 22650. - 29000. cm-1, ATM      1
 LEVEL PRESSURE   UPWARD FLUX   DIFDOWN FLUX  DIRDOWN FLUX  DOWNWARD FLUX   NET FLUX    HEATING RATE
          mb          W/m2          W/m2          W/m2        W/m2          W/m2       degree/day
  51    .06700       34.3504        0.0000       38.0063       38.0063       3.655894       0.00000
  50    .07753       34.3502        0.0004       38.0057       38.0061       3.655894       0.00000
  49    .09103       34.3500        0.0009       38.0050       38.0059       3.655894      -0.00000
  48    0.1069       34.3498        0.0014       38.0042       38.0057       3.655894       0.00000
  47    0.1255       34.3495        0.0021       38.0033       38.0054       3.655894       0.00000
  46    0.1487       34.3492        0.0029       38.0022       38.0050       3.655894       0.00000
  45    0.1794       34.3487        0.0040       38.0006       38.0046       3.655894      -0.00000
  44    0.2165       34.3481        0.0053       37.9987       38.0040       3.655894       0.00000
  43    0.2613       34.3474        0.0068       37.9965       38.0033       3.655894       0.00000
  42    0.3336       34.3463        0.0094       37.9928       38.0022       3.655894      -0.00000
  41    0.4307       34.3449        0.0128       37.9880       38.0008       3.655894      -0.00000
  40    0.5894       34.3425        0.0183       37.9800       37.9984       3.655894       0.00000
  39     1.339       34.3311        0.0446       37.9425       37.9870       3.655894       0.00000
  38     1.782       34.3245        0.0600       37.9204       37.9804       3.655894      -0.00000
  37     2.292       34.3168        0.0778       37.8949       37.9727       3.655894       0.00000
  36     2.964       34.3067        0.1012       37.8614       37.9626       3.655894       0.00000
  35     3.853       34.2934        0.1320       37.8172       37.9493       3.655894      -0.00000
  34     5.035       34.2757        0.1730       37.7586       37.9316       3.655894      -0.00000
  33     6.613       34.2520        0.2276       37.6803       37.9079       3.655894       0.00000
  32     8.786       34.2203        0.3011       37.5750       37.8762       3.655894      -0.00000
  31     11.80       34.1749        0.4060       37.4249       37.8308       3.655894       0.00000
  30     15.07       34.1264        0.5181       37.2642       37.7823       3.655894       0.00000
  29     18.79       34.0717        0.6443       37.0833       37.7276       3.655894      -0.00000
  28     23.16       34.0082        0.7911       36.8730       37.6641       3.655894       0.00000
  27     28.12       33.9358        0.9580       36.6338       37.5917       3.655894       0.00000
  26     33.73       33.8553        1.1435       36.3677       37.5112       3.655894       0.00000
  25     40.54       33.7587        1.3660       36.0486       37.4146       3.655894      -0.00000
  24     48.69       33.6432        1.6318       35.6672       37.2991       3.655894       0.00000
  23     57.69       33.5175        1.9207       35.2527       37.1734       3.655894      -0.00000
  22     68.43       33.3694        2.2603       34.7649       37.0253       3.655894       0.00000
  21     81.20       33.1953        2.6590       34.1922       36.8512       3.655894      -0.00000
  20     96.49       32.9912        3.1253       33.5218       36.6471       3.655894       0.00000
  19     114.6       32.7535        3.6670       32.7424       36.4094       3.655894      -0.00000
  18     136.5       32.4781        4.2924       31.8416       36.1340       3.655894       0.00000
  17     162.9       32.1591        5.0142       30.8008       35.8150       3.655894      -0.00000
  16     196.4       31.7592        5.9144       29.5007       35.4151       3.655894       0.00000
  15     218.7       31.5048        6.4840       28.6767       35.1607       3.655894       0.00000
  14     243.0       31.2355        7.0846       27.8068       34.8914       3.655894       0.00000
  13     269.0       30.9518        7.7143       26.8935       34.6077       3.655894      -0.00000
  12     297.5       30.6544        8.3708       25.9395       34.3103       3.655894       0.00000
  11     328.5       30.3432        9.0536       24.9455       33.9991       3.655894       0.00000
  10     361.9       30.0197        9.7588       23.9167       33.6755       3.655894       0.00000
   9     398.1       29.6840       10.4848       22.8551       33.3399       3.655894      -0.00000
   8     437.6       29.3379       11.2272       21.7666       32.9938       3.655894       0.00000
   7     480.5       28.9820       11.9830       20.6549       32.6379       3.655894       0.00000
   6     533.0       28.5647       12.8586       19.3621       32.2206       3.655894      -0.00000
   5     589.8       28.1383       13.7408       18.0534       31.7942       3.655894       0.00000
   4     651.6       27.7053       14.6219       16.7392       31.3611       3.655894       0.00000
   3     718.7       27.2687       15.4928       15.4318       30.9246       3.655894      -0.00000
   2     792.3       26.8312       16.3461       14.1411       30.4871       3.655894      -0.00000
   1     891.5       26.2861       17.3773       12.5647       29.9420       3.655894       0.00000
   0    1013.0       25.6916       18.4546       10.8928       29.3475       3.655894       0.00000



 Wavenumbers: 29000. - 38000. cm-1, ATM      1
 LEVEL PRESSURE   UPWARD FLUX   DIFDOWN FLUX  DIRDOWN FLUX  DOWNWARD FLUX   NET FLUX    HEATING RATE
          mb          W/m2          W/m2          W/m2        W/m2          W/m2       degree/day
  51    .06700        4.8872        0.0000       13.4026       13.4026       8.515414       0.00000
  50    .07753        4.8870        0.0003       13.3983       13.3986       8.511616       3.04438
  49    .09103        4.8867        0.0007       13.3921       13.3928       8.506097       3.44966
  48    0.1069        4.8864        0.0011       13.3840       13.3851       8.498720       3.92676
  47    0.1255        4.8860        0.0016       13.3733       13.3749       8.488875       4.46317
  46    0.1487        4.8856        0.0022       13.3579       13.3600       8.474433       5.26437
  45    0.1794        4.8850        0.0030       13.3340       13.3371       8.452033       6.14925
  44    0.2165        4.8844        0.0040       13.3024       13.3064       8.422014       6.82875
  43    0.2613        4.8836        0.0052       13.2604       13.2656       8.381960       7.55009
  42    0.3336        4.8824        0.0070       13.1833       13.1903       8.307953       8.62840
  41    0.4307        4.8808        0.0095       13.0729       13.0824       8.201582       9.24878
  40    0.5894        4.8784        0.0134       12.8796       12.8930       8.014539       9.94668
  39     1.339        4.8700        0.0296       11.9165       11.9462       7.076206      10.56393
  38     1.782        4.8666        0.0379       11.4399       11.4779       6.611230       8.85239
  37     2.292        4.8641        0.0468       10.9796       11.0264       6.162304       7.43539
  36     2.964        4.8627        0.0577       10.4786       10.5364       5.673681       6.13369
  35     3.853        4.8633        0.0712        9.9429       10.0141       5.150833       4.96193
  34     5.035        4.8666        0.0880        9.4007        9.4887       4.622109       3.77698
  33     6.613        4.8729        0.1094        8.8752        8.9846       4.111725       2.72852
  32     8.786        4.8815        0.1369        8.3786        8.5155       3.633997       1.85532
  31     11.80        4.8919        0.1746        7.8897        8.0643       3.172343       1.29248
  30     15.07        4.9010        0.2136        7.5108        7.7244       2.823425       0.90084
  29     18.79        4.9093        0.2560        7.1776        7.4336       2.524339       0.67812
  28     23.16        4.9169        0.3038        6.8664        7.1703       2.253360       0.52398
  27     28.12        4.9230        0.3567        6.5780        6.9347       2.011718       0.41078
  26     33.73        4.9251        0.4142        6.3195        6.7337       1.808595       0.30540
  25     40.54        4.9221        0.4822        6.0663        6.5484       1.626283       0.22618
  24     48.69        4.9135        0.5617        5.8128        6.3746       1.461090       0.17095
  23     57.69        4.8991        0.6466        5.5777        6.2243       1.325239       0.12734
  22     68.43        4.8767        0.7449        5.3379        6.0828       1.206060       0.09369
  21     81.20        4.8421        0.8589        5.0965        5.9554       1.113278       0.06131
  20     96.49        4.7940        0.9906        4.8476        5.8382       1.044175       0.03814
  19     114.6        4.7356        1.1397        4.5799        5.7196       0.984012       0.02809
  18     136.5        4.6678        1.3064        4.2891        5.5955       0.927611       0.02169
  17     162.9        4.5905        1.4911        3.9732        5.4643       0.873831       0.01719
  16     196.4        4.4925        1.7123        3.6080        5.3203       0.827848       0.01157
  15     218.7        4.4307        1.8469        3.3898        5.2366       0.805952       0.00831
  14     243.0        4.3665        1.9840        3.1686        5.1525       0.786086       0.00689
  13     269.0        4.3001        2.1225        2.9461        5.0686       0.768561       0.00569
  12     297.5        4.2319        2.2613        2.7239        4.9853       0.753396       0.00450
  11     328.5        4.1628        2.3990        2.5029        4.9019       0.739148       0.00387
  10     361.9        4.0931        2.5344        2.2846        4.8189       0.725840       0.00337
   9     398.1        4.0234        2.6661        2.0708        4.7368       0.713465       0.00288
   8     437.6        3.9541        2.7927        1.8631        4.6559       0.701760       0.00250
   7     480.5        3.8855        2.9137        1.6626        4.5763       0.690850       0.00214
   6     533.0        3.8084        3.0431        1.4445        4.4876       0.679186       0.00188
   5     589.8        3.7335        3.1615        1.2401        4.4016       0.668117       0.00164
   4     651.6        3.6612        3.2673        1.0513        4.3187       0.657496       0.00145
   3     718.7        3.5918        3.3598        0.8793        4.2391       0.647285       0.00128
   2     792.3        3.5257        3.4379        0.7253        4.1632       0.637464       0.00113
   1     891.5        3.4475        3.5150        0.5580        4.0731       0.625565       0.00101
   0    1013.0        3.3668        3.5738        0.4057        3.9795       0.612703       0.00089



 Wavenumbers: 38000. - 50000. cm-1, ATM      1
 LEVEL PRESSURE   UPWARD FLUX   DIFDOWN FLUX  DIRDOWN FLUX  DOWNWARD FLUX   NET FLUX    HEATING RATE
          mb          W/m2          W/m2          W/m2        W/m2          W/m2       degree/day
  51    .06700        0.0051        0.0000        0.8267        0.8267       0.821528       0.00000
  50    .07753        0.0051        0.0001        0.8242        0.8243       0.819196       1.86936
  49    .09103        0.0050        0.0002        0.8207        0.8209       0.815872       2.07705
  48    0.1069        0.0049        0.0002        0.8162        0.8164       0.811514       2.31984
  47    0.1255        0.0048        0.0004        0.8103        0.8106       0.805801       2.59006
  46    0.1487        0.0047        0.0005        0.8018        0.8023       0.797567       3.00143
  45    0.1794        0.0045        0.0007        0.7889        0.7896       0.785013       3.44648
  44    0.2165        0.0044        0.0009        0.7720        0.7729       0.768507       3.75474
  43    0.2613        0.0042        0.0011        0.7500        0.7511       0.746955       4.06246
  42    0.3336        0.0039        0.0015        0.7106        0.7121       0.708267       4.51071
  41    0.4307        0.0035        0.0019        0.6566        0.6584       0.654972       4.63387
  40    0.5894        0.0029        0.0024        0.5680        0.5704       0.567464       4.65357
  39     1.339        0.0015        0.0030        0.2422        0.2452       0.243720       3.64476
  38     1.782        0.0010        0.0026        0.1493        0.1519       0.150889       1.76735
  37     2.292        0.0007        0.0022        0.0924        0.0946       0.093932       0.94336
  36     2.964        0.0005        0.0018        0.0539        0.0557       0.055224       0.48589
  35     3.853        0.0003        0.0013        0.0295        0.0308       0.030502       0.23462
  34     5.035        0.0002        0.0010        0.0154        0.0164       0.016181       0.10230
  33     6.613        0.0001        0.0007        0.0073        0.0080       0.007912       0.04420
  32     8.786        0.0000        0.0004        0.0030        0.0034       0.003390       0.01756
  31     11.80        0.0000        0.0003        0.0010        0.0012       0.001199       0.00613
  30     15.07        0.0000        0.0001        0.0003        0.0005       0.000463       0.00190
  29     18.79        0.0000        0.0001        0.0001        0.0002       0.000182       0.00064
  28     23.16        0.0000        0.0000        0.0000        0.0001       0.000071       0.00022
  27     28.12        0.0000        0.0000        0.0000        0.0000       0.000028       0.00007
  26     33.73        0.0000        0.0000        0.0000        0.0000       0.000011       0.00002
  25     40.54        0.0000        0.0000        0.0000        0.0000       0.000005       0.00001
  24     48.69        0.0000        0.0000        0.0000        0.0000       0.000002       0.00000
  23     57.69        0.0000        0.0000        0.0000        0.0000       0.000001       0.00000
  22     68.43        0.0000        0.0000        0.0000        0.0000       0.000000       0.00000
  21     81.20        0.0000        0.0000        0.0000        0.0000       0.000000       0.00000
  20     96.49        0.0000        0.0000        0.0000        0.0000       0.000000       0.00000
  19     114.6        0.0000        0.0000        0.0000        0.0000       0.000000       0.00000
  18     136.5        0.0000        0.0000        0.0000        0.0000       0.000000       0.00000
  17     162.9        0.0000        0.0000        0.0000        0.0000       0.000000       0.00000
  16     196.4        0.0000        0.0000        0.0000        0.0000       0.000000       0.00000
  15     218.7        0.0000        0.0000        0.0000        0.0000       0.000000       0.00000
  14     243.0        0.0000        0.0000        0.0000        0.0000       0.000000       0.00000
  13     269.0        0.0000        0.0000        0.0000        0.0000       0.000000       0.00000
  12     297.5        0.0000        0.0000        0.0000        0.0000       0.000000       0.00000
  11     328.5        0.0000        0.0000        0.0000        0.0000       0.000000       0.00000
  10     361.9        0.0000        0.0000        0.0000        0.0000       0.000000       0.00000
   9     398.1        0.0000        0.0000        0.0000        0.0000       0.000000       0.00000
   8     437.6        0.0000        0.0000        0.0000        0.0000       0.000000       0.00000
   7     480.5        0.0000        0.0000        0.0000        0.0000       0.000000       0.00000
   6     533.0        0.0000        0.0000        0.0000        0.0000       0.000000       0.00000
   5     589.8        0.0000        0.0000        0.0000        0.0000       0.000000       0.00000
   4     651.6        0.0000        0.0000        0.0000        0.0000       0.000000       0.00000
   3     718.7        0.0000        0.0000        0.0000        0.0000       0.000000       0.00000
   2     792.3        0.0000        0.0000        0.0000        0.0000       0.000000       0.00000
   1     891.5        0.0000        0.0000        0.0000        0.0000       0.000000       0.00000
   0    1013.0        0.0000        0.0000        0.0000        0.0000       0.000000       0.00000



 Wavenumbers:   820. -  2600. cm-1, ATM      1
 LEVEL PRESSURE   UPWARD FLUX   DIFDOWN FLUX  DIRDOWN FLUX  DOWNWARD FLUX   NET FLUX    HEATING RATE
          mb          W/m2          W/m2          W/m2        W/m2          W/m2       degree/day
  51    .06700        0.1875        0.0000        3.8670        3.8670       3.679506       0.00000
  50    .07753        0.1875        0.0000        3.8643        3.8643       3.676815       2.15713
  49    .09103        0.1875        0.0000        3.8636        3.8636       3.676038       0.48543
  48    0.1069        0.1875        0.0000        3.8627        3.8627       3.675188       0.45282
  47    0.1255        0.1875        0.0000        3.8618        3.8618       3.674275       0.41391
  46    0.1487        0.1875        0.0000        3.8607        3.8607       3.673228       0.38152
  45    0.1794        0.1875        0.0000        3.8595        3.8595       3.671982       0.34206
  44    0.2165        0.1875        0.0000        3.8582        3.8582       3.670714       0.28857
  43    0.2613        0.1875        0.0000        3.8569        3.8569       3.669387       0.25002
  42    0.3336        0.1875        0.0000        3.8549        3.8549       3.667384       0.23355
  41    0.4307        0.1875        0.0000        3.8523        3.8523       3.664813       0.22352
  40    0.5894        0.1875        0.0000        3.8481        3.8481       3.660606       0.22376
  39     1.339        0.1875        0.0000        3.8292        3.8292       3.641665       0.21324
  38     1.782        0.1875        0.0000        3.8187        3.8187       3.631200       0.19923
  37     2.292        0.1875        0.0000        3.8071        3.8071       3.619596       0.19219
  36     2.964        0.1875        0.0000        3.7927        3.7927       3.605213       0.18055
  35     3.853        0.1875        0.0000        3.7748        3.7748       3.587256       0.17042
  34     5.035        0.1875        0.0000        3.7522        3.7522       3.564638       0.16157
  33     6.613        0.1875        0.0000        3.7235        3.7235       3.535949       0.15337
  32     8.786        0.1875        0.0000        3.6883        3.6883       3.500818       0.13644
  31     11.80        0.1875        0.0000        3.6484        3.6484       3.460881       0.11181
  30     15.07        0.1875        0.0000        3.6186        3.6186       3.431084       0.07693
  29     18.79        0.1875        0.0000        3.5961        3.5961       3.408588       0.05101
  28     23.16        0.1875        0.0000        3.5773        3.5773       3.389757       0.03641
  27     28.12        0.1875        0.0000        3.5591        3.5591       3.371546       0.03096
  26     33.73        0.1875        0.0000        3.5397        3.5397       3.352183       0.02911
  25     40.54        0.1875        0.0000        3.5168        3.5168       3.329313       0.02837
  24     48.69        0.1875        0.0000        3.4898        3.4898       3.302307       0.02795
  23     57.69        0.1875        0.0000        3.4610        3.4610       3.273482       0.02702
  22     68.43        0.1875        0.0000        3.4281        3.4281       3.240512       0.02592
  21     81.20        0.1876        0.0000        3.3911        3.3911       3.203544       0.02443
  20     96.49        0.1876        0.0000        3.3497        3.3498       3.162197       0.02282
  19     114.6        0.1876        0.0000        3.3038        3.3038       3.116254       0.02145
  18     136.5        0.1876        0.0000        3.2513        3.2514       3.063761       0.02018
  17     162.9        0.1876        0.0000        3.1847        3.1847       2.997051       0.02132
  16     196.4        0.1877        0.0000        3.0893        3.0893       2.901630       0.02402
  15     218.7        0.1877        0.0000        3.0286        3.0286       2.840904       0.02306
  14     243.0        0.1878        0.0000        2.9548        2.9548       2.767062       0.02561
  13     269.0        0.1879        0.0000        2.8556        2.8556       2.667738       0.03222
  12     297.5        0.1880        0.0000        2.7275        2.7276       2.539551       0.03802
  11     328.5        0.1882        0.0000        2.5555        2.5555       2.367284       0.04684
  10     361.9        0.1886        0.0000        2.3536        2.3536       2.165051       0.05117
   9     398.1        0.1890        0.0000        2.1682        2.1682       1.979215       0.04330
   8     437.6        0.1897        0.0000        2.0282        2.0282       1.838526       0.03008
   7     480.5        0.1905        0.0000        1.9242        1.9242       1.733701       0.02059
   6     533.0        0.1919        0.0000        1.8140        1.8140       1.622112       0.01795
   5     589.8        0.1938        0.0000        1.6965        1.6965       1.502672       0.01773
   4     651.6        0.1966        0.0000        1.5774        1.5775       1.380920       0.01665
   3     718.7        0.2001        0.0000        1.4718        1.4719       1.271764       0.01372
   2     792.3        0.2045        0.0000        1.3829        1.3829       1.178438       0.01070
   1     891.5        0.2116        0.0000        1.2803        1.2804       1.068786       0.00933
   0    1013.0        0.2241        0.0000        1.1519        1.1520       0.927915       0.00978

  Modules and versions used in this calculation:

       rrtmg_sw.1col.f90:  $Revision$                    rrtmg_sw_init.f90:  $Revision$        
     rrtmgsw_cldprop.f90:  $Revision$                  rrtmgsw_cldprmc.f90:  NOT USED          
     rrtmg_sw_reftra.f90:  $Revision$                  rrtmg_sw_spcvrt.f90:  NOT USED          
     rrtmg_sw_spcvmc.f90:  NOT USED                    rrtmgsw_setcoef.f90:  NOT USED          
     rrtmg_sw_taumol.f90:  $Revision$                  rrtmg_sw_vrtqdr.f90:  NOT USED          
                rrtatm.f:  NOT USED                             util_xxx.f:  NOT USED          
                 extra.f:  NOT USED                       rrtmg_sw_k_g.f90:  $Revision$        

