

 Wavenumbers:   820. - 50000. cm-1, ATM      1
 LEVEL PRESSURE   UPWARD FLUX   DIFDOWN FLUX  DIRDOWN FLUX  DOWNWARD FLUX   NET FLUX    HEATING RATE
          mb          W/m2          W/m2          W/m2        W/m2          W/m2       degree/day
  51    .06700      174.2234        0.0000      397.8738      397.8738     223.650408       0.00000
  50    .07753      174.2228        0.0012      397.8578      397.8589     223.636181      11.40302
  49    .09103      174.2220        0.0026      397.8420      397.8446     223.622574       8.50525
  48    0.1069      174.2211        0.0043      397.8232      397.8274     223.606316       8.65389
  47    0.1255      174.2201        0.0062      397.7999      397.8061     223.585977       9.22104
  46    0.1487      174.2190        0.0086      397.7680      397.7766     223.557651      10.32477
  45    0.1794      174.2174        0.0119      397.7210      397.7329     223.515543      11.55967
  44    0.2165      174.2156        0.0158      397.6609      397.6767     223.461122      12.37990
  43    0.2613      174.2135        0.0203      397.5838      397.6041     223.390610      13.29125
  42    0.3336      174.2103        0.0278      397.4461      397.4739     223.263666      14.80036
  41    0.4307      174.2063        0.0377      397.2541      397.2917     223.085494      15.49168
  40    0.5894      174.2003        0.0535      396.9277      396.9812     222.780958      16.19484
  39     1.339      174.1825        0.1243      395.4308      395.5551     221.372592      15.85565
  38     1.782      174.1791        0.1640      394.7358      394.8998     220.720754      12.40995
  37     2.292      174.1812        0.2091      394.0660      394.2751     220.093992      10.38082
  36     2.964      174.1929        0.2677      393.3118      393.5795     219.386596       8.87995
  35     3.853      174.2209        0.3443      392.4457      392.7900     218.569066       7.75852
  34     5.035      174.2705        0.4450      391.4613      391.9063     217.635851       6.66650
  33     6.613      174.3436        0.5784      390.3478      390.9262     216.582683       5.63023
  32     8.786      174.4373        0.7568      389.0878      389.8446     215.407313       4.56471
  31     11.80      174.5507        1.0100      387.5805      388.5904     214.039728       3.82881
  30     15.07      174.6483        1.2795      386.1908      387.4703     212.822037       3.14384
  29     18.79      174.7370        1.5816      384.7904      386.3720     211.634940       2.69151
  28     23.16      174.8159        1.9316      383.3140      385.2456     210.429685       2.33057
  27     28.12      174.8771        2.3284      381.7836      384.1120     209.234990       2.03090
  26     33.73      174.9029        2.7693      380.2540      383.0232     208.120331       1.67592
  25     40.54      174.8848        3.2978      378.5996      381.8974     207.012641       1.37421
  24     48.69      174.8158        3.9293      376.7884      380.7178     205.901940       1.14940
  23     57.69      174.6949        4.6163      374.9682      379.5845     204.889613       0.94890
  22     68.43      174.5026        5.4261      372.9774      378.4035     203.900907       0.77725
  21     81.20      174.2067        6.3804      370.8322      377.2126     203.005876       0.59142
  20     96.49      173.7941        7.5027      368.4934      375.9961     202.202002       0.44368
  19     114.6      173.2851        8.8132      365.8479      374.6611     201.375998       0.38569
  18     136.5      172.6704       10.3346      362.8335      373.1681     200.497662       0.33774
  17     162.9      171.9337       12.1025      359.3151      371.4176     199.483826       0.32406
  16     196.4      170.9572       14.3303      354.7843      369.1146     198.157414       0.33387
  15     218.7      170.3141       15.7546      351.7315      367.4861     197.172032       0.37411
  14     243.0      169.6203       17.2689      348.1325      365.4014     195.781075       0.48243
  13     269.0      168.8758       18.8713      343.5670      362.4384     193.562536       0.71968
  12     297.5      168.0815       20.5596      338.2521      358.8117     190.730248       0.84003
  11     328.5      167.2403       22.3352      332.2484      354.5836     187.343260       0.92091
  10     361.9      166.3556       24.1926      325.5485      349.7411     183.385497       1.00135
   9     398.1      165.4286       26.1310      318.3015      344.4326     179.003965       1.02080
   8     437.6      164.4649       28.1457      310.5492      338.6949     174.229918       1.02072
   7     480.5      163.4731       30.2307      302.1624      332.3931     168.919919       1.04286
   6     533.0      162.3133       32.6980      292.2004      324.8985     162.585148       1.01906
   5     589.8      161.1431       35.2426      282.0706      317.3132     156.170178       0.95219
   4     651.6      159.9841       37.8519      271.7782      309.6302     149.646062       0.89219
   3     718.7      158.8501       40.5157      261.5761      302.0918     143.241661       0.80486
   2     792.3      157.7564       43.2216      251.6185      294.8401     137.083756       0.70624
   1     891.5      156.5037       46.6469      239.3034      285.9503     129.446551       0.64989
   0    1013.0      155.4638       50.4446      225.4664      275.9111     120.447235       0.62487



 Wavenumbers:  2600. -  3250. cm-1, ATM      1
 LEVEL PRESSURE   UPWARD FLUX   DIFDOWN FLUX  DIRDOWN FLUX  DOWNWARD FLUX   NET FLUX    HEATING RATE
          mb          W/m2          W/m2          W/m2        W/m2          W/m2       degree/day
  51    .06700        0.2566        0.0000        3.5066        3.5066       3.250054       0.00000
  50    .07753        0.2566        0.0000        3.5066        3.5066       3.250046       0.00640
  49    .09103        0.2566        0.0000        3.5066        3.5066       3.250036       0.00627
  48    0.1069        0.2566        0.0000        3.5066        3.5066       3.250025       0.00613
  47    0.1255        0.2566        0.0000        3.5066        3.5066       3.250011       0.00599
  46    0.1487        0.2566        0.0000        3.5066        3.5066       3.249995       0.00607
  45    0.1794        0.2566        0.0000        3.5065        3.5065       3.249972       0.00624
  44    0.2165        0.2566        0.0000        3.5065        3.5065       3.249945       0.00611
  43    0.2613        0.2566        0.0000        3.5065        3.5065       3.249913       0.00598
  42    0.3336        0.2566        0.0000        3.5064        3.5064       3.249861       0.00615
  41    0.4307        0.2566        0.0000        3.5064        3.5064       3.249790       0.00618
  40    0.5894        0.2566        0.0000        3.5062        3.5062       3.249671       0.00633
  39     1.339        0.2566        0.0000        3.5055        3.5055       3.248972       0.00787
  38     1.782        0.2566        0.0000        3.5050        3.5050       3.248441       0.01011
  37     2.292        0.2566        0.0000        3.5043        3.5043       3.247749       0.01147
  36     2.964        0.2566        0.0000        3.5033        3.5033       3.246757       0.01245
  35     3.853        0.2566        0.0000        3.5019        3.5019       3.245380       0.01307
  34     5.035        0.2566        0.0000        3.5001        3.5001       3.243519       0.01329
  33     6.613        0.2566        0.0000        3.4977        3.4977       3.241109       0.01288
  32     8.786        0.2566        0.0000        3.4947        3.4947       3.238139       0.01154
  31     11.80        0.2566        0.0000        3.4911        3.4911       3.234503       0.01018
  30     15.07        0.2566        0.0000        3.4878        3.4878       3.231282       0.00832
  29     18.79        0.2566        0.0000        3.4848        3.4848       3.228219       0.00695
  28     23.16        0.2566        0.0000        3.4816        3.4816       3.224999       0.00623
  27     28.12        0.2566        0.0000        3.4779        3.4779       3.221381       0.00615
  26     33.73        0.2566        0.0000        3.4735        3.4735       3.216915       0.00672
  25     40.54        0.2566        0.0000        3.4671        3.4671       3.210589       0.00785
  24     48.69        0.2566        0.0000        3.4582        3.4583       3.201694       0.00920
  23     57.69        0.2566        0.0000        3.4472        3.4472       3.190646       0.01036
  22     68.43        0.2566        0.0000        3.4329        3.4329       3.176386       0.01121
  21     81.20        0.2566        0.0000        3.4152        3.4152       3.158658       0.01171
  20     96.49        0.2566        0.0000        3.3940        3.3941       3.137513       0.01167
  19     114.6        0.2566        0.0000        3.3693        3.3694       3.112789       0.01154
  18     136.5        0.2566        0.0001        3.3423        3.3423       3.085751       0.01040
  17     162.9        0.2566        0.0001        3.3135        3.3136       3.056969       0.00920
  16     196.4        0.2567        0.0001        3.2807        3.2808       3.024162       0.00826
  15     218.7        0.2567        0.0001        3.2602        3.2603       3.003551       0.00783
  14     243.0        0.2568        0.0001        3.2357        3.2358       2.978970       0.00853
  13     269.0        0.2569        0.0001        3.2031        3.2032       2.946310       0.01059
  12     297.5        0.2571        0.0001        3.1597        3.1598       2.902685       0.01294
  11     328.5        0.2574        0.0001        3.0999        3.1000       2.842560       0.01635
  10     361.9        0.2579        0.0001        3.0181        3.0182       2.760348       0.02080
   9     398.1        0.2585        0.0001        2.9121        2.9122       2.653698       0.02485
   8     437.6        0.2594        0.0001        2.7801        2.7803       2.520887       0.02840
   7     480.5        0.2607        0.0001        2.6232        2.6234       2.362701       0.03107
   6     533.0        0.2629        0.0002        2.4311        2.4313       2.168425       0.03125
   5     589.8        0.2660        0.0002        2.2413        2.2415       1.975515       0.02863
   4     651.6        0.2704        0.0002        2.0479        2.0481       1.777686       0.02705
   3     718.7        0.2763        0.0002        1.8558        1.8560       1.579617       0.02489
   2     792.3        0.2841        0.0002        1.6764        1.6766       1.392465       0.02146
   1     891.5        0.2974        0.0002        1.4720        1.4721       1.174770       0.01852
   0    1013.0        0.3211        0.0002        1.2585        1.2587       0.937618       0.01647



 Wavenumbers:  3250. -  4000. cm-1, ATM      1
 LEVEL PRESSURE   UPWARD FLUX   DIFDOWN FLUX  DIRDOWN FLUX  DOWNWARD FLUX   NET FLUX    HEATING RATE
          mb          W/m2          W/m2          W/m2        W/m2          W/m2       degree/day
  51    .06700        0.0007        0.0000        5.9117        5.9117       5.910994       0.00000
  50    .07753        0.0007        0.0000        5.9075        5.9075       5.906833       3.33509
  49    .09103        0.0007        0.0000        5.9051        5.9051       5.904424       1.50605
  48    0.1069        0.0007        0.0000        5.9032        5.9032       5.902590       0.97622
  47    0.1255        0.0007        0.0000        5.9015        5.9015       5.900863       0.78270
  46    0.1487        0.0007        0.0000        5.8997        5.8997       5.899011       0.67531
  45    0.1794        0.0007        0.0000        5.8976        5.8976       5.896906       0.57791
  44    0.2165        0.0007        0.0000        5.8955        5.8955       5.894837       0.47045
  43    0.2613        0.0007        0.0000        5.8934        5.8934       5.892738       0.39579
  42    0.3336        0.0007        0.0000        5.8903        5.8903       5.889675       0.35708
  41    0.4307        0.0007        0.0000        5.8866        5.8866       5.885966       0.32248
  40    0.5894        0.0007        0.0000        5.8810        5.8810       5.880343       0.29902
  39     1.339        0.0007        0.0000        5.8609        5.8609       5.860209       0.22667
  38     1.782        0.0007        0.0000        5.8526        5.8526       5.851937       0.15749
  37     2.292        0.0007        0.0000        5.8446        5.8446       5.843937       0.13251
  36     2.964        0.0007        0.0000        5.8352        5.8352       5.834537       0.11800
  35     3.853        0.0007        0.0000        5.8233        5.8233       5.822689       0.11244
  34     5.035        0.0007        0.0000        5.8077        5.8077       5.807028       0.11187
  33     6.613        0.0007        0.0000        5.7864        5.7864       5.785740       0.11381
  32     8.786        0.0006        0.0000        5.7568        5.7568       5.756201       0.11472
  31     11.80        0.0006        0.0000        5.7136        5.7136       5.712942       0.12111
  30     15.07        0.0006        0.0000        5.6669        5.6669       5.666242       0.12057
  29     18.79        0.0006        0.0000        5.6153        5.6154       5.614737       0.11678
  28     23.16        0.0006        0.0000        5.5588        5.5588       5.558220       0.10929
  27     28.12        0.0006        0.0000        5.5002        5.5003       5.499636       0.09959
  26     33.73        0.0006        0.0000        5.4418        5.4418       5.441231       0.08781
  25     40.54        0.0006        0.0001        5.3783        5.3783       5.377735       0.07877
  24     48.69        0.0006        0.0001        5.3071        5.3072       5.306583       0.07363
  23     57.69        0.0006        0.0001        5.2315        5.2316       5.231043       0.07081
  22     68.43        0.0006        0.0001        5.1434        5.1435       5.142900       0.06929
  21     81.20        0.0006        0.0001        5.0417        5.0418       5.041256       0.06716
  20     96.49        0.0005        0.0001        4.9273        4.9275       4.926922       0.06310
  19     114.6        0.0005        0.0001        4.7963        4.7965       4.795958       0.06115
  18     136.5        0.0005        0.0002        4.6516        4.6518       4.651306       0.05562
  17     162.9        0.0005        0.0002        4.4738        4.4740       4.473569       0.05681
  16     196.4        0.0004        0.0002        4.2081        4.2083       4.207915       0.06687
  15     218.7        0.0004        0.0002        4.0173        4.0176       4.017170       0.07242
  14     243.0        0.0004        0.0002        3.7801        3.7804       3.779993       0.08226
  13     269.0        0.0004        0.0002        3.4395        3.4398       3.439399       0.11049
  12     297.5        0.0003        0.0002        3.0202        3.0205       3.020130       0.12435
  11     328.5        0.0003        0.0002        2.5719        2.5722       2.571843       0.12189
  10     361.9        0.0003        0.0002        2.1586        2.1589       2.158552       0.10457
   9     398.1        0.0003        0.0002        1.8000        1.8002       1.799889       0.08356
   8     437.6        0.0003        0.0002        1.4798        1.4800       1.479739       0.06845
   7     480.5        0.0003        0.0002        1.1784        1.1785       1.178248       0.05921
   6     533.0        0.0003        0.0001        0.8686        0.8687       0.868434       0.04984
   5     589.8        0.0003        0.0001        0.5979        0.5980       0.597650       0.04019
   4     651.6        0.0004        0.0001        0.3788        0.3789       0.378481       0.02997
   3     718.7        0.0005        0.0001        0.2195        0.2196       0.219073       0.02003
   2     792.3        0.0008        0.0000        0.1116        0.1117       0.110906       0.01241
   1     891.5        0.0015        0.0000        0.0356        0.0356       0.034106       0.00654
   0    1013.0        0.0048        0.0000        0.0051        0.0051       0.000268       0.00235



 Wavenumbers:  4000. -  4650. cm-1, ATM      1
 LEVEL PRESSURE   UPWARD FLUX   DIFDOWN FLUX  DIRDOWN FLUX  DOWNWARD FLUX   NET FLUX    HEATING RATE
          mb          W/m2          W/m2          W/m2        W/m2          W/m2       degree/day
  51    .06700        0.6582        0.0000        6.9421        6.9421       6.283887       0.00000
  50    .07753        0.6582        0.0000        6.9421        6.9421       6.283886       0.00080
  49    .09103        0.6582        0.0000        6.9421        6.9421       6.283884       0.00078
  48    0.1069        0.6582        0.0000        6.9421        6.9421       6.283883       0.00076
  47    0.1255        0.6582        0.0000        6.9421        6.9421       6.283881       0.00074
  46    0.1487        0.6582        0.0000        6.9421        6.9421       6.283879       0.00075
  45    0.1794        0.6582        0.0000        6.9421        6.9421       6.283877       0.00078
  44    0.2165        0.6582        0.0000        6.9421        6.9421       6.283873       0.00076
  43    0.2613        0.6582        0.0000        6.9420        6.9420       6.283869       0.00074
  42    0.3336        0.6582        0.0000        6.9420        6.9420       6.283863       0.00077
  41    0.4307        0.6582        0.0000        6.9420        6.9420       6.283854       0.00077
  40    0.5894        0.6582        0.0000        6.9420        6.9420       6.283839       0.00079
  39     1.339        0.6582        0.0000        6.9419        6.9419       6.283750       0.00100
  38     1.782        0.6582        0.0000        6.9418        6.9419       6.283680       0.00132
  37     2.292        0.6582        0.0000        6.9418        6.9418       6.283587       0.00155
  36     2.964        0.6582        0.0000        6.9416        6.9416       6.283447       0.00175
  35     3.853        0.6582        0.0000        6.9414        6.9414       6.283240       0.00196
  34     5.035        0.6582        0.0000        6.9411        6.9411       6.282935       0.00218
  33     6.613        0.6582        0.0000        6.9406        6.9406       6.282487       0.00240
  32     8.786        0.6582        0.0000        6.9399        6.9400       6.281826       0.00257
  31     11.80        0.6581        0.0000        6.9389        6.9389       6.280790       0.00290
  30     15.07        0.6581        0.0001        6.9377        6.9377       6.279579       0.00313
  29     18.79        0.6581        0.0001        6.9362        6.9362       6.278118       0.00331
  28     23.16        0.6581        0.0001        6.9343        6.9344       6.276313       0.00349
  27     28.12        0.6581        0.0001        6.9321        6.9322       6.274138       0.00370
  26     33.73        0.6581        0.0001        6.9294        6.9295       6.271469       0.00401
  25     40.54        0.6581        0.0001        6.9258        6.9259       6.267871       0.00446
  24     48.69        0.6580        0.0002        6.9210        6.9211       6.263109       0.00493
  23     57.69        0.6580        0.0002        6.9153        6.9155       6.257508       0.00525
  22     68.43        0.6580        0.0003        6.9083        6.9085       6.250548       0.00547
  21     81.20        0.6580        0.0003        6.8997        6.9000       6.242041       0.00562
  20     96.49        0.6579        0.0004        6.8893        6.8897       6.231770       0.00567
  19     114.6        0.6579        0.0004        6.8765        6.8769       6.219041       0.00594
  18     136.5        0.6579        0.0005        6.8611        6.8616       6.203721       0.00589
  17     162.9        0.6578        0.0006        6.8420        6.8426       6.184781       0.00605
  16     196.4        0.6579        0.0007        6.8156        6.8164       6.158503       0.00661
  15     218.7        0.6579        0.0008        6.7965        6.7973       6.139384       0.00726
  14     243.0        0.6580        0.0009        6.7725        6.7734       6.115460       0.00830
  13     269.0        0.6581        0.0010        6.7399        6.7408       6.082744       0.01061
  12     297.5        0.6584        0.0011        6.6961        6.6972       6.038848       0.01302
  11     328.5        0.6588        0.0012        6.6354        6.6366       5.977809       0.01660
  10     361.9        0.6593        0.0013        6.5543        6.5556       5.896279       0.02063
   9     398.1        0.6601        0.0014        6.4536        6.4550       5.794948       0.02361
   8     437.6        0.6610        0.0015        6.3363        6.3378       5.676785       0.02526
   7     480.5        0.6624        0.0016        6.2033        6.2049       5.542547       0.02636
   6     533.0        0.6645        0.0017        6.0323        6.0340       5.369530       0.02783
   5     589.8        0.6675        0.0019        5.8266        5.8284       5.160920       0.03096
   4     651.6        0.6719        0.0020        5.5805        5.5825       4.910595       0.03423
   3     718.7        0.6779        0.0021        5.3210        5.3232       4.645316       0.03334
   2     792.3        0.6855        0.0023        5.0767        5.0790       4.393447       0.02889
   1     891.5        0.6986        0.0024        4.7935        4.7959       4.097327       0.02520
   0    1013.0        0.7217        0.0026        4.4787        4.4813       3.759629       0.02345



 Wavenumbers:  4650. -  5150. cm-1, ATM      1
 LEVEL PRESSURE   UPWARD FLUX   DIFDOWN FLUX  DIRDOWN FLUX  DOWNWARD FLUX   NET FLUX    HEATING RATE
          mb          W/m2          W/m2          W/m2        W/m2          W/m2       degree/day
  51    .06700        0.4585        0.0000        6.5710        6.5710       6.112478       0.00000
  50    .07753        0.4585        0.0000        6.5708        6.5708       6.112242       0.18885
  49    .09103        0.4585        0.0000        6.5705        6.5705       6.111949       0.18360
  48    0.1069        0.4585        0.0000        6.5701        6.5701       6.111614       0.17804
  47    0.1255        0.4585        0.0000        6.5697        6.5697       6.111234       0.17236
  46    0.1487        0.4585        0.0000        6.5693        6.5693       6.110760       0.17266
  45    0.1794        0.4585        0.0000        6.5686        6.5686       6.110124       0.17471
  44    0.2165        0.4585        0.0000        6.5679        6.5679       6.109386       0.16785
  43    0.2613        0.4585        0.0000        6.5670        6.5670       6.108533       0.16076
  42    0.3336        0.4585        0.0000        6.5657        6.5657       6.107170       0.15892
  41    0.4307        0.4585        0.0000        6.5640        6.5640       6.105449       0.14969
  40    0.5894        0.4585        0.0000        6.5613        6.5613       6.102833       0.13910
  39     1.339        0.4585        0.0000        6.5516        6.5516       6.093057       0.11006
  38     1.782        0.4585        0.0000        6.5473        6.5473       6.088842       0.08024
  37     2.292        0.4585        0.0000        6.5434        6.5435       6.084957       0.06436
  36     2.964        0.4585        0.0000        6.5395        6.5395       6.081004       0.04962
  35     3.853        0.4585        0.0000        6.5355        6.5356       6.077063       0.03740
  34     5.035        0.4585        0.0000        6.5315        6.5316       6.073063       0.02857
  33     6.613        0.4585        0.0000        6.5271        6.5272       6.068672       0.02347
  32     8.786        0.4585        0.0000        6.5216        6.5217       6.063181       0.02132
  31     11.80        0.4585        0.0001        6.5135        6.5136       6.055110       0.02260
  30     15.07        0.4584        0.0001        6.5041        6.5042       6.045749       0.02417
  29     18.79        0.4584        0.0001        6.4926        6.4927       6.034244       0.02609
  28     23.16        0.4584        0.0001        6.4779        6.4781       6.019666       0.02819
  27     28.12        0.4584        0.0002        6.4599        6.4601       6.001709       0.03053
  26     33.73        0.4584        0.0002        6.4385        6.4387       5.980299       0.03219
  25     40.54        0.4583        0.0002        6.4113        6.4115       5.953203       0.03362
  24     48.69        0.4583        0.0003        6.3776        6.3779       5.919603       0.03477
  23     57.69        0.4583        0.0003        6.3405        6.3408       5.882555       0.03473
  22     68.43        0.4583        0.0004        6.2973        6.2977       5.839420       0.03391
  21     81.20        0.4582        0.0004        6.2485        6.2489       5.790674       0.03221
  20     96.49        0.4582        0.0005        6.1951        6.1956       5.737389       0.02941
  19     114.6        0.4582        0.0006        6.1384        6.1391       5.680880       0.02639
  18     136.5        0.4582        0.0007        6.0794        6.0801       5.621937       0.02267
  17     162.9        0.4582        0.0009        6.0165        6.0174       5.559230       0.02004
  16     196.4        0.4582        0.0010        5.9406        5.9417       5.483457       0.01907
  15     218.7        0.4582        0.0011        5.8908        5.8919       5.433633       0.01892
  14     243.0        0.4583        0.0012        5.8341        5.8353       5.377005       0.01964
  13     269.0        0.4585        0.0014        5.7665        5.7679       5.309424       0.02192
  12     297.5        0.4588        0.0015        5.6837        5.6852       5.226445       0.02461
  11     328.5        0.4591        0.0016        5.5843        5.5859       5.126776       0.02710
  10     361.9        0.4597        0.0018        5.4650        5.4667       5.007026       0.03030
   9     398.1        0.4605        0.0019        5.3253        5.3272       4.866705       0.03269
   8     437.6        0.4616        0.0020        5.1629        5.1650       4.703392       0.03492
   7     480.5        0.4631        0.0022        4.9754        4.9776       4.514513       0.03710
   6     533.0        0.4654        0.0023        4.7388        4.7411       4.275692       0.03842
   5     589.8        0.4688        0.0025        4.4892        4.4916       4.022879       0.03753
   4     651.6        0.4734        0.0026        4.2334        4.2360       3.762608       0.03559
   3     718.7        0.4796        0.0027        3.9817        3.9844       3.504835       0.03239
   2     792.3        0.4876        0.0028        3.7418        3.7446       3.257011       0.02842
   1     891.5        0.5013        0.0030        3.4546        3.4576       2.956261       0.02559
   0    1013.0        0.5245        0.0031        3.1451        3.1483       2.623792       0.02309



 Wavenumbers:  5150. -  6150. cm-1, ATM      1
 LEVEL PRESSURE   UPWARD FLUX   DIFDOWN FLUX  DIRDOWN FLUX  DOWNWARD FLUX   NET FLUX    HEATING RATE
          mb          W/m2          W/m2          W/m2        W/m2          W/m2       degree/day
  51    .06700        1.2714        0.0000       16.4735       16.4735      15.202118       0.00000
  50    .07753        1.2714        0.0000       16.4735       16.4735      15.202091       0.02212
  49    .09103        1.2714        0.0000       16.4734       16.4734      15.202055       0.02252
  48    0.1069        1.2714        0.0000       16.4734       16.4734      15.202012       0.02291
  47    0.1255        1.2714        0.0000       16.4733       16.4733      15.201960       0.02327
  46    0.1487        1.2714        0.0000       16.4733       16.4733      15.201893       0.02452
  45    0.1794        1.2714        0.0000       16.4732       16.4732      15.201798       0.02620
  44    0.2165        1.2714        0.0000       16.4731       16.4731      15.201680       0.02670
  43    0.2613        1.2714        0.0000       16.4729       16.4729      15.201537       0.02706
  42    0.3336        1.2714        0.0000       16.4727       16.4727      15.201292       0.02858
  41    0.4307        1.2714        0.0000       16.4723       16.4723      15.200955       0.02924
  40    0.5894        1.2714        0.0000       16.4718       16.4718      15.200392       0.02993
  39     1.339        1.2714        0.0000       16.4690       16.4690      15.197649       0.03088
  38     1.782        1.2713        0.0000       16.4673       16.4674      15.196034       0.03075
  37     2.292        1.2713        0.0001       16.4655       16.4655      15.194179       0.03074
  36     2.964        1.2713        0.0001       16.4630       16.4631      15.191765       0.03030
  35     3.853        1.2713        0.0001       16.4598       16.4599      15.188619       0.02985
  34     5.035        1.2713        0.0001       16.4557       16.4558      15.184517       0.02931
  33     6.613        1.2712        0.0002       16.4502       16.4504      15.179172       0.02857
  32     8.786        1.2712        0.0002       16.4432       16.4434      15.172228       0.02697
  31     11.80        1.2711        0.0003       16.4336       16.4339      15.162760       0.02651
  30     15.07        1.2711        0.0004       16.4239       16.4243      15.153217       0.02464
  29     18.79        1.2710        0.0005       16.4137       16.4142      15.143173       0.02277
  28     23.16        1.2709        0.0006       16.4026       16.4032      15.132270       0.02108
  27     28.12        1.2708        0.0007       16.3909       16.3916      15.120793       0.01951
  26     33.73        1.2707        0.0009       16.3789       16.3797      15.109031       0.01768
  25     40.54        1.2706        0.0010       16.3657       16.3668      15.096196       0.01592
  24     48.69        1.2704        0.0012       16.3514       16.3527      15.082284       0.01440
  23     57.69        1.2702        0.0015       16.3375       16.3390      15.068745       0.01269
  22     68.43        1.2700        0.0017       16.3229       16.3246      15.054575       0.01114
  21     81.20        1.2698        0.0021       16.3071       16.3092      15.039373       0.01005
  20     96.49        1.2695        0.0025       16.2897       16.2921      15.022579       0.00927
  19     114.6        1.2692        0.0029       16.2696       16.2726      15.003320       0.00899
  18     136.5        1.2689        0.0035       16.2434       16.2468      14.977969       0.00975
  17     162.9        1.2684        0.0041       16.1978       16.2019      14.933451       0.01423
  16     196.4        1.2679        0.0049       16.0918       16.0968      14.828869       0.02632
  15     218.7        1.2675        0.0055       15.9616       15.9670      14.699476       0.04913
  14     243.0        1.2672        0.0060       15.7131       15.7191      14.451929       0.08586
  13     269.0        1.2668        0.0065       15.2697       15.2762      14.009355       0.14357
  12     297.5        1.2665        0.0070       14.7455       14.7525      13.485944       0.15524
  11     328.5        1.2663        0.0074       14.1091       14.1165      12.850262       0.17284
  10     361.9        1.2661        0.0079       13.3584       13.3662      12.100127       0.18979
   9     398.1        1.2661        0.0082       12.5768       12.5850      11.318932       0.18200
   8     437.6        1.2663        0.0085       11.7897       11.7982      10.531939       0.16826
   7     480.5        1.2668        0.0088       11.0224       11.0312       9.764434       0.15074
   6     533.0        1.2679        0.0091       10.2832       10.2923       9.024335       0.11906
   5     589.8        1.2700        0.0095        9.7121        9.7216       8.451645       0.08501
   4     651.6        1.2734        0.0100        9.2654        9.2754       8.001934       0.06150
   3     718.7        1.2786        0.0106        8.8952        8.9058       7.627154       0.04710
   2     792.3        1.2859        0.0113        8.5513        8.5626       7.276675       0.04020
   1     891.5        1.2998        0.0122        8.1288        8.1410       6.841166       0.03706
   0    1013.0        1.3288        0.0131        7.6767        7.6898       6.360925       0.03335



 Wavenumbers:  6150. -  7700. cm-1, ATM      1
 LEVEL PRESSURE   UPWARD FLUX   DIFDOWN FLUX  DIRDOWN FLUX  DOWNWARD FLUX   NET FLUX    HEATING RATE
          mb          W/m2          W/m2          W/m2        W/m2          W/m2       degree/day
  51    .06700        1.9678        0.0000       30.4684       30.4684      28.500586       0.00000
  50    .07753        1.9678        0.0000       30.4683       30.4683      28.500541       0.03575
  49    .09103        1.9678        0.0000       30.4683       30.4683      28.500483       0.03594
  48    0.1069        1.9678        0.0000       30.4682       30.4682      28.500416       0.03611
  47    0.1255        1.9678        0.0000       30.4681       30.4681      28.500336       0.03626
  46    0.1487        1.9678        0.0000       30.4680       30.4680      28.500232       0.03777
  45    0.1794        1.9678        0.0000       30.4679       30.4679      28.500087       0.03991
  44    0.2165        1.9678        0.0000       30.4677       30.4677      28.499910       0.04023
  43    0.2613        1.9678        0.0000       30.4675       30.4675      28.499695       0.04042
  42    0.3336        1.9678        0.0000       30.4671       30.4671      28.499332       0.04232
  41    0.4307        1.9678        0.0000       30.4666       30.4666      28.498839       0.04292
  40    0.5894        1.9677        0.0001       30.4657       30.4658      28.498017       0.04367
  39     1.339        1.9677        0.0001       30.4616       30.4617      28.494044       0.04473
  38     1.782        1.9676        0.0002       30.4591       30.4593      28.491709       0.04445
  37     2.292        1.9676        0.0002       30.4564       30.4566      28.489024       0.04448
  36     2.964        1.9675        0.0003       30.4527       30.4530      28.485527       0.04390
  35     3.853        1.9674        0.0004       30.4480       30.4484      28.480956       0.04338
  34     5.035        1.9673        0.0005       30.4417       30.4423      28.474968       0.04277
  33     6.613        1.9671        0.0007       30.4335       30.4342      28.467116       0.04198
  32     8.786        1.9669        0.0009       30.4228       30.4237      28.456807       0.04003
  31     11.80        1.9666        0.0013       30.4079       30.4092      28.442586       0.03981
  30     15.07        1.9663        0.0016       30.3926       30.3942      28.427972       0.03773
  29     18.79        1.9659        0.0020       30.3761       30.3781      28.412219       0.03572
  28     23.16        1.9655        0.0025       30.3577       30.3602      28.394711       0.03385
  27     28.12        1.9650        0.0030       30.3378       30.3408      28.375824       0.03211
  26     33.73        1.9644        0.0036       30.3167       30.3203      28.355944       0.02989
  25     40.54        1.9637        0.0043       30.2931       30.2974      28.333685       0.02761
  24     48.69        1.9629        0.0052       30.2666       30.2718      28.308927       0.02562
  23     57.69        1.9620        0.0062       30.2399       30.2461      28.284128       0.02325
  22     68.43        1.9609        0.0073       30.2111       30.2184      28.257498       0.02094
  21     81.20        1.9596        0.0087       30.1793       30.1880      28.228347       0.01926
  20     96.49        1.9581        0.0103       30.1436       30.1539      28.195815       0.01796
  19     114.6        1.9563        0.0122       30.1024       30.1147      28.158401       0.01747
  18     136.5        1.9541        0.0145       30.0498       30.0644      28.110249       0.01852
  17     162.9        1.9515        0.0172       29.9649       29.9821      28.030553       0.02547
  16     196.4        1.9482        0.0207       29.7921       29.8128      27.864565       0.04178
  15     218.7        1.9461        0.0230       29.6109       29.6338      27.687732       0.06714
  14     243.0        1.9438        0.0253       29.2765       29.3018      27.358029       0.11435
  13     269.0        1.9414        0.0276       28.6043       28.6319      26.690453       0.21656
  12     297.5        1.9390        0.0297       27.6832       27.7129      25.773909       0.27184
  11     328.5        1.9367        0.0318       26.6083       26.6401      24.703394       0.29107
  10     361.9        1.9345        0.0337       25.3428       25.3765      23.441978       0.31915
   9     398.1        1.9326        0.0354       23.9248       23.9602      22.027578       0.32952
   8     437.6        1.9313        0.0368       22.4263       22.4631      20.531811       0.31980
   7     480.5        1.9309        0.0379       20.8548       20.8927      18.961848       0.30833
   6     533.0        1.9321        0.0390       19.1529       19.1919      17.259812       0.27380
   5     589.8        1.9360        0.0400       17.6194       17.6594      15.723465       0.22804
   4     651.6        1.9439        0.0410       16.2304       16.2714      14.327509       0.19090
   3     718.7        1.9569        0.0421       15.0319       15.0740      13.117184       0.15210
   2     792.3        1.9757        0.0435       14.0274       14.0708      12.095128       0.11722
   1     891.5        2.0120        0.0454       12.9411       12.9865      10.974511       0.09536
   0    1013.0        2.0867        0.0474       11.8259       11.8733       9.786583       0.08248



 Wavenumbers:  7700. -  8050. cm-1, ATM      1
 LEVEL PRESSURE   UPWARD FLUX   DIFDOWN FLUX  DIRDOWN FLUX  DOWNWARD FLUX   NET FLUX    HEATING RATE
          mb          W/m2          W/m2          W/m2        W/m2          W/m2       degree/day
  51    .06700        1.0277        0.0000        7.2006        7.2006       6.172861       0.00000
  50    .07753        1.0277        0.0000        7.2006        7.2006       6.172843       0.01474
  49    .09103        1.0277        0.0000        7.2005        7.2005       6.172819       0.01445
  48    0.1069        1.0277        0.0000        7.2005        7.2005       6.172793       0.01414
  47    0.1255        1.0277        0.0000        7.2005        7.2005       6.172762       0.01384
  46    0.1487        1.0277        0.0000        7.2004        7.2005       6.172724       0.01404
  45    0.1794        1.0277        0.0000        7.2004        7.2004       6.172671       0.01445
  44    0.2165        1.0277        0.0000        7.2003        7.2003       6.172609       0.01417
  43    0.2613        1.0277        0.0000        7.2003        7.2003       6.172535       0.01391
  42    0.3336        1.0277        0.0000        7.2001        7.2001       6.172413       0.01423
  41    0.4307        1.0277        0.0000        7.2000        7.2000       6.172251       0.01407
  40    0.5894        1.0277        0.0000        7.1997        7.1997       6.171987       0.01406
  39     1.339        1.0278        0.0001        7.1984        7.1985       6.170737       0.01408
  38     1.782        1.0278        0.0001        7.1977        7.1978       6.170003       0.01398
  37     2.292        1.0278        0.0001        7.1968        7.1969       6.169153       0.01407
  36     2.964        1.0278        0.0001        7.1957        7.1958       6.168038       0.01400
  35     3.853        1.0278        0.0002        7.1942        7.1944       6.166566       0.01397
  34     5.035        1.0278        0.0002        7.1922        7.1924       6.164612       0.01396
  33     6.613        1.0279        0.0003        7.1896        7.1899       6.162005       0.01394
  32     8.786        1.0279        0.0004        7.1860        7.1864       6.158497       0.01362
  31     11.80        1.0280        0.0005        7.1810        7.1815       6.153491       0.01402
  30     15.07        1.0281        0.0006        7.1755        7.1762       6.148132       0.01384
  29     18.79        1.0281        0.0008        7.1694        7.1702       6.142099       0.01368
  28     23.16        1.0282        0.0010        7.1623        7.1633       6.135080       0.01357
  27     28.12        1.0284        0.0012        7.1542        7.1554       6.127091       0.01358
  26     33.73        1.0285        0.0014        7.1452        7.1467       6.118199       0.01337
  25     40.54        1.0286        0.0017        7.1344        7.1362       6.107524       0.01324
  24     48.69        1.0288        0.0021        7.1215        7.1236       6.094754       0.01322
  23     57.69        1.0290        0.0025        7.1074        7.1099       6.080852       0.01303
  22     68.43        1.0293        0.0029        7.0909        7.0938       6.064462       0.01288
  21     81.20        1.0296        0.0034        7.0713        7.0748       6.045173       0.01275
  20     96.49        1.0300        0.0041        7.0484        7.0525       6.022515       0.01251
  19     114.6        1.0304        0.0048        7.0217        7.0265       5.996061       0.01235
  18     136.5        1.0310        0.0057        6.9906        6.9963       5.965308       0.01182
  17     162.9        1.0317        0.0068        6.9544        6.9612       5.929494       0.01145
  16     196.4        1.0326        0.0082        6.9087        6.9169       5.884286       0.01138
  15     218.7        1.0332        0.0091        6.8794        6.8885       5.855251       0.01102
  14     243.0        1.0339        0.0100        6.8481        6.8581       5.824230       0.01076
  13     269.0        1.0347        0.0111        6.8147        6.8258       5.791136       0.01074
  12     297.5        1.0356        0.0122        6.7792        6.7915       5.755882       0.01046
  11     328.5        1.0366        0.0134        6.7413        6.7547       5.718163       0.01026
  10     361.9        1.0377        0.0147        6.7008        6.7156       5.677826       0.01021
   9     398.1        1.0391        0.0161        6.6574        6.6735       5.634441       0.01011
   8     437.6        1.0407        0.0176        6.6107        6.6283       5.587638       0.01001
   7     480.5        1.0425        0.0192        6.5600        6.5791       5.536607       0.01002
   6     533.0        1.0451        0.0211        6.4962        6.5174       5.472207       0.01036
   5     589.8        1.0483        0.0232        6.4256        6.4488       5.400455       0.01065
   4     651.6        1.0523        0.0254        6.3467        6.3722       5.319832       0.01103
   3     718.7        1.0572        0.0277        6.2596        6.2873       5.230128       0.01127
   2     792.3        1.0630        0.0302        6.1645        6.1947       5.131764       0.01128
   1     891.5        1.0719        0.0334        6.0329        6.0663       4.994438       0.01169
   0    1013.0        1.0848        0.0372        5.8650        5.9022       4.817422       0.01229



 Wavenumbers:  8050. - 12850. cm-1, ATM      1
 LEVEL PRESSURE   UPWARD FLUX   DIFDOWN FLUX  DIRDOWN FLUX  DOWNWARD FLUX   NET FLUX    HEATING RATE
          mb          W/m2          W/m2          W/m2        W/m2          W/m2       degree/day
  51    .06700       21.7484        0.0000      100.8135      100.8135      79.065108       0.00000
  50    .07753       21.7484        0.0000      100.8135      100.8135      79.065108      -0.00000
  49    .09103       21.7484        0.0001      100.8134      100.8135      79.065108       0.00000
  48    0.1069       21.7483        0.0001      100.8134      100.8134      79.065108       0.00000
  47    0.1255       21.7483        0.0001      100.8133      100.8134      79.065108       0.00000
  46    0.1487       21.7483        0.0002      100.8132      100.8134      79.065108       0.00000
  45    0.1794       21.7482        0.0002      100.8131      100.8133      79.065108       0.00000
  44    0.2165       21.7481        0.0003      100.8129      100.8132      79.065108      -0.00000
  43    0.2613       21.7481        0.0004      100.8127      100.8132      79.065108      -0.00000
  42    0.3336       21.7479        0.0006      100.8125      100.8130      79.065108      -0.00000
  41    0.4307       21.7478        0.0008      100.8121      100.8129      79.065108       0.00000
  40    0.5894       21.7475        0.0011      100.8115      100.8126      79.065108      -0.00000
  39     1.339       21.7462        0.0028      100.8085      100.8113      79.065108       0.00000
  38     1.782       21.7454        0.0037      100.8068      100.8105      79.065108       0.00000
  37     2.292       21.7445        0.0048      100.8047      100.8096      79.065108      -0.00000
  36     2.964       21.7433        0.0063      100.8021      100.8084      79.065108       0.00000
  35     3.853       21.7417        0.0082      100.7986      100.8068      79.065108       0.00000
  34     5.035       21.7396        0.0108      100.7940      100.8047      79.065108       0.00000
  33     6.613       21.7368        0.0142      100.7878      100.8020      79.065108       0.00000
  32     8.786       21.7331        0.0188      100.7794      100.7982      79.065108      -0.00000
  31     11.80       21.7277        0.0254      100.7674      100.7928      79.065108       0.00000
  30     15.07       21.7219        0.0325      100.7546      100.7870      79.065108      -0.00000
  29     18.79       21.7154        0.0405      100.7400      100.7805      79.065108       0.00000
  28     23.16       21.7077        0.0499      100.7230      100.7728      79.065108       0.00000
  27     28.12       21.6990        0.0606      100.7035      100.7641      79.065108       0.00000
  26     33.73       21.6892        0.0726      100.6817      100.7543      79.065108       0.00000
  25     40.54       21.6773        0.0872      100.6552      100.7424      79.065108       0.00000
  24     48.69       21.6630        0.1047      100.6234      100.7281      79.065108       0.00000
  23     57.69       21.6472        0.1240      100.5883      100.7123      79.065108       0.00000
  22     68.43       21.6284        0.1470      100.5464      100.6935      79.065108       0.00000
  21     81.20       21.6059        0.1745      100.4965      100.6710      79.065108      -0.00000
  20     96.49       21.5791        0.2073      100.4370      100.6442      79.065108      -0.00000
  19     114.6       21.5473        0.2463      100.3600      100.6063      79.058955       0.00287
  18     136.5       21.5095        0.2925      100.2670      100.5596      79.050080       0.00341
  17     162.9       21.4644        0.3477      100.1487      100.4964      79.032004       0.00578
  16     196.4       21.4058        0.4194       99.9697      100.3891      78.983296       0.01226
  15     218.7       21.3673        0.4665       99.8216      100.2881      78.920793       0.02373
  14     243.0       21.3255        0.5176       99.6036      100.1213      78.795784       0.04336
  13     269.0       21.2805        0.5728       99.2411       99.8139      78.533341       0.08514
  12     297.5       21.2326        0.6320       98.7427       99.3747      78.142078       0.11604
  11     328.5       21.1819        0.6954       98.0897       98.7851      77.603137       0.14654
  10     361.9       21.1293        0.7629       97.2253       97.9881      76.858847       0.18831
   9     398.1       21.0754        0.8342       96.1128       96.9470      75.871641       0.23000
   8     437.6       21.0219        0.9091       94.7110       95.6201      74.598163       0.27228
   7     480.5       20.9722        0.9866       92.9206       93.9072      72.934955       0.32665
   6     533.0       20.9238        1.0782       90.5017       91.5799      70.656106       0.36659
   5     589.8       20.8901        1.1727       87.8084       88.9811      68.090925       0.38076
   4     651.6       20.8812        1.2697       84.8790       86.1486      65.267395       0.38613
   3     718.7       20.9029        1.3700       81.8711       83.2410      62.338148       0.36813
   2     792.3       20.9602        1.4742       78.9107       80.3849      59.424706       0.33414
   1     891.5       21.1093        1.6089       75.2307       76.8395      55.730212       0.31438
   0    1013.0       21.4749        1.7583       71.0188       72.7772      51.302241       0.30746



 Wavenumbers: 12850. - 16000. cm-1, ATM      1
 LEVEL PRESSURE   UPWARD FLUX   DIFDOWN FLUX  DIRDOWN FLUX  DOWNWARD FLUX   NET FLUX    HEATING RATE
          mb          W/m2          W/m2          W/m2        W/m2          W/m2       degree/day
  51    .06700       32.1399        0.0000       63.1686       63.1686      31.028649       0.00000
  50    .07753       32.1399        0.0001       63.1677       63.1678      31.027871       0.62432
  49    .09103       32.1399        0.0001       63.1666       63.1668      31.026900       0.60665
  48    0.1069       32.1398        0.0002       63.1654       63.1656      31.025795       0.58818
  47    0.1255       32.1398        0.0003       63.1640       63.1643      31.024539       0.56962
  46    0.1487       32.1397        0.0004       63.1623       63.1627      31.022972       0.57105
  45    0.1794       32.1397        0.0006       63.1600       63.1606      31.020872       0.57656
  44    0.2165       32.1396        0.0008       63.1573       63.1581      31.018444       0.55229
  43    0.2613       32.1396        0.0010       63.1542       63.1552      31.015645       0.52765
  42    0.3336       32.1395        0.0014       63.1493       63.1507      31.011187       0.51971
  41    0.4307       32.1394        0.0019       63.1431       63.1450      31.005616       0.48438
  40    0.5894       32.1393        0.0027       63.1338       63.1365      30.997186       0.44828
  39     1.339       32.1401        0.0065       63.0956       63.1021      30.961928       0.39695
  38     1.782       32.1415        0.0087       63.0740       63.0827      30.941270       0.39330
  37     2.292       32.1438        0.0113       63.0477       63.0590      30.915127       0.43300
  36     2.964       32.1482        0.0147       63.0095       63.0242      30.876035       0.49071
  35     3.853       32.1557        0.0192       62.9533       62.9724      30.816758       0.56256
  34     5.035       32.1674        0.0251       62.8725       62.8976      30.730284       0.61773
  33     6.613       32.1838        0.0331       62.7621       62.7951      30.611314       0.63602
  32     8.786       32.2051        0.0437       62.6182       62.6620      30.456901       0.59968
  31     11.80       32.2321        0.0590       62.4284       62.4873      30.255209       0.56467
  30     15.07       32.2572        0.0753       62.2426       62.3179      30.060696       0.50219
  29     18.79       32.2820        0.0937       62.0493       62.1430      29.860996       0.45278
  28     23.16       32.3068        0.1151       61.8425       61.9576      29.650726       0.40659
  27     28.12       32.3305        0.1395       61.6278       61.7674      29.436902       0.36349
  26     33.73       32.3501        0.1668       61.4177       61.5845      29.234444       0.30440
  25     40.54       32.3659        0.1998       61.1983       61.3981      29.032211       0.25089
  24     48.69       32.3772        0.2394       60.9680       61.2074      28.830171       0.20908
  23     57.69       32.3822        0.2829       60.7478       61.0307      28.648425       0.17036
  22     68.43       32.3802        0.3346       60.5202       60.8548      28.474590       0.13666
  21     81.20       32.3667        0.3961       60.2938       60.6900      28.323287       0.09998
  20     96.49       32.3404        0.4694       60.0643       60.5337      28.193322       0.07173
  19     114.6       32.3097        0.5570       59.8078       60.3648      28.055114       0.06453
  18     136.5       32.2686        0.6605       59.5158       60.1762      27.907656       0.05670
  17     162.9       32.2155        0.7834       59.1772       59.9606      27.745171       0.05194
  16     196.4       32.1376        0.9424       58.7608       59.7031      27.565524       0.04522
  15     218.7       32.0833        1.0465       58.4954       59.5419      27.458619       0.04059
  14     243.0       32.0228        1.1594       58.2101       59.3695      27.346696       0.03882
  13     269.0       31.9560        1.2815       57.9032       59.1847      27.228682       0.03828
  12     297.5       31.8828        1.4131       57.5721       58.9852      27.102389       0.03746
  11     328.5       31.8039        1.5549       57.2108       58.7656      26.961718       0.03825
  10     361.9       31.7197        1.7070       56.8147       58.5217      26.801998       0.04041
   9     398.1       31.6305        1.8702       56.3781       58.2483      26.617739       0.04293
   8     437.6       31.5376        2.0445       55.8914       57.9359      26.398316       0.04691
   7     480.5       31.4432        2.2303       55.3385       57.5688      26.125614       0.05356
   6     533.0       31.3359        2.4571       54.6161       57.0732      25.737291       0.06247
   5     589.8       31.2333        2.6989       53.7906       56.4895      25.256257       0.07140
   4     651.6       31.1385        2.9548       52.8707       55.8255      24.687053       0.07784
   3     718.7       31.0537        3.2251       51.8752       55.1003      24.046644       0.08048
   2     792.3       30.9820        3.5095       50.8234       54.3329      23.350883       0.07980
   1     891.5       30.9238        3.8848       49.4184       53.3031      22.379384       0.08267
   0    1013.0       30.9345        4.3208       47.7182       52.0389      21.104472       0.08852



 Wavenumbers: 16000. - 22650. cm-1, ATM      1
 LEVEL PRESSURE   UPWARD FLUX   DIFDOWN FLUX  DIRDOWN FLUX  DOWNWARD FLUX   NET FLUX    HEATING RATE
          mb          W/m2          W/m2          W/m2        W/m2          W/m2       degree/day
  51    .06700       75.2958        0.0000      100.7153      100.7153      25.419521       0.00000
  50    .07753       75.2957        0.0003      100.7147      100.7151      25.419404       0.09379
  49    .09103       75.2955        0.0007      100.7140      100.7147      25.419234       0.10638
  48    0.1069       75.2953        0.0012      100.7131      100.7143      25.419006       0.12131
  47    0.1255       75.2952        0.0017      100.7121      100.7139      25.418701       0.13827
  46    0.1487       75.2949        0.0024      100.7108      100.7132      25.418251       0.16385
  45    0.1794       75.2947        0.0034      100.7089      100.7122      25.417548       0.19292
  44    0.2165       75.2944        0.0045      100.7066      100.7110      25.416595       0.21682
  43    0.2613       75.2941        0.0058      100.7037      100.7094      25.415302       0.24376
  42    0.3336       75.2938        0.0079      100.6987      100.7066      25.412844       0.28665
  41    0.4307       75.2934        0.0108      100.6918      100.7026      25.409138       0.32222
  40    0.5894       75.2932        0.0155      100.6797      100.6952      25.402070       0.37583
  39     1.339       75.2973        0.0377      100.6095      100.6472      25.349866       0.58772
  38     1.782       75.3037        0.0507      100.5585      100.6091      25.305408       0.84641
  37     2.292       75.3149        0.0657      100.4903      100.5560      25.241076       1.06552
  36     2.964       75.3354        0.0855      100.3868      100.4723      25.136905       1.30765
  35     3.853       75.3704        0.1116      100.2306      100.3422      24.971733       1.56751
  34     5.035       75.4250        0.1461      100.0045      100.1506      24.725579       1.75842
  33     6.613       75.5021        0.1922       99.6939       99.8861      24.384028       1.82593
  32     8.786       75.6017        0.2542       99.2881       99.5423      23.940516       1.72244
  31     11.80       75.7287        0.3426       98.7496       99.0922      23.363423       1.61568
  30     15.07       75.8469        0.4371       98.2198       98.6569      22.809976       1.42889
  29     18.79       75.9641        0.5435       97.6651       98.2086      22.244489       1.28213
  28     23.16       76.0822        0.6673       97.0671       97.7345      21.652234       1.14523
  27     28.12       76.1953        0.8084       96.4406       97.2489      21.053634       1.01758
  26     33.73       76.2903        0.9657       95.8179       96.7836      20.493290       0.84249
  25     40.54       76.3686        1.1551       95.1548       96.3100      19.941367       0.68472
  24     48.69       76.4277        1.3826       94.4420       95.8246      19.396905       0.56343
  23     57.69       76.4585        1.6314       93.7416       95.3730      18.914544       0.45214
  22     68.43       76.4586        1.9266       92.9954       94.9219      18.463324       0.35472
  21     81.20       76.4086        2.2768       92.2231       94.4999      18.091370       0.24578
  20     96.49       76.3027        2.6922       91.4110       94.1032      17.800484       0.16055
  19     114.6       76.1542        3.1820       90.5070       93.6890      17.534789       0.12406
  18     136.5       75.9635        3.7576       89.4803       93.2379      17.274410       0.10012
  17     162.9       75.7237        4.4362       88.3022       92.7384      17.014700       0.08301
  16     196.4       75.3844        5.3060       86.8607       92.1666      16.782258       0.05851
  15     218.7       75.1520        5.8709       85.9493       91.8202      16.668266       0.04328
  14     243.0       74.8957        6.4794       84.9791       91.4585      16.562798       0.03658
  13     269.0       74.6146        7.1323       83.9497       91.0821      16.467443       0.03093
  12     297.5       74.3080        7.8305       82.8599       90.6904      16.382421       0.02522
  11     328.5       73.9770        8.5764       81.7000       90.2764      16.299376       0.02258
  10     361.9       73.6217        9.3695       80.4701       89.8397      16.217978       0.02059
   9     398.1       73.2411       10.2120       79.1664       89.3784      16.137250       0.01881
   8     437.6       72.8358       11.1039       77.7862       88.8901      16.054285       0.01774
   7     480.5       72.4057       12.0455       76.3269       88.3724      15.966688       0.01720
   6     533.0       71.8835       13.1845       74.5569       87.7414      15.857882       0.01750
   5     589.8       71.3306       14.3877       72.6784       87.0661      15.735500       0.01817
   4     651.6       70.7491       15.6532       70.6905       86.3437      15.594648       0.01926
   3     718.7       70.1392       16.9786       68.5976       85.5762      15.437044       0.01981
   2     792.3       69.5034       18.3590       66.4070       84.7661      15.262618       0.02000
   1     891.5       68.6766       20.1578       63.5297       83.6875      15.010920       0.02142
   0    1013.0       67.7322       22.2258       60.1830       82.4088      14.676623       0.02321



 Wavenumbers: 22650. - 29000. cm-1, ATM      1
 LEVEL PRESSURE   UPWARD FLUX   DIFDOWN FLUX  DIRDOWN FLUX  DOWNWARD FLUX   NET FLUX    HEATING RATE
          mb          W/m2          W/m2          W/m2        W/m2          W/m2       degree/day
  51    .06700       34.3507        0.0000       38.0063       38.0063       3.655561       0.00000
  50    .07753       34.3506        0.0004       38.0057       38.0061       3.655561       0.00000
  49    .09103       34.3504        0.0009       38.0050       38.0059       3.655561       0.00000
  48    0.1069       34.3501        0.0014       38.0042       38.0057       3.655561      -0.00000
  47    0.1255       34.3498        0.0021       38.0033       38.0054       3.655561       0.00000
  46    0.1487       34.3495        0.0029       38.0022       38.0050       3.655561       0.00000
  45    0.1794       34.3490        0.0040       38.0006       38.0046       3.655561       0.00000
  44    0.2165       34.3484        0.0053       37.9987       38.0040       3.655561      -0.00000
  43    0.2613       34.3478        0.0068       37.9965       38.0033       3.655561       0.00000
  42    0.3336       34.3467        0.0094       37.9928       38.0022       3.655561       0.00000
  41    0.4307       34.3452        0.0128       37.9880       38.0008       3.655561      -0.00000
  40    0.5894       34.3428        0.0183       37.9800       37.9984       3.655561       0.00000
  39     1.339       34.3315        0.0446       37.9425       37.9870       3.655561       0.00000
  38     1.782       34.3248        0.0600       37.9204       37.9804       3.655561       0.00000
  37     2.292       34.3171        0.0778       37.8949       37.9727       3.655561      -0.00000
  36     2.964       34.3070        0.1012       37.8614       37.9626       3.655561      -0.00000
  35     3.853       34.2937        0.1320       37.8172       37.9493       3.655561       0.00000
  34     5.035       34.2760        0.1730       37.7586       37.9316       3.655561      -0.00000
  33     6.613       34.2524        0.2276       37.6803       37.9079       3.655561       0.00000
  32     8.786       34.2206        0.3011       37.5750       37.8762       3.655561       0.00000
  31     11.80       34.1753        0.4060       37.4249       37.8308       3.655561      -0.00000
  30     15.07       34.1267        0.5181       37.2642       37.7823       3.655561       0.00000
  29     18.79       34.0721        0.6443       37.0833       37.7276       3.655561       0.00000
  28     23.16       34.0085        0.7911       36.8730       37.6641       3.655561       0.00000
  27     28.12       33.9362        0.9580       36.6338       37.5917       3.655561      -0.00000
  26     33.73       33.8557        1.1435       36.3677       37.5112       3.655561       0.00000
  25     40.54       33.7590        1.3660       36.0486       37.4146       3.655561       0.00000
  24     48.69       33.6435        1.6318       35.6672       37.2991       3.655561      -0.00000
  23     57.69       33.5178        1.9207       35.2527       37.1734       3.655561       0.00000
  22     68.43       33.3697        2.2604       34.7649       37.0253       3.655561       0.00000
  21     81.20       33.1956        2.6590       34.1922       36.8512       3.655561      -0.00000
  20     96.49       32.9915        3.1253       33.5217       36.6471       3.655561       0.00000
  19     114.6       32.7538        3.6670       32.7424       36.4094       3.655561       0.00000
  18     136.5       32.4785        4.2925       31.8416       36.1340       3.655561      -0.00000
  17     162.9       32.1595        5.0142       30.8008       35.8150       3.655561       0.00000
  16     196.4       31.7595        5.9144       29.5007       35.4151       3.655561      -0.00000
  15     218.7       31.5052        6.4840       28.6767       35.1608       3.655561       0.00000
  14     243.0       31.2359        7.0846       27.8068       34.8914       3.655561       0.00000
  13     269.0       30.9522        7.7143       26.8934       34.6077       3.655561       0.00000
  12     297.5       30.6547        8.3709       25.9394       34.3103       3.655561       0.00000
  11     328.5       30.3435        9.0538       24.9453       33.9991       3.655561      -0.00000
  10     361.9       30.0199        9.7591       23.9164       33.6755       3.655561       0.00000
   9     398.1       29.6843       10.4852       22.8546       33.3398       3.655561       0.00000
   8     437.6       29.3378       11.2282       21.7652       32.9934       3.655561      -0.00000
   7     480.5       28.9818       11.9842       20.6532       32.6374       3.655561       0.00000
   6     533.0       28.5640       12.8612       19.3583       32.2195       3.655561       0.00000
   5     589.8       28.1372       13.7442       18.0485       31.7927       3.655561      -0.00000
   4     651.6       27.7041       14.6252       16.7344       31.3596       3.655561       0.00000
   3     718.7       27.2673       15.4963       15.4265       30.9229       3.655561       0.00000
   2     792.3       26.8294       16.3503       14.1346       30.4849       3.655561       0.00000
   1     891.5       26.2833       17.3834       12.5555       29.9388       3.655561       0.00000
   0    1013.0       25.6880       18.4619       10.8817       29.3436       3.655561      -0.00000



 Wavenumbers: 29000. - 38000. cm-1, ATM      1
 LEVEL PRESSURE   UPWARD FLUX   DIFDOWN FLUX  DIRDOWN FLUX  DOWNWARD FLUX   NET FLUX    HEATING RATE
          mb          W/m2          W/m2          W/m2        W/m2          W/m2       degree/day
  51    .06700        4.8872        0.0000       13.4026       13.4026       8.515351       0.00000
  50    .07753        4.8870        0.0003       13.3983       13.3986       8.511553       3.04438
  49    .09103        4.8868        0.0007       13.3921       13.3928       8.506034       3.44966
  48    0.1069        4.8865        0.0011       13.3840       13.3851       8.498657       3.92676
  47    0.1255        4.8861        0.0016       13.3733       13.3749       8.488812       4.46317
  46    0.1487        4.8857        0.0022       13.3579       13.3600       8.474370       5.26437
  45    0.1794        4.8851        0.0030       13.3340       13.3371       8.451970       6.14925
  44    0.2165        4.8844        0.0040       13.3024       13.3064       8.421951       6.82875
  43    0.2613        4.8837        0.0052       13.2604       13.2656       8.381897       7.55009
  42    0.3336        4.8824        0.0070       13.1833       13.1903       8.307890       8.62840
  41    0.4307        4.8809        0.0095       13.0729       13.0824       8.201519       9.24878
  40    0.5894        4.8785        0.0134       12.8796       12.8930       8.014476       9.94668
  39     1.339        4.8700        0.0296       11.9165       11.9462       7.076143      10.56393
  38     1.782        4.8667        0.0379       11.4399       11.4779       6.611167       8.85240
  37     2.292        4.8642        0.0468       10.9796       11.0264       6.162241       7.43539
  36     2.964        4.8628        0.0577       10.4786       10.5364       5.673618       6.13369
  35     3.853        4.8634        0.0712        9.9429       10.0141       5.150769       4.96193
  34     5.035        4.8667        0.0881        9.4007        9.4887       4.622046       3.77698
  33     6.613        4.8729        0.1094        8.8752        8.9846       4.111661       2.72852
  32     8.786        4.8815        0.1369        8.3786        8.5155       3.633932       1.85532
  31     11.80        4.8920        0.1746        7.8897        8.0643       3.172278       1.29249
  30     15.07        4.9010        0.2136        7.5108        7.7244       2.823360       0.90084
  29     18.79        4.9094        0.2560        7.1776        7.4336       2.524272       0.67812
  28     23.16        4.9170        0.3038        6.8664        7.1703       2.253294       0.52399
  27     28.12        4.9230        0.3567        6.5780        6.9347       2.011650       0.41078
  26     33.73        4.9252        0.4142        6.3195        6.7337       1.808526       0.30540
  25     40.54        4.9222        0.4822        6.0663        6.5484       1.626214       0.22618
  24     48.69        4.9135        0.5617        5.8128        6.3746       1.461021       0.17095
  23     57.69        4.8992        0.6466        5.5777        6.2243       1.325169       0.12734
  22     68.43        4.8768        0.7449        5.3379        6.0828       1.205989       0.09369
  21     81.20        4.8422        0.8589        5.0965        5.9554       1.113207       0.06131
  20     96.49        4.7941        0.9906        4.8476        5.8382       1.044103       0.03814
  19     114.6        4.7357        1.1397        4.5799        5.7196       0.983940       0.02809
  18     136.5        4.6679        1.3064        4.2891        5.5955       0.927538       0.02169
  17     162.9        4.5905        1.4911        3.9732        5.4643       0.873758       0.01719
  16     196.4        4.4925        1.7123        3.6080        5.3203       0.827775       0.01157
  15     218.7        4.4308        1.8469        3.3898        5.2367       0.805878       0.00831
  14     243.0        4.3665        1.9840        3.1686        5.1526       0.786012       0.00689
  13     269.0        4.3001        2.1225        2.9461        5.0686       0.768487       0.00569
  12     297.5        4.2320        2.2613        2.7239        4.9853       0.753322       0.00450
  11     328.5        4.1628        2.3990        2.5029        4.9019       0.739074       0.00387
  10     361.9        4.0932        2.5344        2.2846        4.8190       0.725767       0.00337
   9     398.1        4.0234        2.6661        2.0708        4.7368       0.713392       0.00288
   8     437.6        3.9540        2.7931        1.8626        4.6557       0.701686       0.00250
   7     480.5        3.8854        2.9140        1.6621        4.5762       0.690777       0.00214
   6     533.0        3.8083        3.0434        1.4441        4.4875       0.679115       0.00188
   5     589.8        3.7334        3.1617        1.2397        4.4014       0.668048       0.00164
   4     651.6        3.6610        3.2677        1.0507        4.3185       0.657427       0.00145
   3     718.7        3.5916        3.3601        0.8788        4.2389       0.647218       0.00128
   2     792.3        3.5254        3.4383        0.7246        4.1628       0.637397       0.00113
   1     891.5        3.4471        3.5154        0.5572        4.0726       0.625499       0.00101
   0    1013.0        3.3664        3.5741        0.4049        3.9791       0.612641       0.00089



 Wavenumbers: 38000. - 50000. cm-1, ATM      1
 LEVEL PRESSURE   UPWARD FLUX   DIFDOWN FLUX  DIRDOWN FLUX  DOWNWARD FLUX   NET FLUX    HEATING RATE
          mb          W/m2          W/m2          W/m2        W/m2          W/m2       degree/day
  51    .06700        0.0051        0.0000        0.8267        0.8267       0.821528       0.00000
  50    .07753        0.0051        0.0001        0.8242        0.8243       0.819196       1.86936
  49    .09103        0.0050        0.0002        0.8207        0.8209       0.815872       2.07705
  48    0.1069        0.0049        0.0002        0.8162        0.8164       0.811514       2.31984
  47    0.1255        0.0048        0.0004        0.8103        0.8106       0.805801       2.59006
  46    0.1487        0.0047        0.0005        0.8018        0.8023       0.797567       3.00143
  45    0.1794        0.0045        0.0007        0.7889        0.7896       0.785013       3.44648
  44    0.2165        0.0044        0.0009        0.7720        0.7729       0.768507       3.75474
  43    0.2613        0.0042        0.0011        0.7500        0.7511       0.746955       4.06246
  42    0.3336        0.0039        0.0015        0.7106        0.7121       0.708267       4.51071
  41    0.4307        0.0035        0.0019        0.6566        0.6584       0.654972       4.63387
  40    0.5894        0.0029        0.0024        0.5680        0.5704       0.567464       4.65357
  39     1.339        0.0015        0.0030        0.2422        0.2452       0.243720       3.64476
  38     1.782        0.0010        0.0026        0.1493        0.1519       0.150889       1.76735
  37     2.292        0.0007        0.0022        0.0924        0.0946       0.093932       0.94336
  36     2.964        0.0005        0.0018        0.0539        0.0557       0.055224       0.48589
  35     3.853        0.0003        0.0013        0.0295        0.0308       0.030502       0.23462
  34     5.035        0.0002        0.0010        0.0154        0.0164       0.016181       0.10230
  33     6.613        0.0001        0.0007        0.0073        0.0080       0.007912       0.04420
  32     8.786        0.0000        0.0004        0.0030        0.0034       0.003390       0.01756
  31     11.80        0.0000        0.0003        0.0010        0.0012       0.001199       0.00613
  30     15.07        0.0000        0.0001        0.0003        0.0005       0.000463       0.00190
  29     18.79        0.0000        0.0001        0.0001        0.0002       0.000182       0.00064
  28     23.16        0.0000        0.0000        0.0000        0.0001       0.000071       0.00022
  27     28.12        0.0000        0.0000        0.0000        0.0000       0.000028       0.00007
  26     33.73        0.0000        0.0000        0.0000        0.0000       0.000011       0.00002
  25     40.54        0.0000        0.0000        0.0000        0.0000       0.000005       0.00001
  24     48.69        0.0000        0.0000        0.0000        0.0000       0.000002       0.00000
  23     57.69        0.0000        0.0000        0.0000        0.0000       0.000001       0.00000
  22     68.43        0.0000        0.0000        0.0000        0.0000       0.000000       0.00000
  21     81.20        0.0000        0.0000        0.0000        0.0000       0.000000       0.00000
  20     96.49        0.0000        0.0000        0.0000        0.0000       0.000000       0.00000
  19     114.6        0.0000        0.0000        0.0000        0.0000       0.000000       0.00000
  18     136.5        0.0000        0.0000        0.0000        0.0000       0.000000       0.00000
  17     162.9        0.0000        0.0000        0.0000        0.0000       0.000000       0.00000
  16     196.4        0.0000        0.0000        0.0000        0.0000       0.000000       0.00000
  15     218.7        0.0000        0.0000        0.0000        0.0000       0.000000       0.00000
  14     243.0        0.0000        0.0000        0.0000        0.0000       0.000000       0.00000
  13     269.0        0.0000        0.0000        0.0000        0.0000       0.000000       0.00000
  12     297.5        0.0000        0.0000        0.0000        0.0000       0.000000       0.00000
  11     328.5        0.0000        0.0000        0.0000        0.0000       0.000000       0.00000
  10     361.9        0.0000        0.0000        0.0000        0.0000       0.000000       0.00000
   9     398.1        0.0000        0.0000        0.0000        0.0000       0.000000       0.00000
   8     437.6        0.0000        0.0000        0.0000        0.0000       0.000000       0.00000
   7     480.5        0.0000        0.0000        0.0000        0.0000       0.000000       0.00000
   6     533.0        0.0000        0.0000        0.0000        0.0000       0.000000       0.00000
   5     589.8        0.0000        0.0000        0.0000        0.0000       0.000000       0.00000
   4     651.6        0.0000        0.0000        0.0000        0.0000       0.000000       0.00000
   3     718.7        0.0000        0.0000        0.0000        0.0000       0.000000       0.00000
   2     792.3        0.0000        0.0000        0.0000        0.0000       0.000000       0.00000
   1     891.5        0.0000        0.0000        0.0000        0.0000       0.000000       0.00000
   0    1013.0        0.0000        0.0000        0.0000        0.0000       0.000000       0.00000



 Wavenumbers:   820. -  2600. cm-1, ATM      1
 LEVEL PRESSURE   UPWARD FLUX   DIFDOWN FLUX  DIRDOWN FLUX  DOWNWARD FLUX   NET FLUX    HEATING RATE
          mb          W/m2          W/m2          W/m2        W/m2          W/m2       degree/day
  51    .06700        0.1553        0.0000        3.8670        3.8670       3.711712       0.00000
  50    .07753        0.1553        0.0000        3.8643        3.8643       3.709008       2.16741
  49    .09103        0.1553        0.0000        3.8635        3.8635       3.708214       0.49590
  48    0.1069        0.1553        0.0000        3.8627        3.8627       3.707344       0.46349
  47    0.1255        0.1553        0.0000        3.8617        3.8617       3.706407       0.42475
  46    0.1487        0.1553        0.0000        3.8606        3.8606       3.705329       0.39295
  45    0.1794        0.1553        0.0000        3.8593        3.8593       3.704038       0.35427
  44    0.2165        0.1553        0.0000        3.8580        3.8580       3.702715       0.30102
  43    0.2613        0.1553        0.0000        3.8566        3.8566       3.701322       0.26263
  42    0.3336        0.1553        0.0000        3.8545        3.8545       3.699205       0.24685
  41    0.4307        0.1553        0.0000        3.8518        3.8518       3.696478       0.23709
  40    0.5894        0.1553        0.0000        3.8473        3.8473       3.692010       0.23757
  39     1.339        0.1553        0.0000        3.8272        3.8272       3.671847       0.22700
  38     1.782        0.1553        0.0000        3.8160        3.8160       3.660704       0.21216
  37     2.292        0.1553        0.0000        3.8037        3.8037       3.648364       0.20438
  36     2.964        0.1553        0.0000        3.7884        3.7884       3.633070       0.19198
  35     3.853        0.1553        0.0000        3.7694        3.7694       3.614122       0.17983
  34     5.035        0.1553        0.0000        3.7458        3.7458       3.590449       0.16910
  33     6.613        0.1553        0.0000        3.7161        3.7161       3.560798       0.15852
  32     8.786        0.1553        0.0000        3.6803        3.6803       3.525025       0.13893
  31     11.80        0.1553        0.0000        3.6401        3.6401       3.484767       0.11271
  30     15.07        0.1553        0.0000        3.6100        3.6100       3.454699       0.07763
  29     18.79        0.1553        0.0000        3.5868        3.5868       3.431522       0.05255
  28     23.16        0.1553        0.0000        3.5667        3.5667       3.411432       0.03885
  27     28.12        0.1553        0.0000        3.5468        3.5469       3.391535       0.03382
  26     33.73        0.1553        0.0000        3.5256        3.5256       3.370302       0.03192
  25     40.54        0.1553        0.0000        3.5007        3.5007       3.345375       0.03093
  24     48.69        0.1553        0.0000        3.4715        3.4715       3.316219       0.03017
  23     57.69        0.1553        0.0000        3.4406        3.4407       3.285328       0.02896
  22     68.43        0.1553        0.0000        3.4059        3.4059       3.250545       0.02734
  21     81.20        0.1553        0.0000        3.3672        3.3672       3.211823       0.02559
  20     96.49        0.1553        0.0000        3.3243        3.3243       3.168922       0.02368
  19     114.6        0.1554        0.0000        3.2765        3.2765       3.121190       0.02229
  18     136.5        0.1554        0.0000        3.2215        3.2215       3.066176       0.02115
  17     162.9        0.1554        0.0000        3.1500        3.1500       2.994586       0.02288
  16     196.4        0.1554        0.0000        3.0466        3.0467       2.891243       0.02601
  15     218.7        0.1555        0.0000        2.9822        2.9822       2.826718       0.02450
  14     243.0        0.1555        0.0000        2.9041        2.9041       2.748609       0.02709
  13     269.0        0.1556        0.0000        2.7958        2.7958       2.640202       0.03517
  12     297.5        0.1557        0.0000        2.6463        2.6463       2.490635       0.04436
  11     328.5        0.1559        0.0000        2.4495        2.4495       2.293586       0.05358
  10     361.9        0.1562        0.0000        2.2394        2.2394       2.083211       0.05323
   9     398.1        0.1567        0.0000        2.0688        2.0689       1.912192       0.03984
   8     437.6        0.1573        0.0000        1.9470        1.9470       1.789716       0.02619
   7     480.5        0.1581        0.0000        1.8435        1.8436       1.685427       0.02048
   6     533.0        0.1596        0.0000        1.7203        1.7203       1.560757       0.02006
   5     589.8        0.1616        0.0000        1.5929        1.5929       1.431357       0.01921
   4     651.6        0.1645        0.0000        1.4698        1.4699       1.305334       0.01723
   3     718.7        0.1685        0.0000        1.3622        1.3622       1.193739       0.01402
   2     792.3        0.1733        0.0000        1.2684        1.2684       1.095197       0.01130
   1     891.5        0.1812        0.0000        1.1536        1.1536       0.972396       0.01045
   0    1013.0        0.1955        0.0000        1.0049        1.0049       0.809461       0.01131

  Modules and versions used in this calculation:

       rrtmg_sw.1col.f90:  $Revision$                    rrtmg_sw_init.f90:  $Revision$        
     rrtmgsw_cldprop.f90:  $Revision$                  rrtmgsw_cldprmc.f90:  NOT USED          
     rrtmg_sw_reftra.f90:  $Revision$                  rrtmg_sw_spcvrt.f90:  NOT USED          
     rrtmg_sw_spcvmc.f90:  NOT USED                    rrtmgsw_setcoef.f90:  NOT USED          
     rrtmg_sw_taumol.f90:  $Revision$                  rrtmg_sw_vrtqdr.f90:  NOT USED          
                rrtatm.f:  NOT USED                             util_xxx.f:  NOT USED          
                 extra.f:  NOT USED                       rrtmg_sw_k_g.f90:  $Revision$        

