

 Wavenumbers:   820. - 50000. cm-1, ATM      1
 LEVEL PRESSURE   UPWARD FLUX   DIFDOWN FLUX  DIRDOWN FLUX  DOWNWARD FLUX   NET FLUX    HEATING RATE
          mb          W/m2          W/m2          W/m2        W/m2          W/m2       degree/day
  51    .06700      175.0305        0.0000      397.8738      397.8738     222.843293       0.00000
  50    .07753      175.0299        0.0012      397.8578      397.8590     222.829096      11.37964
  49    .09103      175.0291        0.0026      397.8420      397.8446     222.815523       8.48328
  48    0.1069      175.0282        0.0043      397.8233      397.8275     222.799302       8.63446
  47    0.1255      175.0273        0.0062      397.8001      397.8063     222.779004       9.20245
  46    0.1487      175.0261        0.0086      397.7682      397.7768     222.750727      10.30701
  45    0.1794      175.0245        0.0119      397.7213      397.7332     222.708686      11.54125
  44    0.2165      175.0227        0.0158      397.6613      397.6770     222.654346      12.36142
  43    0.2613      175.0206        0.0203      397.5842      397.6046     222.583932      13.27273
  42    0.3336      175.0174        0.0278      397.4467      397.4746     222.457158      14.78068
  41    0.4307      175.0134        0.0377      397.2549      397.2926     222.279213      15.47191
  40    0.5894      175.0074        0.0535      396.9289      396.9825     221.975034      16.17586
  39     1.339      174.9898        0.1244      395.4336      395.5579     220.568123      15.83926
  38     1.782      174.9864        0.1640      394.7394      394.9034     219.917042      12.39554
  37     2.292      174.9886        0.2092      394.0705      394.2797     219.291090      10.36740
  36     2.964      175.0005        0.2677      393.3174      393.5852     218.584665       8.86777
  35     3.853      175.0288        0.3443      392.4528      392.7971     217.768294       7.74751
  34     5.035      175.0788        0.4451      391.4701      391.9152     216.836436       6.65681
  33     6.613      175.1524        0.5785      390.3587      390.9372     215.784777       5.62217
  32     8.786      175.2469        0.7569      389.1009      389.8578     214.610927       4.55881
  31     11.80      175.3613        1.0102      387.5962      388.6064     213.245105       3.82387
  30     15.07      175.4599        1.2798      386.2091      387.4889     212.029047       3.13962
  29     18.79      175.5496        1.5819      384.8113      386.3932     210.843663       2.68763
  28     23.16      175.6295        1.9319      383.3379      385.2698     209.640361       2.32680
  27     28.12      175.6917        2.3289      381.8104      384.1393     208.447559       2.02768
  26     33.73      175.7186        2.7698      380.2837      383.0535     207.334883       1.67294
  25     40.54      175.7016        3.2985      378.6324      381.9309     206.229266       1.37164
  24     48.69      175.6337        3.9301      376.8246      380.7547     205.120977       1.14691
  23     57.69      175.5138        4.6173      375.0074      379.6247     204.110916       0.94678
  22     68.43      175.3225        5.4272      373.0195      378.4468     203.124299       0.77561
  21     81.20      175.0274        6.3817      370.8769      377.2586     202.231170       0.59017
  20     96.49      174.6156        7.5043      368.5410      376.0453     201.429641       0.44239
  19     114.6      174.1073        8.8150      365.9007      374.7158     200.608468       0.38343
  18     136.5      173.4933       10.3368      362.8936      373.2303     199.737076       0.33507
  17     162.9      172.7574       12.1051      359.3906      371.4957     198.738369       0.31923
  16     196.4      171.7817       14.3335      354.8987      369.2322     197.450435       0.32419
  15     218.7      171.1391       15.7581      351.8845      367.6426     196.503446       0.35954
  14     243.0      170.4460       17.2728      348.3587      365.6315     195.185544       0.45709
  13     269.0      169.7021       18.8758      343.9114      362.7872     193.085138       0.68136
  12     297.5      168.9083       20.5647      338.7199      359.2846     190.376334       0.80340
  11     328.5      168.0676       22.3410      332.8674      355.2083     187.140762       0.87974
  10     361.9      167.1832       24.1992      326.3488      350.5480     183.364847       0.95534
   9     398.1      166.2562       26.1386      319.2642      345.4028     179.146615       0.98275
   8     437.6      165.2924       28.1542      311.6662      339.8203     174.527982       0.98749
   7     480.5      164.2995       30.2408      303.4385      333.6792     169.379785       1.01109
   6     533.0      163.1370       32.7104      293.6404      326.3509     163.213832       0.99191
   5     589.8      161.9624       35.2577      283.6508      318.9086     156.946158       0.93033
   4     651.6      160.7980       37.8706      273.4994      311.3700     150.571997       0.87168
   3     718.7      159.6560       40.5389      263.4572      303.9961     144.340101       0.78318
   2     792.3      158.5518       43.2490      253.6503      296.8993     138.347466       0.68729
   1     891.5      157.2793       46.6833      241.4833      288.1666     130.887284       0.63483
   0    1013.0      156.2050       50.4920      227.7787      278.2707     122.065772       0.61252



 Wavenumbers:  2600. -  3250. cm-1, ATM      1
 LEVEL PRESSURE   UPWARD FLUX   DIFDOWN FLUX  DIRDOWN FLUX  DOWNWARD FLUX   NET FLUX    HEATING RATE
          mb          W/m2          W/m2          W/m2        W/m2          W/m2       degree/day
  51    .06700        0.2709        0.0000        3.5066        3.5066       3.235768       0.00000
  50    .07753        0.2709        0.0000        3.5066        3.5066       3.235760       0.00640
  49    .09103        0.2709        0.0000        3.5066        3.5066       3.235750       0.00627
  48    0.1069        0.2709        0.0000        3.5066        3.5066       3.235738       0.00613
  47    0.1255        0.2709        0.0000        3.5066        3.5066       3.235725       0.00599
  46    0.1487        0.2709        0.0000        3.5066        3.5066       3.235708       0.00607
  45    0.1794        0.2709        0.0000        3.5065        3.5065       3.235686       0.00624
  44    0.2165        0.2709        0.0000        3.5065        3.5065       3.235659       0.00611
  43    0.2613        0.2709        0.0000        3.5065        3.5065       3.235627       0.00598
  42    0.3336        0.2709        0.0000        3.5064        3.5064       3.235574       0.00615
  41    0.4307        0.2709        0.0000        3.5064        3.5064       3.235503       0.00618
  40    0.5894        0.2709        0.0000        3.5062        3.5062       3.235384       0.00633
  39     1.339        0.2709        0.0000        3.5055        3.5055       3.234685       0.00787
  38     1.782        0.2709        0.0000        3.5050        3.5050       3.234155       0.01011
  37     2.292        0.2709        0.0000        3.5043        3.5043       3.233462       0.01147
  36     2.964        0.2709        0.0000        3.5033        3.5033       3.232471       0.01245
  35     3.853        0.2709        0.0000        3.5019        3.5019       3.231094       0.01307
  34     5.035        0.2709        0.0000        3.5001        3.5001       3.229233       0.01329
  33     6.613        0.2709        0.0000        3.4977        3.4977       3.226823       0.01288
  32     8.786        0.2709        0.0000        3.4947        3.4947       3.223852       0.01154
  31     11.80        0.2709        0.0000        3.4911        3.4911       3.220217       0.01018
  30     15.07        0.2709        0.0000        3.4878        3.4878       3.216996       0.00832
  29     18.79        0.2709        0.0000        3.4848        3.4848       3.213932       0.00695
  28     23.16        0.2708        0.0000        3.4816        3.4816       3.210713       0.00623
  27     28.12        0.2708        0.0000        3.4779        3.4779       3.207095       0.00615
  26     33.73        0.2708        0.0000        3.4735        3.4735       3.202628       0.00672
  25     40.54        0.2708        0.0000        3.4671        3.4671       3.196302       0.00785
  24     48.69        0.2708        0.0000        3.4582        3.4583       3.187407       0.00921
  23     57.69        0.2708        0.0000        3.4472        3.4472       3.176359       0.01036
  22     68.43        0.2708        0.0000        3.4329        3.4329       3.162098       0.01121
  21     81.20        0.2709        0.0000        3.4152        3.4152       3.144369       0.01172
  20     96.49        0.2709        0.0000        3.3940        3.3941       3.123223       0.01167
  19     114.6        0.2709        0.0000        3.3694        3.3694       3.098562       0.01151
  18     136.5        0.2709        0.0001        3.3424        3.3425       3.071616       0.01036
  17     162.9        0.2709        0.0001        3.3138        3.3139       3.042993       0.00915
  16     196.4        0.2710        0.0001        3.2815        3.2815       3.010574       0.00816
  15     218.7        0.2710        0.0001        3.2614        3.2615       2.990460       0.00764
  14     243.0        0.2711        0.0001        3.2376        3.2377       2.966562       0.00829
  13     269.0        0.2712        0.0001        3.2064        3.2065       2.935264       0.01015
  12     297.5        0.2714        0.0001        3.1653        3.1654       2.893936       0.01226
  11     328.5        0.2718        0.0001        3.1092        3.1093       2.837575       0.01532
  10     361.9        0.2722        0.0001        3.0330        3.0332       2.760936       0.01939
   9     398.1        0.2729        0.0001        2.9338        2.9339       2.661058       0.02327
   8     437.6        0.2738        0.0001        2.8088        2.8089       2.535162       0.02692
   7     480.5        0.2751        0.0001        2.6587        2.6589       2.383755       0.02974
   6     533.0        0.2773        0.0002        2.4727        2.4728       2.195541       0.03028
   5     589.8        0.2805        0.0002        2.2856        2.2858       2.005293       0.02824
   4     651.6        0.2849        0.0002        2.0975        2.0977       1.812741       0.02633
   3     718.7        0.2910        0.0002        1.9108        1.9109       1.619929       0.02423
   2     792.3        0.2988        0.0002        1.7347        1.7348       1.436008       0.02109
   1     891.5        0.3122        0.0002        1.5307        1.5309       1.218742       0.01849
   0    1013.0        0.3359        0.0002        1.3169        1.3171       0.981104       0.01650



 Wavenumbers:  3250. -  4000. cm-1, ATM      1
 LEVEL PRESSURE   UPWARD FLUX   DIFDOWN FLUX  DIRDOWN FLUX  DOWNWARD FLUX   NET FLUX    HEATING RATE
          mb          W/m2          W/m2          W/m2        W/m2          W/m2       degree/day
  51    .06700        0.0011        0.0000        5.9117        5.9117       5.910551       0.00000
  50    .07753        0.0011        0.0000        5.9075        5.9075       5.906406       3.32245
  49    .09103        0.0011        0.0000        5.9051        5.9051       5.904014       1.49498
  48    0.1069        0.0011        0.0000        5.9033        5.9033       5.902196       0.96787
  47    0.1255        0.0011        0.0000        5.9016        5.9016       5.900486       0.77533
  46    0.1487        0.0011        0.0000        5.8998        5.8998       5.898650       0.66935
  45    0.1794        0.0011        0.0000        5.8977        5.8977       5.896566       0.57207
  44    0.2165        0.0011        0.0000        5.8956        5.8956       5.894523       0.46475
  43    0.2613        0.0011        0.0000        5.8936        5.8936       5.892453       0.39018
  42    0.3336        0.0011        0.0000        5.8905        5.8905       5.889442       0.35098
  41    0.4307        0.0011        0.0000        5.8869        5.8869       5.885802       0.31652
  40    0.5894        0.0011        0.0000        5.8814        5.8814       5.880273       0.29404
  39     1.339        0.0011        0.0000        5.8615        5.8615       5.860368       0.22409
  38     1.782        0.0011        0.0000        5.8533        5.8533       5.852179       0.15591
  37     2.292        0.0011        0.0000        5.8454        5.8454       5.844262       0.13112
  36     2.964        0.0011        0.0000        5.8361        5.8361       5.834978       0.11654
  35     3.853        0.0011        0.0000        5.8244        5.8244       5.823295       0.11088
  34     5.035        0.0011        0.0000        5.8089        5.8090       5.807855       0.11030
  33     6.613        0.0011        0.0000        5.7880        5.7880       5.786877       0.11215
  32     8.786        0.0011        0.0000        5.7587        5.7588       5.757670       0.11343
  31     11.80        0.0011        0.0000        5.7159        5.7160       5.714866       0.11984
  30     15.07        0.0011        0.0000        5.6696        5.6696       5.668552       0.11957
  29     18.79        0.0011        0.0000        5.6184        5.6184       5.617367       0.11605
  28     23.16        0.0011        0.0000        5.5621        5.5622       5.561091       0.10882
  27     28.12        0.0011        0.0000        5.5037        5.5037       5.502644       0.09936
  26     33.73        0.0011        0.0000        5.4454        5.4454       5.444366       0.08762
  25     40.54        0.0010        0.0001        5.3821        5.3822       5.381125       0.07846
  24     48.69        0.0010        0.0001        5.3115        5.3116       5.310544       0.07304
  23     57.69        0.0010        0.0001        5.2366        5.2367       5.235658       0.07019
  22     68.43        0.0010        0.0001        5.1492        5.1493       5.148312       0.06867
  21     81.20        0.0010        0.0001        5.0481        5.0482       5.047199       0.06681
  20     96.49        0.0010        0.0001        4.9347        4.9348       4.933819       0.06258
  19     114.6        0.0010        0.0001        4.8056        4.8057       4.804769       0.06026
  18     136.5        0.0009        0.0002        4.6634        4.6635       4.662607       0.05466
  17     162.9        0.0009        0.0002        4.4909        4.4911       4.490172       0.05512
  16     196.4        0.0009        0.0002        4.2371        4.2373       4.236462       0.06386
  15     218.7        0.0008        0.0002        4.0506        4.0508       4.049959       0.07081
  14     243.0        0.0008        0.0002        3.8210        3.8212       3.820403       0.07962
  13     269.0        0.0008        0.0003        3.4946        3.4949       3.494090       0.10585
  12     297.5        0.0008        0.0003        3.0910        3.0913       3.090502       0.11970
  11     328.5        0.0008        0.0002        2.6495        2.6498       2.648992       0.12005
  10     361.9        0.0008        0.0002        2.2370        2.2372       2.236475       0.10437
   9     398.1        0.0007        0.0002        1.8743        1.8746       1.873809       0.08449
   8     437.6        0.0008        0.0002        1.5521        1.5523       1.551557       0.06890
   7     480.5        0.0008        0.0002        1.2485        1.2487       1.247952       0.05963
   6     533.0        0.0008        0.0002        0.9374        0.9376       0.936756       0.05006
   5     589.8        0.0009        0.0001        0.6623        0.6624       0.661500       0.04086
   4     651.6        0.0011        0.0001        0.4333        0.4334       0.432310       0.03134
   3     718.7        0.0014        0.0001        0.2641        0.2642       0.262810       0.02130
   2     792.3        0.0019        0.0001        0.1454        0.1454       0.143509       0.01368
   1     891.5        0.0034        0.0000        0.0536        0.0536       0.050182       0.00794
   0    1013.0        0.0093        0.0000        0.0098        0.0098       0.000514       0.00345



 Wavenumbers:  4000. -  4650. cm-1, ATM      1
 LEVEL PRESSURE   UPWARD FLUX   DIFDOWN FLUX  DIRDOWN FLUX  DOWNWARD FLUX   NET FLUX    HEATING RATE
          mb          W/m2          W/m2          W/m2        W/m2          W/m2       degree/day
  51    .06700        0.6734        0.0000        6.9421        6.9421       6.268623       0.00000
  50    .07753        0.6734        0.0000        6.9421        6.9421       6.268622       0.00080
  49    .09103        0.6734        0.0000        6.9421        6.9421       6.268620       0.00078
  48    0.1069        0.6734        0.0000        6.9421        6.9421       6.268619       0.00076
  47    0.1255        0.6734        0.0000        6.9421        6.9421       6.268617       0.00075
  46    0.1487        0.6734        0.0000        6.9421        6.9421       6.268615       0.00076
  45    0.1794        0.6734        0.0000        6.9421        6.9421       6.268612       0.00078
  44    0.2165        0.6734        0.0000        6.9421        6.9421       6.268609       0.00076
  43    0.2613        0.6734        0.0000        6.9420        6.9421       6.268605       0.00075
  42    0.3336        0.6734        0.0000        6.9420        6.9420       6.268598       0.00077
  41    0.4307        0.6734        0.0000        6.9420        6.9420       6.268590       0.00077
  40    0.5894        0.6734        0.0000        6.9420        6.9420       6.268575       0.00079
  39     1.339        0.6734        0.0000        6.9419        6.9419       6.268486       0.00100
  38     1.782        0.6734        0.0000        6.9418        6.9419       6.268416       0.00133
  37     2.292        0.6734        0.0000        6.9418        6.9418       6.268322       0.00155
  36     2.964        0.6734        0.0000        6.9416        6.9416       6.268182       0.00176
  35     3.853        0.6734        0.0000        6.9414        6.9414       6.267975       0.00197
  34     5.035        0.6734        0.0000        6.9411        6.9411       6.267670       0.00218
  33     6.613        0.6734        0.0000        6.9406        6.9406       6.267221       0.00240
  32     8.786        0.6734        0.0000        6.9399        6.9400       6.266559       0.00257
  31     11.80        0.6734        0.0000        6.9389        6.9389       6.265522       0.00290
  30     15.07        0.6734        0.0001        6.9376        6.9377       6.264309       0.00313
  29     18.79        0.6734        0.0001        6.9362        6.9362       6.262847       0.00331
  28     23.16        0.6734        0.0001        6.9343        6.9344       6.261040       0.00350
  27     28.12        0.6734        0.0001        6.9321        6.9322       6.258861       0.00370
  26     33.73        0.6733        0.0001        6.9294        6.9295       6.256188       0.00402
  25     40.54        0.6733        0.0001        6.9258        6.9259       6.252585       0.00447
  24     48.69        0.6733        0.0002        6.9209        6.9211       6.247816       0.00493
  23     57.69        0.6733        0.0002        6.9153        6.9155       6.242207       0.00526
  22     68.43        0.6732        0.0003        6.9082        6.9085       6.235236       0.00548
  21     81.20        0.6732        0.0003        6.8996        6.8999       6.226714       0.00563
  20     96.49        0.6732        0.0004        6.8893        6.8896       6.216425       0.00568
  19     114.6        0.6732        0.0004        6.8765        6.8769       6.203730       0.00593
  18     136.5        0.6731        0.0005        6.8611        6.8616       6.188464       0.00587
  17     162.9        0.6731        0.0006        6.8422        6.8428       6.169654       0.00601
  16     196.4        0.6731        0.0007        6.8161        6.8168       6.143668       0.00654
  15     218.7        0.6732        0.0008        6.7973        6.7981       6.124892       0.00713
  14     243.0        0.6733        0.0009        6.7740        6.7748       6.101584       0.00808
  13     269.0        0.6734        0.0010        6.7425        6.7434       6.070036       0.01023
  12     297.5        0.6737        0.0011        6.7008        6.7019       6.028186       0.01241
  11     328.5        0.6741        0.0012        6.6438        6.6450       5.970913       0.01557
  10     361.9        0.6747        0.0013        6.5677        6.5689       5.894262       0.01939
   9     398.1        0.6754        0.0014        6.4721        6.4735       5.798065       0.02241
   8     437.6        0.6764        0.0015        6.3591        6.3606       5.684181       0.02435
   7     480.5        0.6778        0.0016        6.2299        6.2315       5.553753       0.02562
   6     533.0        0.6799        0.0018        6.0667        6.0685       5.388575       0.02657
   5     589.8        0.6829        0.0019        5.8743        5.8762       5.193269       0.02899
   4     651.6        0.6872        0.0020        5.6426        5.6446       4.957361       0.03226
   3     718.7        0.6931        0.0022        5.3936        5.3958       4.702675       0.03201
   2     792.3        0.7006        0.0023        5.1542        5.1565       4.455894       0.02830
   1     891.5        0.7133        0.0025        4.8743        4.8767       4.163412       0.02489
   0    1013.0        0.7358        0.0026        4.5662        4.5688       3.833073       0.02294



 Wavenumbers:  4650. -  5150. cm-1, ATM      1
 LEVEL PRESSURE   UPWARD FLUX   DIFDOWN FLUX  DIRDOWN FLUX  DOWNWARD FLUX   NET FLUX    HEATING RATE
          mb          W/m2          W/m2          W/m2        W/m2          W/m2       degree/day
  51    .06700        0.4682        0.0000        6.5710        6.5710       6.102831       0.00000
  50    .07753        0.4682        0.0000        6.5708        6.5708       6.102595       0.18869
  49    .09103        0.4682        0.0000        6.5705        6.5705       6.102302       0.18344
  48    0.1069        0.4682        0.0000        6.5701        6.5701       6.101968       0.17789
  47    0.1255        0.4682        0.0000        6.5697        6.5698       6.101588       0.17222
  46    0.1487        0.4682        0.0000        6.5693        6.5693       6.101114       0.17251
  45    0.1794        0.4682        0.0000        6.5686        6.5686       6.100479       0.17457
  44    0.2165        0.4682        0.0000        6.5679        6.5679       6.099741       0.16771
  43    0.2613        0.4682        0.0000        6.5670        6.5671       6.098889       0.16062
  42    0.3336        0.4682        0.0000        6.5657        6.5657       6.097527       0.15878
  41    0.4307        0.4682        0.0000        6.5640        6.5640       6.095807       0.14956
  40    0.5894        0.4682        0.0000        6.5614        6.5614       6.093193       0.13899
  39     1.339        0.4682        0.0000        6.5516        6.5516       6.083426       0.10997
  38     1.782        0.4682        0.0000        6.5474        6.5474       6.079214       0.08018
  37     2.292        0.4682        0.0000        6.5435        6.5435       6.075331       0.06431
  36     2.964        0.4681        0.0000        6.5395        6.5395       6.071381       0.04959
  35     3.853        0.4681        0.0000        6.5356        6.5356       6.067443       0.03738
  34     5.035        0.4681        0.0000        6.5316        6.5316       6.063446       0.02855
  33     6.613        0.4681        0.0000        6.5271        6.5272       6.059057       0.02346
  32     8.786        0.4681        0.0000        6.5216        6.5217       6.053570       0.02131
  31     11.80        0.4681        0.0001        6.5135        6.5136       6.045502       0.02259
  30     15.07        0.4681        0.0001        6.5042        6.5042       6.036147       0.02415
  29     18.79        0.4681        0.0001        6.4926        6.4927       6.024648       0.02607
  28     23.16        0.4681        0.0001        6.4780        6.4781       6.010077       0.02818
  27     28.12        0.4680        0.0002        6.4600        6.4602       5.992129       0.03051
  26     33.73        0.4680        0.0002        6.4386        6.4387       5.970730       0.03217
  25     40.54        0.4680        0.0002        6.4114        6.4116       5.943647       0.03360
  24     48.69        0.4680        0.0003        6.3778        6.3780       5.910063       0.03475
  23     57.69        0.4679        0.0003        6.3407        6.3410       5.873033       0.03471
  22     68.43        0.4679        0.0004        6.2975        6.2978       5.829917       0.03389
  21     81.20        0.4679        0.0004        6.2486        6.2491       5.781192       0.03220
  20     96.49        0.4679        0.0005        6.1953        6.1958       5.727927       0.02940
  19     114.6        0.4678        0.0006        6.1387        6.1393       5.671449       0.02637
  18     136.5        0.4678        0.0007        6.0797        6.0804       5.612557       0.02265
  17     162.9        0.4679        0.0009        6.0169        6.0177       5.549891       0.02003
  16     196.4        0.4679        0.0010        5.9411        5.9421       5.474232       0.01904
  15     218.7        0.4680        0.0011        5.8914        5.8925       5.424579       0.01885
  14     243.0        0.4681        0.0012        5.8352        5.8364       5.368334       0.01951
  13     269.0        0.4682        0.0014        5.7686        5.7700       5.301727       0.02161
  12     297.5        0.4685        0.0015        5.6877        5.6892       5.220677       0.02404
  11     328.5        0.4689        0.0016        5.5905        5.5922       5.123247       0.02649
  10     361.9        0.4695        0.0018        5.4746        5.4763       5.006821       0.02946
   9     398.1        0.4703        0.0019        5.3392        5.3411       4.870752       0.03170
   8     437.6        0.4714        0.0020        5.1819        5.1840       4.712515       0.03383
   7     480.5        0.4730        0.0022        5.0005        5.0026       4.529672       0.03591
   6     533.0        0.4754        0.0023        4.7713        4.7736       4.298239       0.03723
   5     589.8        0.4788        0.0025        4.5277        4.5302       4.051405       0.03664
   4     651.6        0.4834        0.0026        4.2778        4.2804       3.797025       0.03479
   3     718.7        0.4896        0.0027        4.0319        4.0346       3.544997       0.03167
   2     792.3        0.4977        0.0029        3.7962        3.7991       3.301361       0.02794
   1     891.5        0.5115        0.0030        3.5121        3.5151       3.003670       0.02533
   0    1013.0        0.5345        0.0032        3.2055        3.2087       2.674167       0.02288



 Wavenumbers:  5150. -  6150. cm-1, ATM      1
 LEVEL PRESSURE   UPWARD FLUX   DIFDOWN FLUX  DIRDOWN FLUX  DOWNWARD FLUX   NET FLUX    HEATING RATE
          mb          W/m2          W/m2          W/m2        W/m2          W/m2       degree/day
  51    .06700        1.2903        0.0000       16.4735       16.4735      15.183221       0.00000
  50    .07753        1.2903        0.0000       16.4735       16.4735      15.183197       0.01938
  49    .09103        1.2903        0.0000       16.4735       16.4735      15.183165       0.01973
  48    0.1069        1.2903        0.0000       16.4734       16.4734      15.183128       0.02007
  47    0.1255        1.2903        0.0000       16.4734       16.4734      15.183083       0.02039
  46    0.1487        1.2903        0.0000       16.4733       16.4733      15.183024       0.02148
  45    0.1794        1.2903        0.0000       16.4732       16.4732      15.182940       0.02295
  44    0.2165        1.2903        0.0000       16.4731       16.4731      15.182837       0.02339
  43    0.2613        1.2903        0.0000       16.4730       16.4730      15.182712       0.02371
  42    0.3336        1.2903        0.0000       16.4728       16.4728      15.182497       0.02504
  41    0.4307        1.2903        0.0000       16.4725       16.4725      15.182202       0.02562
  40    0.5894        1.2903        0.0000       16.4720       16.4720      15.181709       0.02624
  39     1.339        1.2903        0.0000       16.4695       16.4696      15.179301       0.02711
  38     1.782        1.2902        0.0000       16.4681       16.4681      15.177880       0.02704
  37     2.292        1.2902        0.0001       16.4664       16.4665      15.176245       0.02708
  36     2.964        1.2902        0.0001       16.4643       16.4643      15.174115       0.02674
  35     3.853        1.2902        0.0001       16.4614       16.4615      15.171333       0.02640
  34     5.035        1.2902        0.0001       16.4577       16.4579      15.167693       0.02600
  33     6.613        1.2901        0.0002       16.4529       16.4531      15.162934       0.02544
  32     8.786        1.2901        0.0002       16.4466       16.4468      15.156719       0.02414
  31     11.80        1.2900        0.0003       16.4379       16.4382      15.148215       0.02381
  30     15.07        1.2900        0.0004       16.4292       16.4295      15.139577       0.02230
  29     18.79        1.2899        0.0005       16.4198       16.4203      15.130380       0.02085
  28     23.16        1.2898        0.0006       16.4095       16.4101      15.120310       0.01947
  27     28.12        1.2897        0.0007       16.3986       16.3993      15.109579       0.01824
  26     33.73        1.2896        0.0009       16.3872       16.3881      15.098504       0.01665
  25     40.54        1.2895        0.0010       16.3747       16.3757      15.086257       0.01519
  24     48.69        1.2893        0.0012       16.3609       16.3622      15.072855       0.01387
  23     57.69        1.2891        0.0015       16.3473       16.3488      15.059661       0.01237
  22     68.43        1.2890        0.0017       16.3330       16.3347      15.045766       0.01092
  21     81.20        1.2887        0.0021       16.3174       16.3195      15.030783       0.00990
  20     96.49        1.2885        0.0025       16.3002       16.3027      15.014190       0.00916
  19     114.6        1.2882        0.0029       16.2804       16.2834      14.995199       0.00887
  18     136.5        1.2878        0.0035       16.2547       16.2582      14.970391       0.00954
  17     162.9        1.2874        0.0041       16.2109       16.2150      14.927615       0.01367
  16     196.4        1.2868        0.0049       16.1129       16.1179      14.831032       0.02431
  15     218.7        1.2865        0.0055       15.9946       16.0001      14.713573       0.04459
  14     243.0        1.2861        0.0060       15.7663       15.7723      14.486146       0.07888
  13     269.0        1.2858        0.0065       15.3447       15.3512      14.065388       0.13649
  12     297.5        1.2855        0.0070       14.8388       14.8458      13.560301       0.14980
  11     328.5        1.2853        0.0075       14.2376       14.2451      12.959835       0.16326
  10     361.9        1.2851        0.0079       13.5178       13.5257      12.240614       0.18197
   9     398.1        1.2851        0.0083       12.7547       12.7630      11.477950       0.17768
   8     437.6        1.2853        0.0087       11.9765       11.9852      10.699926       0.16635
   7     480.5        1.2858        0.0089       11.2025       11.2115       9.925677       0.15206
   6     533.0        1.2870        0.0093       10.4413       10.4506       9.163594       0.12259
   5     589.8        1.2891        0.0097        9.8437        9.8533       8.564165       0.08897
   4     651.6        1.2927        0.0101        9.3781        9.3883       8.095524       0.06409
   3     718.7        1.2981        0.0107        9.0060        9.0167       7.718585       0.04737
   2     792.3        1.3058        0.0114        8.6724        8.6838       7.377997       0.03906
   1     891.5        1.3203        0.0123        8.2600        8.2724       6.952022       0.03625
   0    1013.0        1.3506        0.0133        7.8025        7.8158       6.465187       0.03380



 Wavenumbers:  6150. -  7700. cm-1, ATM      1
 LEVEL PRESSURE   UPWARD FLUX   DIFDOWN FLUX  DIRDOWN FLUX  DOWNWARD FLUX   NET FLUX    HEATING RATE
          mb          W/m2          W/m2          W/m2        W/m2          W/m2       degree/day
  51    .06700        2.0218        0.0000       30.4684       30.4684      28.446582       0.00000
  50    .07753        2.0218        0.0000       30.4683       30.4683      28.446541       0.03291
  49    .09103        2.0218        0.0000       30.4683       30.4683      28.446488       0.03304
  48    0.1069        2.0218        0.0000       30.4682       30.4682      28.446426       0.03316
  47    0.1255        2.0218        0.0000       30.4681       30.4681      28.446352       0.03326
  46    0.1487        2.0218        0.0000       30.4680       30.4681      28.446257       0.03460
  45    0.1794        2.0218        0.0000       30.4679       30.4679      28.446124       0.03652
  44    0.2165        2.0218        0.0000       30.4677       30.4677      28.445963       0.03677
  43    0.2613        2.0218        0.0000       30.4675       30.4675      28.445767       0.03690
  42    0.3336        2.0218        0.0000       30.4672       30.4672      28.445436       0.03861
  41    0.4307        2.0218        0.0000       30.4667       30.4668      28.444986       0.03912
  40    0.5894        2.0217        0.0001       30.4659       30.4660      28.444238       0.03978
  39     1.339        2.0217        0.0001       30.4622       30.4623      28.440621       0.04072
  38     1.782        2.0216        0.0002       30.4599       30.4601      28.438495       0.04048
  37     2.292        2.0216        0.0002       30.4574       30.4576      28.436048       0.04053
  36     2.964        2.0215        0.0003       30.4541       30.4544      28.432858       0.04004
  35     3.853        2.0214        0.0004       30.4497       30.4501      28.428686       0.03960
  34     5.035        2.0213        0.0005       30.4440       30.4445      28.423213       0.03910
  33     6.613        2.0211        0.0007       30.4364       30.4372      28.416023       0.03844
  32     8.786        2.0209        0.0009       30.4265       30.4275      28.406563       0.03674
  31     11.80        2.0206        0.0013       30.4128       30.4141      28.393469       0.03666
  30     15.07        2.0203        0.0016       30.3986       30.4002      28.379963       0.03487
  29     18.79        2.0199        0.0020       30.3832       30.3852      28.365347       0.03314
  28     23.16        2.0195        0.0025       30.3660       30.3685      28.349069       0.03148
  27     28.12        2.0190        0.0030       30.3473       30.3503      28.331354       0.03012
  26     33.73        2.0184        0.0036       30.3274       30.3311      28.312661       0.02810
  25     40.54        2.0177        0.0043       30.3049       30.3093      28.291554       0.02619
  24     48.69        2.0169        0.0052       30.2797       30.2849      28.268018       0.02436
  23     57.69        2.0160        0.0062       30.2541       30.2603      28.244313       0.02222
  22     68.43        2.0149        0.0073       30.2263       30.2336      28.218683       0.02015
  21     81.20        2.0136        0.0087       30.1954       30.2041      28.190499       0.01862
  20     96.49        2.0121        0.0103       30.1608       30.1711      28.159007       0.01738
  19     114.6        2.0103        0.0122       30.1208       30.1330      28.122729       0.01694
  18     136.5        2.0081        0.0145       30.0699       30.0845      28.076335       0.01784
  17     162.9        2.0056        0.0173       29.9885       30.0058      28.000198       0.02434
  16     196.4        2.0022        0.0207       29.8242       29.8450      27.842716       0.03964
  15     218.7        2.0001        0.0230       29.6556       29.6786      27.678470       0.06236
  14     243.0        1.9978        0.0254       29.3499       29.3753      27.377495       0.10439
  13     269.0        1.9954        0.0277       28.7283       28.7560      26.760614       0.20011
  12     297.5        1.9930        0.0299       27.8509       27.8808      25.887757       0.25888
  11     328.5        1.9907        0.0320       26.8210       26.8530      24.862369       0.27880
  10     361.9        1.9885        0.0340       25.6212       25.6552      23.666722       0.30251
   9     398.1        1.9866        0.0358       24.2569       24.2927      22.306117       0.31699
   8     437.6        1.9852        0.0374       22.7938       22.8311      20.845930       0.31220
   7     480.5        1.9848        0.0386       21.2447       21.2832      19.298449       0.30392
   6     533.0        1.9861        0.0397       19.5461       19.5859      17.599817       0.27326
   5     589.8        1.9900        0.0408       18.0062       18.0471      16.057047       0.22900
   4     651.6        1.9981        0.0419       16.6080       16.6499      14.651766       0.19218
   3     718.7        2.0114        0.0431       15.3996       15.4427      13.431348       0.15337
   2     792.3        2.0307        0.0446       14.3838       14.4283      12.397674       0.11855
   1     891.5        2.0677        0.0466       13.2843       13.3308      11.263099       0.09655
   0    1013.0        2.1442        0.0487       12.1516       12.2003      10.056107       0.08381



 Wavenumbers:  7700. -  8050. cm-1, ATM      1
 LEVEL PRESSURE   UPWARD FLUX   DIFDOWN FLUX  DIRDOWN FLUX  DOWNWARD FLUX   NET FLUX    HEATING RATE
          mb          W/m2          W/m2          W/m2        W/m2          W/m2       degree/day
  51    .06700        1.0329        0.0000        7.2006        7.2006       6.167733       0.00000
  50    .07753        1.0329        0.0000        7.2006        7.2006       6.167714       0.01475
  49    .09103        1.0329        0.0000        7.2005        7.2005       6.167691       0.01445
  48    0.1069        1.0329        0.0000        7.2005        7.2005       6.167665       0.01415
  47    0.1255        1.0329        0.0000        7.2005        7.2005       6.167634       0.01385
  46    0.1487        1.0329        0.0000        7.2004        7.2005       6.167596       0.01405
  45    0.1794        1.0329        0.0000        7.2004        7.2004       6.167543       0.01446
  44    0.2165        1.0329        0.0000        7.2003        7.2003       6.167481       0.01418
  43    0.2613        1.0329        0.0000        7.2003        7.2003       6.167407       0.01391
  42    0.3336        1.0329        0.0000        7.2001        7.2001       6.167285       0.01424
  41    0.4307        1.0329        0.0000        7.2000        7.2000       6.167123       0.01408
  40    0.5894        1.0329        0.0000        7.1997        7.1997       6.166858       0.01406
  39     1.339        1.0329        0.0001        7.1984        7.1985       6.165608       0.01408
  38     1.782        1.0329        0.0001        7.1977        7.1978       6.164873       0.01398
  37     2.292        1.0329        0.0001        7.1968        7.1969       6.164023       0.01407
  36     2.964        1.0329        0.0001        7.1957        7.1958       6.162908       0.01400
  35     3.853        1.0329        0.0002        7.1942        7.1944       6.161436       0.01397
  34     5.035        1.0330        0.0002        7.1922        7.1924       6.159481       0.01396
  33     6.613        1.0330        0.0003        7.1896        7.1899       6.156873       0.01394
  32     8.786        1.0331        0.0004        7.1860        7.1864       6.153363       0.01363
  31     11.80        1.0331        0.0005        7.1810        7.1815       6.148355       0.01402
  30     15.07        1.0332        0.0006        7.1755        7.1762       6.142994       0.01384
  29     18.79        1.0333        0.0008        7.1694        7.1702       6.136958       0.01369
  28     23.16        1.0334        0.0010        7.1623        7.1633       6.129936       0.01358
  27     28.12        1.0335        0.0012        7.1542        7.1554       6.121944       0.01359
  26     33.73        1.0336        0.0014        7.1452        7.1467       6.113048       0.01338
  25     40.54        1.0338        0.0017        7.1344        7.1362       6.102368       0.01325
  24     48.69        1.0340        0.0021        7.1215        7.1236       6.089593       0.01322
  23     57.69        1.0342        0.0025        7.1074        7.1099       6.075684       0.01304
  22     68.43        1.0345        0.0029        7.0908        7.0938       6.059287       0.01289
  21     81.20        1.0348        0.0034        7.0713        7.0748       6.039989       0.01275
  20     96.49        1.0352        0.0041        7.0484        7.0525       6.017321       0.01251
  19     114.6        1.0356        0.0048        7.0216        7.0265       5.990855       0.01236
  18     136.5        1.0362        0.0057        6.9905        6.9963       5.960088       0.01183
  17     162.9        1.0369        0.0068        6.9543        6.9612       5.924257       0.01145
  16     196.4        1.0378        0.0082        6.9087        6.9169       5.879028       0.01138
  15     218.7        1.0385        0.0091        6.8794        6.8884       5.849982       0.01103
  14     243.0        1.0392        0.0100        6.8481        6.8581       5.818952       0.01076
  13     269.0        1.0400        0.0111        6.8147        6.8258       5.785863       0.01073
  12     297.5        1.0409        0.0122        6.7793        6.7915       5.750627       0.01045
  11     328.5        1.0419        0.0134        6.7414        6.7548       5.712961       0.01024
  10     361.9        1.0431        0.0147        6.7011        6.7158       5.672738       0.01018
   9     398.1        1.0444        0.0161        6.6579        6.6740       5.629625       0.01004
   8     437.6        1.0460        0.0176        6.6115        6.6292       5.583176       0.00993
   7     480.5        1.0478        0.0192        6.5613        6.5805       5.532669       0.00992
   6     533.0        1.0504        0.0211        6.4985        6.5196       5.469200       0.01021
   5     589.8        1.0536        0.0232        6.4292        6.4524       5.398842       0.01044
   4     651.6        1.0574        0.0254        6.3522        6.3776       5.320158       0.01076
   3     718.7        1.0621        0.0278        6.2673        6.2950       5.232890       0.01097
   2     792.3        1.0677        0.0302        6.1749        6.2052       5.137441       0.01095
   1     891.5        1.0763        0.0335        6.0474        6.0809       5.004651       0.01130
   0    1013.0        1.0885        0.0373        5.8855        5.9228       4.834224       0.01183



 Wavenumbers:  8050. - 12850. cm-1, ATM      1
 LEVEL PRESSURE   UPWARD FLUX   DIFDOWN FLUX  DIRDOWN FLUX  DOWNWARD FLUX   NET FLUX    HEATING RATE
          mb          W/m2          W/m2          W/m2        W/m2          W/m2       degree/day
  51    .06700       22.1383        0.0000      100.8135      100.8135      78.675253       0.00000
  50    .07753       22.1382        0.0000      100.8135      100.8135      78.675253       0.00000
  49    .09103       22.1382        0.0001      100.8134      100.8135      78.675253      -0.00000
  48    0.1069       22.1382        0.0001      100.8134      100.8134      78.675253       0.00000
  47    0.1255       22.1382        0.0001      100.8133      100.8134      78.675253      -0.00000
  46    0.1487       22.1381        0.0002      100.8132      100.8134      78.675253      -0.00000
  45    0.1794       22.1381        0.0002      100.8131      100.8133      78.675253       0.00000
  44    0.2165       22.1380        0.0003      100.8129      100.8132      78.675253       0.00000
  43    0.2613       22.1379        0.0004      100.8127      100.8132      78.675253       0.00000
  42    0.3336       22.1378        0.0006      100.8125      100.8130      78.675253       0.00000
  41    0.4307       22.1376        0.0008      100.8121      100.8129      78.675253       0.00000
  40    0.5894       22.1373        0.0011      100.8115      100.8126      78.675253      -0.00000
  39     1.339       22.1360        0.0028      100.8085      100.8113      78.675253      -0.00000
  38     1.782       22.1352        0.0037      100.8068      100.8105      78.675253       0.00000
  37     2.292       22.1343        0.0048      100.8047      100.8096      78.675253       0.00000
  36     2.964       22.1331        0.0063      100.8021      100.8084      78.675253       0.00000
  35     3.853       22.1316        0.0082      100.7986      100.8068      78.675253      -0.00000
  34     5.035       22.1295        0.0108      100.7940      100.8048      78.675253       0.00000
  33     6.613       22.1267        0.0142      100.7878      100.8020      78.675253      -0.00000
  32     8.786       22.1230        0.0188      100.7794      100.7982      78.675253       0.00000
  31     11.80       22.1176        0.0254      100.7674      100.7928      78.675253      -0.00000
  30     15.07       22.1118        0.0325      100.7546      100.7871      78.675253       0.00000
  29     18.79       22.1053        0.0405      100.7400      100.7805      78.675253       0.00000
  28     23.16       22.0977        0.0499      100.7230      100.7729      78.675253       0.00000
  27     28.12       22.0889        0.0607      100.7035      100.7642      78.675253      -0.00000
  26     33.73       22.0791        0.0727      100.6817      100.7544      78.675253       0.00000
  25     40.54       22.0673        0.0873      100.6552      100.7425      78.675253       0.00000
  24     48.69       22.0530        0.1049      100.6234      100.7282      78.675253      -0.00000
  23     57.69       22.0372        0.1242      100.5883      100.7125      78.675253       0.00000
  22     68.43       22.0184        0.1473      100.5464      100.6937      78.675253       0.00000
  21     81.20       21.9960        0.1748      100.4965      100.6713      78.675253      -0.00000
  20     96.49       21.9693        0.2076      100.4370      100.6445      78.675253       0.00000
  19     114.6       21.9375        0.2466      100.3608      100.6074      78.669864       0.00252
  18     136.5       21.8998        0.2930      100.2689      100.5619      78.662085       0.00299
  17     162.9       21.8548        0.3482      100.1527      100.5010      78.646214       0.00507
  16     196.4       21.7963        0.4200       99.9795      100.3996      78.603308       0.01080
  15     218.7       21.7578        0.4672       99.8384      100.3056      78.547799       0.02107
  14     243.0       21.7160        0.5185       99.6332      100.1516      78.435615       0.03891
  13     269.0       21.6711        0.5737       99.2932       99.8669      78.195804       0.07779
  12     297.5       21.6232        0.6331       98.8220       99.4551      77.831900       0.10793
  11     328.5       21.5725        0.6968       98.2091       98.9059      77.333345       0.13556
  10     361.9       21.5198        0.7646       97.4075       98.1722      76.652326       0.17230
   9     398.1       21.4658        0.8366       96.3734       97.2100      75.744125       0.21159
   8     437.6       21.4122        0.9121       95.0633       95.9754      74.563255       0.25248
   7     480.5       21.3621        0.9906       93.3838       94.3744      73.012269       0.30461
   6     533.0       21.3131        1.0836       91.0943       92.1779      70.864813       0.34546
   5     589.8       21.2785        1.1798       88.5169       89.6967      68.418206       0.36316
   4     651.6       21.2682        1.2788       85.7043       86.9831      65.714926       0.36968
   3     718.7       21.2878        1.3813       82.8160       84.1973      62.909560       0.35256
   2     792.3       21.3423        1.4882       79.9592       81.4474      60.105039       0.32165
   1     891.5       21.4866        1.6264       76.3763       78.0028      56.516182       0.30539
   0    1013.0       21.8417        1.7806       72.2372       74.0178      52.176154       0.30135



 Wavenumbers: 12850. - 16000. cm-1, ATM      1
 LEVEL PRESSURE   UPWARD FLUX   DIFDOWN FLUX  DIRDOWN FLUX  DOWNWARD FLUX   NET FLUX    HEATING RATE
          mb          W/m2          W/m2          W/m2        W/m2          W/m2       degree/day
  51    .06700       32.3481        0.0000       63.1686       63.1686      30.820497       0.00000
  50    .07753       32.3481        0.0001       63.1677       63.1678      30.819718       0.62440
  49    .09103       32.3480        0.0001       63.1666       63.1668      30.818748       0.60675
  48    0.1069       32.3480        0.0002       63.1654       63.1656      30.817642       0.58829
  47    0.1255       32.3479        0.0003       63.1640       63.1643      30.816386       0.56975
  46    0.1487       32.3479        0.0004       63.1623       63.1627      30.814819       0.57120
  45    0.1794       32.3478        0.0006       63.1600       63.1606      30.812718       0.57674
  44    0.2165       32.3478        0.0008       63.1573       63.1581      30.810289       0.55250
  43    0.2613       32.3477        0.0010       63.1542       63.1552      30.807489       0.52788
  42    0.3336       32.3476        0.0014       63.1493       63.1507      30.803029       0.51998
  41    0.4307       32.3475        0.0019       63.1431       63.1450      30.797454       0.48468
  40    0.5894       32.3475        0.0027       63.1338       63.1365      30.789018       0.44863
  39     1.339       32.3484        0.0065       63.0956       63.1021      30.753711       0.39749
  38     1.782       32.3497        0.0087       63.0740       63.0828      30.733011       0.39409
  37     2.292       32.3522        0.0113       63.0477       63.0590      30.706808       0.43399
  36     2.964       32.3566        0.0147       63.0095       63.0242      30.667620       0.49193
  35     3.853       32.3643        0.0192       62.9533       62.9725      30.608188       0.56402
  34     5.035       32.3762        0.0252       62.8725       62.8977      30.521483       0.61938
  33     6.613       32.3930        0.0331       62.7621       62.7952      30.402192       0.63773
  32     8.786       32.4147        0.0438       62.6183       62.6621      30.247360       0.60131
  31     11.80       32.4423        0.0591       62.4284       62.4874      30.045118       0.56621
  30     15.07       32.4679        0.0754       62.2426       62.3180      29.850074       0.50357
  29     18.79       32.4933        0.0938       62.0493       62.1431      29.649827       0.45402
  28     23.16       32.5188        0.1153       61.8425       61.9577      29.438979       0.40771
  27     28.12       32.5430        0.1398       61.6278       61.7676      29.224566       0.36449
  26     33.73       32.5632        0.1671       61.4177       61.5848      29.021551       0.30524
  25     40.54       32.5796        0.2001       61.1983       61.3984      28.818763       0.25158
  24     48.69       32.5916        0.2398       60.9680       61.2078      28.616169       0.20965
  23     57.69       32.5972        0.2833       60.7478       61.0311      28.433925       0.17083
  22     68.43       32.5957        0.3351       60.5202       60.8553      28.259614       0.13703
  21     81.20       32.5827        0.3968       60.2938       60.6906      28.107909       0.10024
  20     96.49       32.5569        0.4702       60.0643       60.5345      27.977618       0.07191
  19     114.6       32.5264        0.5578       59.8078       60.3657      27.839273       0.06460
  18     136.5       32.4857        0.6615       59.5158       60.1773      27.691670       0.05676
  17     162.9       32.4329        0.7846       59.1773       59.9619      27.529036       0.05198
  16     196.4       32.3555        0.9439       58.7609       59.7048      27.349272       0.04525
  15     218.7       32.3014        1.0481       58.4956       59.5438      27.242356       0.04059
  14     243.0       32.2412        1.1612       58.2106       59.3718      27.130559       0.03878
  13     269.0       32.1747        1.2835       57.9044       59.1879      27.013123       0.03810
  12     297.5       32.1019        1.4153       57.5747       58.9900      26.888187       0.03705
  11     328.5       32.0232        1.5573       57.2159       58.7732      26.750006       0.03757
  10     361.9       31.9391        1.7097       56.8238       58.5336      26.594425       0.03936
   9     398.1       31.8500        1.8732       56.3934       58.2666      26.416610       0.04143
   8     437.6       31.7568        2.0479       55.9157       57.9636      26.206823       0.04485
   7     480.5       31.6617        2.2341       55.3765       57.6106      25.948922       0.05065
   6     533.0       31.5527        2.4615       54.6761       57.1376      25.584941       0.05855
   5     589.8       31.4471        2.7042       53.8793       56.5835      25.136353       0.06659
   4     651.6       31.3493        2.9615       52.9852       55.9467      24.597379       0.07371
   3     718.7       31.2601        3.2335       52.0186       55.2522      23.992106       0.07607
   2     792.3       31.1822        3.5201       50.9966       54.5167      23.334490       0.07542
   1     891.5       31.1128        3.8990       49.6313       53.5303      22.417464       0.07803
   0    1013.0       31.1040        4.3400       47.9839       52.3238      21.219779       0.08316



 Wavenumbers: 16000. - 22650. cm-1, ATM      1
 LEVEL PRESSURE   UPWARD FLUX   DIFDOWN FLUX  DIRDOWN FLUX  DOWNWARD FLUX   NET FLUX    HEATING RATE
          mb          W/m2          W/m2          W/m2        W/m2          W/m2       degree/day
  51    .06700       75.3719        0.0000      100.7153      100.7153      25.343445       0.00000
  50    .07753       75.3717        0.0003      100.7147      100.7151      25.343328       0.09385
  49    .09103       75.3716        0.0007      100.7140      100.7147      25.343158       0.10645
  48    0.1069       75.3714        0.0012      100.7131      100.7143      25.342930       0.12139
  47    0.1255       75.3712        0.0017      100.7121      100.7139      25.342624       0.13836
  46    0.1487       75.3710        0.0024      100.7108      100.7132      25.342175       0.16396
  45    0.1794       75.3708        0.0034      100.7089      100.7122      25.341471       0.19305
  44    0.2165       75.3705        0.0045      100.7066      100.7110      25.340518       0.21696
  43    0.2613       75.3702        0.0058      100.7037      100.7094      25.339224       0.24391
  42    0.3336       75.3699        0.0079      100.6987      100.7066      25.336764       0.28683
  41    0.4307       75.3695        0.0108      100.6918      100.7026      25.333055       0.32242
  40    0.5894       75.3693        0.0155      100.6797      100.6952      25.325983       0.37608
  39     1.339       75.3734        0.0377      100.6095      100.6472      25.273746       0.58810
  38     1.782       75.3799        0.0507      100.5585      100.6091      25.229259       0.84695
  37     2.292       75.3911        0.0657      100.4903      100.5560      25.164885       1.06621
  36     2.964       75.4116        0.0855      100.3868      100.4723      25.060647       1.30850
  35     3.853       75.4468        0.1116      100.2306      100.3422      24.895367       1.56853
  34     5.035       75.5016        0.1462      100.0045      100.1506      24.649053       1.75957
  33     6.613       75.5789        0.1923       99.6939       99.8861      24.307279       1.82713
  32     8.786       75.6788        0.2542       99.2881       99.5423      23.863475       1.72358
  31     11.80       75.8062        0.3426       98.7496       99.0922      23.285999       1.61675
  30     15.07       75.9248        0.4372       98.2198       98.6570      22.732181       1.42985
  29     18.79       76.0424        0.5436       97.6651       98.2087      22.166312       1.28300
  28     23.16       76.1609        0.6674       97.0671       97.7346      21.573653       1.14601
  27     28.12       76.2744        0.8085       96.4406       97.2491      20.974641       1.01828
  26     33.73       76.3699        0.9659       95.8179       96.7838      20.413906       0.84308
  25     40.54       76.4486        1.1553       95.1548       96.3102      19.861595       0.68520
  24     48.69       76.5081        1.3828       94.4420       95.8248      19.316745       0.56383
  23     57.69       76.5393        1.6317       93.7416       95.3733      18.834038       0.45247
  22     68.43       76.5398        1.9269       92.9954       94.9223      18.382491       0.35498
  21     81.20       76.4901        2.2772       92.2231       94.5003      18.010265       0.24596
  20     96.49       76.3845        2.6927       91.4110       94.1037      17.719164       0.16067
  19     114.6       76.2363        3.1825       90.5070       93.6896      17.453312       0.12413
  18     136.5       76.0458        3.7583       89.4803       93.2386      17.192779       0.10018
  17     162.9       75.8063        4.4370       88.3022       92.7393      16.932917       0.08306
  16     196.4       75.4673        5.3070       86.8607       92.1677      16.700350       0.05854
  15     218.7       75.2351        5.8721       85.9493       91.8214      16.586313       0.04330
  14     243.0       74.9791        6.4807       84.9792       91.4599      16.480833       0.03658
  13     269.0       74.6981        7.1337       83.9499       91.0837      16.385551       0.03091
  12     297.5       74.3916        7.8320       82.8603       90.6924      16.300736       0.02516
  11     328.5       74.0608        8.5780       81.7009       90.2789      16.218107       0.02247
  10     361.9       73.7056        9.3713       80.4717       89.8430      16.137430       0.02041
   9     398.1       73.3251       10.2139       79.1691       89.3830      16.057839       0.01854
   8     437.6       72.9197       11.1059       77.7904       88.8963      15.976617       0.01737
   7     480.5       72.4895       12.0477       76.3335       88.3812      15.891731       0.01667
   6     533.0       71.9668       13.1868       74.5674       87.7542      15.787442       0.01678
   5     589.8       71.4131       14.3902       72.6943       87.0845      15.671369       0.01723
   4     651.6       70.8302       15.6558       70.7133       86.3692      15.539027       0.01810
   3     718.7       70.2183       16.9816       68.6285       85.6101      15.391783       0.01850
   2     792.3       69.5798       18.3625       66.4471       84.8096      15.229777       0.01858
   1     891.5       68.7478       20.1627       63.5824       83.7450      14.997236       0.01979
   0    1013.0       67.7948       22.2331       60.2515       82.4846      14.689816       0.02135



 Wavenumbers: 22650. - 29000. cm-1, ATM      1
 LEVEL PRESSURE   UPWARD FLUX   DIFDOWN FLUX  DIRDOWN FLUX  DOWNWARD FLUX   NET FLUX    HEATING RATE
          mb          W/m2          W/m2          W/m2        W/m2          W/m2       degree/day
  51    .06700       34.3506        0.0000       38.0063       38.0063       3.655710       0.00000
  50    .07753       34.3504        0.0004       38.0057       38.0061       3.655710      -0.00000
  49    .09103       34.3502        0.0009       38.0050       38.0059       3.655710       0.00000
  48    0.1069       34.3500        0.0014       38.0042       38.0057       3.655710      -0.00000
  47    0.1255       34.3497        0.0021       38.0033       38.0054       3.655710      -0.00000
  46    0.1487       34.3493        0.0029       38.0022       38.0050       3.655710       0.00000
  45    0.1794       34.3489        0.0040       38.0006       38.0046       3.655710       0.00000
  44    0.2165       34.3483        0.0053       37.9987       38.0040       3.655710       0.00000
  43    0.2613       34.3476        0.0068       37.9965       38.0033       3.655710      -0.00000
  42    0.3336       34.3465        0.0094       37.9928       38.0022       3.655710      -0.00000
  41    0.4307       34.3451        0.0128       37.9880       38.0008       3.655710      -0.00000
  40    0.5894       34.3427        0.0183       37.9800       37.9984       3.655710       0.00000
  39     1.339       34.3313        0.0446       37.9425       37.9870       3.655710       0.00000
  38     1.782       34.3247        0.0600       37.9204       37.9804       3.655710      -0.00000
  37     2.292       34.3170        0.0778       37.8949       37.9727       3.655710       0.00000
  36     2.964       34.3069        0.1012       37.8614       37.9626       3.655710       0.00000
  35     3.853       34.2935        0.1320       37.8172       37.9493       3.655710       0.00000
  34     5.035       34.2758        0.1730       37.7586       37.9316       3.655710      -0.00000
  33     6.613       34.2522        0.2276       37.6803       37.9079       3.655710       0.00000
  32     8.786       34.2205        0.3011       37.5750       37.8762       3.655710      -0.00000
  31     11.80       34.1751        0.4060       37.4249       37.8308       3.655710       0.00000
  30     15.07       34.1266        0.5181       37.2642       37.7823       3.655710      -0.00000
  29     18.79       34.0719        0.6443       37.0833       37.7276       3.655710       0.00000
  28     23.16       34.0084        0.7911       36.8730       37.6641       3.655710      -0.00000
  27     28.12       33.9360        0.9580       36.6338       37.5917       3.655710       0.00000
  26     33.73       33.8555        1.1435       36.3677       37.5112       3.655710      -0.00000
  25     40.54       33.7589        1.3660       36.0486       37.4146       3.655710      -0.00000
  24     48.69       33.6434        1.6318       35.6672       37.2991       3.655710       0.00000
  23     57.69       33.5176        1.9207       35.2527       37.1734       3.655710       0.00000
  22     68.43       33.3696        2.2604       34.7649       37.0253       3.655710      -0.00000
  21     81.20       33.1955        2.6590       34.1922       36.8512       3.655710       0.00000
  20     96.49       32.9914        3.1253       33.5217       36.6471       3.655710       0.00000
  19     114.6       32.7537        3.6670       32.7424       36.4094       3.655710       0.00000
  18     136.5       32.4783        4.2924       31.8416       36.1340       3.655710       0.00000
  17     162.9       32.1593        5.0142       30.8008       35.8150       3.655710       0.00000
  16     196.4       31.7594        5.9144       29.5007       35.4151       3.655710      -0.00000
  15     218.7       31.5050        6.4840       28.6767       35.1607       3.655710       0.00000
  14     243.0       31.2357        7.0846       27.8068       34.8914       3.655710       0.00000
  13     269.0       30.9520        7.7143       26.8934       34.6077       3.655710      -0.00000
  12     297.5       30.6546        8.3708       25.9395       34.3103       3.655710       0.00000
  11     328.5       30.3434        9.0537       24.9454       33.9991       3.655710      -0.00000
  10     361.9       30.0198        9.7590       23.9165       33.6755       3.655710      -0.00000
   9     398.1       29.6842       10.4850       22.8549       33.3399       3.655710       0.00000
   8     437.6       29.3378       11.2279       21.7656       32.9935       3.655710      -0.00000
   7     480.5       28.9818       11.9838       20.6537       32.6375       3.655710       0.00000
   6     533.0       28.5640       12.8608       19.3590       32.2197       3.655710       0.00000
   5     589.8       28.1373       13.7436       18.0494       31.7930       3.655710       0.00000
   4     651.6       27.7043       14.6246       16.7354       31.3600       3.655710       0.00000
   3     718.7       27.2676       15.4956       15.4277       30.9233       3.655710       0.00000
   2     792.3       26.8302       16.3485       14.1374       30.4859       3.655710       0.00000
   1     891.5       26.2841       17.3819       12.5579       29.9398       3.655710       0.00000
   0    1013.0       25.6896       18.4589       10.8864       29.3453       3.655710      -0.00000



 Wavenumbers: 29000. - 38000. cm-1, ATM      1
 LEVEL PRESSURE   UPWARD FLUX   DIFDOWN FLUX  DIRDOWN FLUX  DOWNWARD FLUX   NET FLUX    HEATING RATE
          mb          W/m2          W/m2          W/m2        W/m2          W/m2       degree/day
  51    .06700        4.8872        0.0000       13.4026       13.4026       8.515381       0.00000
  50    .07753        4.8870        0.0003       13.3983       13.3986       8.511582       3.04438
  49    .09103        4.8867        0.0007       13.3921       13.3928       8.506063       3.44966
  48    0.1069        4.8864        0.0011       13.3840       13.3851       8.498686       3.92676
  47    0.1255        4.8861        0.0016       13.3733       13.3749       8.488842       4.46317
  46    0.1487        4.8856        0.0022       13.3579       13.3600       8.474399       5.26437
  45    0.1794        4.8851        0.0030       13.3340       13.3371       8.452000       6.14925
  44    0.2165        4.8844        0.0040       13.3024       13.3064       8.421981       6.82875
  43    0.2613        4.8836        0.0052       13.2604       13.2656       8.381926       7.55009
  42    0.3336        4.8824        0.0070       13.1833       13.1903       8.307920       8.62840
  41    0.4307        4.8809        0.0095       13.0729       13.0824       8.201548       9.24878
  40    0.5894        4.8785        0.0134       12.8796       12.8930       8.014506       9.94668
  39     1.339        4.8700        0.0296       11.9165       11.9462       7.076173      10.56393
  38     1.782        4.8667        0.0379       11.4399       11.4779       6.611197       8.85240
  37     2.292        4.8642        0.0468       10.9796       11.0264       6.162271       7.43539
  36     2.964        4.8627        0.0577       10.4786       10.5364       5.673648       6.13369
  35     3.853        4.8633        0.0712        9.9429       10.0141       5.150799       4.96193
  34     5.035        4.8667        0.0881        9.4007        9.4887       4.622076       3.77698
  33     6.613        4.8729        0.1094        8.8752        8.9846       4.111691       2.72852
  32     8.786        4.8815        0.1369        8.3786        8.5155       3.633963       1.85532
  31     11.80        4.8920        0.1746        7.8897        8.0643       3.172309       1.29249
  30     15.07        4.9010        0.2136        7.5108        7.7244       2.823391       0.90084
  29     18.79        4.9093        0.2560        7.1776        7.4336       2.524304       0.67812
  28     23.16        4.9169        0.3038        6.8664        7.1703       2.253325       0.52398
  27     28.12        4.9230        0.3567        6.5780        6.9347       2.011682       0.41078
  26     33.73        4.9252        0.4142        6.3195        6.7337       1.808559       0.30540
  25     40.54        4.9222        0.4822        6.0663        6.5484       1.626246       0.22618
  24     48.69        4.9135        0.5617        5.8128        6.3746       1.461053       0.17095
  23     57.69        4.8991        0.6466        5.5777        6.2243       1.325202       0.12734
  22     68.43        4.8767        0.7449        5.3379        6.0828       1.206023       0.09369
  21     81.20        4.8421        0.8589        5.0965        5.9554       1.113241       0.06131
  20     96.49        4.7941        0.9906        4.8476        5.8382       1.044137       0.03814
  19     114.6        4.7356        1.1397        4.5799        5.7196       0.983974       0.02809
  18     136.5        4.6679        1.3064        4.2891        5.5955       0.927573       0.02169
  17     162.9        4.5905        1.4911        3.9732        5.4643       0.873793       0.01719
  16     196.4        4.4925        1.7123        3.6080        5.3203       0.827809       0.01157
  15     218.7        4.4307        1.8469        3.3898        5.2366       0.805913       0.00831
  14     243.0        4.3665        1.9840        3.1686        5.1526       0.786047       0.00689
  13     269.0        4.3001        2.1225        2.9461        5.0686       0.768522       0.00569
  12     297.5        4.2319        2.2613        2.7239        4.9853       0.753357       0.00450
  11     328.5        4.1628        2.3990        2.5029        4.9019       0.739109       0.00387
  10     361.9        4.0932        2.5344        2.2846        4.8190       0.725801       0.00337
   9     398.1        4.0234        2.6661        2.0708        4.7368       0.713426       0.00288
   8     437.6        3.9541        2.7928        1.8631        4.6559       0.701722       0.00250
   7     480.5        3.8855        2.9137        1.6626        4.5763       0.690812       0.00214
   6     533.0        3.8084        3.0431        1.4445        4.4876       0.679149       0.00188
   5     589.8        3.7335        3.1615        1.2401        4.4016       0.668081       0.00164
   4     651.6        3.6611        3.2675        1.0510        4.3186       0.657460       0.00145
   3     718.7        3.5917        3.3600        0.8790        4.2390       0.647249       0.00128
   2     792.3        3.5256        3.4380        0.7250        4.1630       0.637428       0.00113
   1     891.5        3.4473        3.5153        0.5576        4.0728       0.625529       0.00101
   0    1013.0        3.3666        3.5740        0.4052        3.9793       0.612669       0.00089



 Wavenumbers: 38000. - 50000. cm-1, ATM      1
 LEVEL PRESSURE   UPWARD FLUX   DIFDOWN FLUX  DIRDOWN FLUX  DOWNWARD FLUX   NET FLUX    HEATING RATE
          mb          W/m2          W/m2          W/m2        W/m2          W/m2       degree/day
  51    .06700        0.0051        0.0000        0.8267        0.8267       0.821528       0.00000
  50    .07753        0.0051        0.0001        0.8242        0.8243       0.819196       1.86936
  49    .09103        0.0050        0.0002        0.8207        0.8209       0.815872       2.07705
  48    0.1069        0.0049        0.0002        0.8162        0.8164       0.811514       2.31984
  47    0.1255        0.0048        0.0004        0.8103        0.8106       0.805801       2.59006
  46    0.1487        0.0047        0.0005        0.8018        0.8023       0.797567       3.00143
  45    0.1794        0.0045        0.0007        0.7889        0.7896       0.785013       3.44648
  44    0.2165        0.0044        0.0009        0.7720        0.7729       0.768507       3.75474
  43    0.2613        0.0042        0.0011        0.7500        0.7511       0.746955       4.06246
  42    0.3336        0.0039        0.0015        0.7106        0.7121       0.708267       4.51071
  41    0.4307        0.0035        0.0019        0.6566        0.6584       0.654972       4.63387
  40    0.5894        0.0029        0.0024        0.5680        0.5704       0.567464       4.65357
  39     1.339        0.0015        0.0030        0.2422        0.2452       0.243720       3.64476
  38     1.782        0.0010        0.0026        0.1493        0.1519       0.150889       1.76735
  37     2.292        0.0007        0.0022        0.0924        0.0946       0.093932       0.94336
  36     2.964        0.0005        0.0018        0.0539        0.0557       0.055224       0.48589
  35     3.853        0.0003        0.0013        0.0295        0.0308       0.030502       0.23462
  34     5.035        0.0002        0.0010        0.0154        0.0164       0.016181       0.10230
  33     6.613        0.0001        0.0007        0.0073        0.0080       0.007912       0.04420
  32     8.786        0.0000        0.0004        0.0030        0.0034       0.003390       0.01756
  31     11.80        0.0000        0.0003        0.0010        0.0012       0.001199       0.00613
  30     15.07        0.0000        0.0001        0.0003        0.0005       0.000463       0.00190
  29     18.79        0.0000        0.0001        0.0001        0.0002       0.000182       0.00064
  28     23.16        0.0000        0.0000        0.0000        0.0001       0.000071       0.00022
  27     28.12        0.0000        0.0000        0.0000        0.0000       0.000028       0.00007
  26     33.73        0.0000        0.0000        0.0000        0.0000       0.000011       0.00002
  25     40.54        0.0000        0.0000        0.0000        0.0000       0.000005       0.00001
  24     48.69        0.0000        0.0000        0.0000        0.0000       0.000002       0.00000
  23     57.69        0.0000        0.0000        0.0000        0.0000       0.000001       0.00000
  22     68.43        0.0000        0.0000        0.0000        0.0000       0.000000       0.00000
  21     81.20        0.0000        0.0000        0.0000        0.0000       0.000000       0.00000
  20     96.49        0.0000        0.0000        0.0000        0.0000       0.000000       0.00000
  19     114.6        0.0000        0.0000        0.0000        0.0000       0.000000       0.00000
  18     136.5        0.0000        0.0000        0.0000        0.0000       0.000000       0.00000
  17     162.9        0.0000        0.0000        0.0000        0.0000       0.000000       0.00000
  16     196.4        0.0000        0.0000        0.0000        0.0000       0.000000       0.00000
  15     218.7        0.0000        0.0000        0.0000        0.0000       0.000000       0.00000
  14     243.0        0.0000        0.0000        0.0000        0.0000       0.000000       0.00000
  13     269.0        0.0000        0.0000        0.0000        0.0000       0.000000       0.00000
  12     297.5        0.0000        0.0000        0.0000        0.0000       0.000000       0.00000
  11     328.5        0.0000        0.0000        0.0000        0.0000       0.000000       0.00000
  10     361.9        0.0000        0.0000        0.0000        0.0000       0.000000       0.00000
   9     398.1        0.0000        0.0000        0.0000        0.0000       0.000000       0.00000
   8     437.6        0.0000        0.0000        0.0000        0.0000       0.000000       0.00000
   7     480.5        0.0000        0.0000        0.0000        0.0000       0.000000       0.00000
   6     533.0        0.0000        0.0000        0.0000        0.0000       0.000000       0.00000
   5     589.8        0.0000        0.0000        0.0000        0.0000       0.000000       0.00000
   4     651.6        0.0000        0.0000        0.0000        0.0000       0.000000       0.00000
   3     718.7        0.0000        0.0000        0.0000        0.0000       0.000000       0.00000
   2     792.3        0.0000        0.0000        0.0000        0.0000       0.000000       0.00000
   1     891.5        0.0000        0.0000        0.0000        0.0000       0.000000       0.00000
   0    1013.0        0.0000        0.0000        0.0000        0.0000       0.000000       0.00000



 Wavenumbers:   820. -  2600. cm-1, ATM      1
 LEVEL PRESSURE   UPWARD FLUX   DIFDOWN FLUX  DIRDOWN FLUX  DOWNWARD FLUX   NET FLUX    HEATING RATE
          mb          W/m2          W/m2          W/m2        W/m2          W/m2       degree/day
  51    .06700        0.1708        0.0000        3.8670        3.8670       3.696171       0.00000
  50    .07753        0.1708        0.0000        3.8643        3.8643       3.693473       2.16227
  49    .09103        0.1708        0.0000        3.8635        3.8635       3.692688       0.49067
  48    0.1069        0.1708        0.0000        3.8627        3.8627       3.691828       0.45815
  47    0.1255        0.1708        0.0000        3.8618        3.8618       3.690903       0.41933
  46    0.1487        0.1708        0.0000        3.8607        3.8607       3.689840       0.38724
  45    0.1794        0.1708        0.0000        3.8594        3.8594       3.688572       0.34816
  44    0.2165        0.1708        0.0000        3.8581        3.8581       3.687276       0.29480
  43    0.2613        0.1708        0.0000        3.8568        3.8568       3.685916       0.25633
  42    0.3336        0.1708        0.0000        3.8547        3.8547       3.683856       0.24020
  41    0.4307        0.1708        0.0000        3.8521        3.8521       3.681207       0.23031
  40    0.5894        0.1708        0.0000        3.8477        3.8477       3.676870       0.23067
  39     1.339        0.1708        0.0000        3.8282        3.8282       3.657316       0.22014
  38     1.782        0.1708        0.0000        3.8174        3.8174       3.646511       0.20572
  37     2.292        0.1708        0.0000        3.8054        3.8054       3.634537       0.19831
  36     2.964        0.1708        0.0000        3.7905        3.7905       3.619669       0.18665
  35     3.853        0.1708        0.0000        3.7721        3.7721       3.601214       0.17514
  34     5.035        0.1708        0.0000        3.7489        3.7489       3.578090       0.16519
  33     6.613        0.1708        0.0000        3.7198        3.7198       3.548932       0.15588
  32     8.786        0.1709        0.0000        3.6843        3.6843       3.513482       0.13768
  31     11.80        0.1709        0.0000        3.6442        3.6442       3.473370       0.11230
  30     15.07        0.1709        0.0000        3.6143        3.6143       3.443437       0.07728
  29     18.79        0.1709        0.0000        3.5914        3.5915       3.420596       0.05179
  28     23.16        0.1709        0.0000        3.5720        3.5720       3.401135       0.03763
  27     28.12        0.1709        0.0000        3.5529        3.5529       3.382076       0.03240
  26     33.73        0.1709        0.0000        3.5326        3.5326       3.361768       0.03053
  25     40.54        0.1709        0.0000        3.5087        3.5087       3.337857       0.02966
  24     48.69        0.1709        0.0000        3.4806        3.4806       3.309748       0.02909
  23     57.69        0.1709        0.0000        3.4507        3.4507       3.279873       0.02800
  22     68.43        0.1709        0.0000        3.4168        3.4168       3.245908       0.02670
  21     81.20        0.1709        0.0000        3.3789        3.3789       3.208047       0.02502
  20     96.49        0.1709        0.0000        3.3367        3.3367       3.165848       0.02329
  19     114.6        0.1709        0.0000        3.2899        3.2899       3.119043       0.02185
  18     136.5        0.1709        0.0000        3.2361        3.2361       3.065202       0.02070
  17     162.9        0.1709        0.0000        3.1668        3.1669       2.995920       0.02215
  16     196.4        0.1710        0.0000        3.0672        3.0673       2.896274       0.02508
  15     218.7        0.1710        0.0000        3.0044        3.0045       2.833441       0.02386
  14     243.0        0.1711        0.0000        2.9283        2.9284       2.757303       0.02641
  13     269.0        0.1712        0.0000        2.8246        2.8246       2.653445       0.03369
  12     297.5        0.1713        0.0000        2.6857        2.6858       2.514458       0.04122
  11     328.5        0.1715        0.0000        2.5001        2.5001       2.328593       0.05054
  10     361.9        0.1718        0.0000        2.2924        2.2924       2.120588       0.05263
   9     398.1        0.1723        0.0000        2.1138        2.1138       1.941529       0.04172
   8     437.6        0.1729        0.0000        1.9843        1.9843       1.811409       0.02782
   7     480.5        0.1738        0.0000        1.8822        1.8822       1.708416       0.02023
   6     533.0        0.1752        0.0000        1.7652        1.7652       1.590056       0.01904
   5     589.8        0.1772        0.0000        1.6420        1.6421       1.464917       0.01857
   4     651.6        0.1800        0.0000        1.5206        1.5206       1.340608       0.01700
   3     718.7        0.1838        0.0000        1.4142        1.4142       1.230458       0.01384
   2     792.3        0.1884        0.0000        1.3235        1.3235       1.135137       0.01093
   1     891.5        0.1960        0.0000        1.2153        1.2154       1.019385       0.00985
   0    1013.0        0.2094        0.0000        1.0766        1.0767       0.867267       0.01056

  Modules and versions used in this calculation:

       rrtmg_sw.1col.f90:  $Revision$                    rrtmg_sw_init.f90:  $Revision$        
     rrtmgsw_cldprop.f90:  $Revision$                  rrtmgsw_cldprmc.f90:  NOT USED          
     rrtmg_sw_reftra.f90:  $Revision$                  rrtmg_sw_spcvrt.f90:  NOT USED          
     rrtmg_sw_spcvmc.f90:  NOT USED                    rrtmgsw_setcoef.f90:  NOT USED          
     rrtmg_sw_taumol.f90:  $Revision$                  rrtmg_sw_vrtqdr.f90:  NOT USED          
                rrtatm.f:  NOT USED                             util_xxx.f:  NOT USED          
                 extra.f:  NOT USED                       rrtmg_sw_k_g.f90:  $Revision$        

