

 Wavenumbers:   820. - 50000. cm-1, ATM      1
 LEVEL PRESSURE   UPWARD FLUX   DIFDOWN FLUX  DIRDOWN FLUX  DOWNWARD FLUX   NET FLUX    HEATING RATE
          mb          W/m2          W/m2          W/m2        W/m2          W/m2       degree/day
  51    .06700      175.9829        0.0000      397.8738      397.8738     221.890865       0.00000
  50    .07753      175.9823        0.0011      397.8578      397.8590     221.876698      11.35515
  49    .09103      175.9815        0.0026      397.8421      397.8447     221.863158       8.46249
  48    0.1069      175.9806        0.0042      397.8234      397.8276     221.846976       8.61386
  47    0.1255      175.9796        0.0061      397.8002      397.8064     221.826721       9.18254
  46    0.1487      175.9784        0.0085      397.7684      397.7769     221.798499      10.28730
  45    0.1794      175.9768        0.0118      397.7216      397.7333     221.756531      11.52119
  44    0.2165      175.9749        0.0156      397.6616      397.6772     221.702280      12.34116
  43    0.2613      175.9728        0.0201      397.5847      397.6048     221.631976      13.25204
  42    0.3336      175.9695        0.0276      397.4473      397.4749     221.505393      14.75837
  41    0.4307      175.9654        0.0374      397.2558      397.2931     221.327702      15.44983
  40    0.5894      175.9592        0.0531      396.9301      396.9832     221.023941      16.15359
  39     1.339      175.9405        0.1232      395.4363      395.5595     219.619021      15.81686
  38     1.782      175.9363        0.1624      394.7430      394.9055     218.969133      12.37281
  37     2.292      175.9375        0.2071      394.0751      394.2822     218.344634      10.34333
  36     2.964      175.9480        0.2651      393.3232      393.5882     217.640276       8.84183
  35     3.853      175.9741        0.3409      392.4599      392.8008     216.826719       7.72080
  34     5.035      176.0209        0.4405      391.4790      391.9195     215.898637       6.62983
  33     6.613      176.0903        0.5725      390.3697      390.9422     214.851890       5.59591
  32     8.786      176.1791        0.7490      389.1141      389.8631     213.684034       4.53553
  31     11.80      176.2859        0.9994      387.6123      388.6117     212.325850       3.80249
  30     15.07      176.3767        1.2661      386.2278      387.4938     211.117088       3.12079
  29     18.79      176.4583        1.5648      384.8328      386.3976     209.939310       2.67039
  28     23.16      176.5291        1.9109      383.3624      385.2733     208.744142       2.31107
  27     28.12      176.5816        2.3032      381.8382      384.1414     207.559772       2.01335
  26     33.73      176.5986        2.7391      380.3146      383.0537     206.455125       1.66087
  25     40.54      176.5705        3.2616      378.6667      381.9283     205.357719       1.36146
  24     48.69      176.4905        3.8857      376.8625      380.7483     204.257804       1.13824
  23     57.69      176.3581        4.5646      375.0489      379.6136     203.255444       0.93956
  22     68.43      176.1532        5.3648      373.0645      378.4292     202.276082       0.76991
  21     81.20      175.8434        6.3074      370.9253      377.2327     201.389326       0.58595
  20     96.49      175.4154        7.4159      368.5927      376.0086     200.593220       0.43939
  19     114.6      174.8882        8.7099      365.9576      374.6675     199.779326       0.38003
  18     136.5      174.2524       10.2117      362.9581      373.1699     198.917417       0.33142
  17     162.9      173.4911       11.9561      359.4713      371.4274     197.936328       0.31360
  16     196.4      172.4837       14.1534      355.0186      369.1720     196.688332       0.31414
  15     218.7      171.8206       15.5575      352.0442      367.6017     195.781123       0.34443
  14     243.0      171.1054       17.0499      348.5965      365.6464     194.540966       0.43013
  13     269.0      170.3380       18.6287      344.2836      362.9123     192.574295       0.63798
  12     297.5      169.5190       20.2913      339.2324      359.5238     190.004732       0.76210
  11     328.5      168.6515       22.0391      333.5449      355.5840     186.932499       0.83533
  10     361.9      167.7386       23.8666      327.2277      351.0942     183.355647       0.90498
   9     398.1      166.7813       25.7730      320.3341      346.1071     179.325794       0.93887
   8     437.6      165.7855       27.7525      312.9091      340.6616     174.876065       0.95138
   7     480.5      164.7590       29.8009      304.8608      334.6618     169.902771       0.97674
   6     533.0      163.5570       32.2223      295.2547      327.4770     163.919955       0.96244
   5     589.8      162.3416       34.7182      285.4330      320.1512     157.809648       0.90697
   4     651.6      161.1380       37.2766      275.4326      312.7092     151.571162       0.85313
   3     718.7      159.9593       39.8861      265.5570      305.4431     145.483799       0.76501
   2     792.3      158.8210       42.5338      255.9180      298.4519     139.630889       0.67126
   1     891.5      157.5147       45.8817      243.9315      289.8133     132.298598       0.62394
   0    1013.0      156.4354       49.5883      230.3820      279.9702     123.534792       0.60852



 Wavenumbers:  2600. -  3250. cm-1, ATM      1
 LEVEL PRESSURE   UPWARD FLUX   DIFDOWN FLUX  DIRDOWN FLUX  DOWNWARD FLUX   NET FLUX    HEATING RATE
          mb          W/m2          W/m2          W/m2        W/m2          W/m2       degree/day
  51    .06700        0.3433        0.0000        3.5066        3.5066       3.163353       0.00000
  50    .07753        0.3433        0.0000        3.5066        3.5066       3.163345       0.00640
  49    .09103        0.3433        0.0000        3.5066        3.5066       3.163335       0.00627
  48    0.1069        0.3433        0.0000        3.5066        3.5066       3.163324       0.00613
  47    0.1255        0.3433        0.0000        3.5066        3.5066       3.163310       0.00599
  46    0.1487        0.3433        0.0000        3.5066        3.5066       3.163294       0.00607
  45    0.1794        0.3433        0.0000        3.5065        3.5065       3.163271       0.00624
  44    0.2165        0.3433        0.0000        3.5065        3.5065       3.163244       0.00611
  43    0.2613        0.3433        0.0000        3.5065        3.5065       3.163212       0.00598
  42    0.3336        0.3433        0.0000        3.5064        3.5064       3.163160       0.00615
  41    0.4307        0.3433        0.0000        3.5064        3.5064       3.163089       0.00618
  40    0.5894        0.3433        0.0000        3.5062        3.5062       3.162969       0.00633
  39     1.339        0.3433        0.0000        3.5055        3.5055       3.162271       0.00787
  38     1.782        0.3433        0.0000        3.5050        3.5050       3.161740       0.01011
  37     2.292        0.3433        0.0000        3.5043        3.5043       3.161047       0.01147
  36     2.964        0.3433        0.0000        3.5033        3.5033       3.160056       0.01245
  35     3.853        0.3433        0.0000        3.5019        3.5019       3.158679       0.01307
  34     5.035        0.3433        0.0000        3.5001        3.5001       3.156818       0.01329
  33     6.613        0.3433        0.0000        3.4977        3.4977       3.154408       0.01288
  32     8.786        0.3433        0.0000        3.4947        3.4947       3.151437       0.01154
  31     11.80        0.3433        0.0000        3.4911        3.4911       3.147802       0.01018
  30     15.07        0.3433        0.0000        3.4878        3.4878       3.144581       0.00832
  29     18.79        0.3433        0.0000        3.4848        3.4848       3.141517       0.00695
  28     23.16        0.3433        0.0000        3.4816        3.4816       3.138297       0.00623
  27     28.12        0.3433        0.0000        3.4779        3.4779       3.134679       0.00615
  26     33.73        0.3433        0.0000        3.4735        3.4735       3.130212       0.00672
  25     40.54        0.3433        0.0000        3.4671        3.4671       3.123885       0.00785
  24     48.69        0.3433        0.0000        3.4582        3.4583       3.114989       0.00921
  23     57.69        0.3433        0.0000        3.4472        3.4472       3.103939       0.01036
  22     68.43        0.3433        0.0000        3.4329        3.4329       3.089677       0.01121
  21     81.20        0.3433        0.0000        3.4152        3.4152       3.071945       0.01172
  20     96.49        0.3433        0.0000        3.3940        3.3941       3.050795       0.01167
  19     114.6        0.3433        0.0000        3.3695        3.3695       3.026230       0.01147
  18     136.5        0.3433        0.0001        3.3426        3.3427       2.999362       0.01033
  17     162.9        0.3434        0.0001        3.3142        3.3142       2.970882       0.00910
  16     196.4        0.3434        0.0001        3.2822        3.2823       2.938831       0.00807
  15     218.7        0.3435        0.0001        3.2626        3.2627       2.919199       0.00745
  14     243.0        0.3436        0.0001        3.2399        3.2400       2.896382       0.00791
  13     269.0        0.3438        0.0001        3.2104        3.2105       2.866678       0.00964
  12     297.5        0.3440        0.0001        3.1718        3.1719       2.827853       0.01152
  11     328.5        0.3444        0.0001        3.1198        3.1199       2.775444       0.01425
  10     361.9        0.3450        0.0001        3.0494        3.0495       2.704503       0.01795
   9     398.1        0.3458        0.0001        2.9574        2.9575       2.611723       0.02162
   8     437.6        0.3469        0.0001        2.8409        2.8410       2.494104       0.02515
   7     480.5        0.3485        0.0002        2.6983        2.6984       2.349905       0.02832
   6     533.0        0.3512        0.0002        2.5191        2.5192       2.168057       0.02925
   5     589.8        0.3550        0.0002        2.3358        2.3360       1.980911       0.02778
   4     651.6        0.3605        0.0002        2.1524        2.1526       1.792083       0.02582
   3     718.7        0.3679        0.0002        1.9718        1.9720       1.604172       0.02362
   2     792.3        0.3773        0.0002        1.7999        1.8001       1.422748       0.02081
   1     891.5        0.3934        0.0002        1.5976        1.5978       1.204328       0.01859
   0    1013.0        0.4220        0.0002        1.3833        1.3835       0.961555       0.01686



 Wavenumbers:  3250. -  4000. cm-1, ATM      1
 LEVEL PRESSURE   UPWARD FLUX   DIFDOWN FLUX  DIRDOWN FLUX  DOWNWARD FLUX   NET FLUX    HEATING RATE
          mb          W/m2          W/m2          W/m2        W/m2          W/m2       degree/day
  51    .06700        0.0011        0.0000        5.9117        5.9117       5.910604       0.00000
  50    .07753        0.0011        0.0000        5.9075        5.9075       5.906475       3.30929
  49    .09103        0.0011        0.0000        5.9051        5.9051       5.904098       1.48583
  48    0.1069        0.0011        0.0000        5.9033        5.9033       5.902296       0.95924
  47    0.1255        0.0011        0.0000        5.9017        5.9017       5.900602       0.76773
  46    0.1487        0.0011        0.0000        5.8998        5.8998       5.898784       0.66277
  45    0.1794        0.0011        0.0000        5.8978        5.8978       5.896721       0.56621
  44    0.2165        0.0011        0.0000        5.8958        5.8958       5.894703       0.45913
  43    0.2613        0.0011        0.0000        5.8937        5.8937       5.892663       0.38455
  42    0.3336        0.0011        0.0000        5.8908        5.8908       5.889705       0.34481
  41    0.4307        0.0011        0.0000        5.8872        5.8872       5.886126       0.31121
  40    0.5894        0.0011        0.0000        5.8817        5.8817       5.880686       0.28930
  39     1.339        0.0010        0.0000        5.8621        5.8621       5.861035       0.22124
  38     1.782        0.0010        0.0000        5.8540        5.8540       5.852924       0.15442
  37     2.292        0.0010        0.0000        5.8461        5.8461       5.845092       0.12970
  36     2.964        0.0010        0.0000        5.8370        5.8370       5.835924       0.11509
  35     3.853        0.0010        0.0000        5.8254        5.8255       5.824409       0.10928
  34     5.035        0.0010        0.0000        5.8102        5.8102       5.809190       0.10872
  33     6.613        0.0010        0.0000        5.7896        5.7896       5.788524       0.11048
  32     8.786        0.0010        0.0000        5.7607        5.7607       5.759651       0.11214
  31     11.80        0.0010        0.0000        5.7183        5.7183       5.717306       0.11855
  30     15.07        0.0010        0.0000        5.6724        5.6724       5.671383       0.11856
  29     18.79        0.0010        0.0000        5.6215        5.6216       5.620527       0.11531
  28     23.16        0.0010        0.0000        5.5655        5.5655       5.564467       0.10840
  27     28.12        0.0010        0.0000        5.5071        5.5072       5.506173       0.09910
  26     33.73        0.0010        0.0000        5.4490        5.4490       5.448029       0.08742
  25     40.54        0.0010        0.0001        5.3860        5.3860       5.385048       0.07814
  24     48.69        0.0010        0.0001        5.3159        5.3159       5.314945       0.07255
  23     57.69        0.0010        0.0001        5.2417        5.2418       5.240799       0.06950
  22     68.43        0.0010        0.0001        5.1551        5.1552       5.154256       0.06804
  21     81.20        0.0009        0.0001        5.0549        5.0550       5.054052       0.06621
  20     96.49        0.0009        0.0001        4.9424        4.9425       4.941593       0.06207
  19     114.6        0.0009        0.0001        4.8149        4.8151       4.814175       0.05950
  18     136.5        0.0009        0.0002        4.6752        4.6754       4.674530       0.05370
  17     162.9        0.0009        0.0002        4.5082        4.5084       4.507539       0.05338
  16     196.4        0.0008        0.0002        4.2669        4.2671       4.266264       0.06073
  15     218.7        0.0008        0.0002        4.0848        4.0850       4.084236       0.06911
  14     243.0        0.0008        0.0002        3.8635        3.8638       3.862995       0.07673
  13     269.0        0.0008        0.0003        3.5550        3.5552       3.554483       0.10008
  12     297.5        0.0007        0.0003        3.1701        3.1703       3.169619       0.11415
  11     328.5        0.0007        0.0002        2.7403        2.7405       2.739807       0.11686
  10     361.9        0.0007        0.0002        2.3282        2.3284       2.327692       0.10427
   9     398.1        0.0007        0.0002        1.9631        1.9633       1.962647       0.08505
   8     437.6        0.0007        0.0002        1.6366        1.6368       1.636097       0.06982
   7     480.5        0.0007        0.0002        1.3301        1.3303       1.329611       0.06019
   6     533.0        0.0007        0.0002        1.0170        1.0172       1.016491       0.05037
   5     589.8        0.0008        0.0001        0.7387        0.7388       0.738035       0.04133
   4     651.6        0.0009        0.0001        0.4995        0.4996       0.498683       0.03273
   3     718.7        0.0011        0.0001        0.3190        0.3191       0.318009       0.02271
   2     792.3        0.0015        0.0001        0.1892        0.1892       0.187756       0.01494
   1     891.5        0.0025        0.0000        0.0803        0.0804       0.077928       0.00935
   0    1013.0        0.0057        0.0000        0.0188        0.0188       0.013059       0.00450



 Wavenumbers:  4000. -  4650. cm-1, ATM      1
 LEVEL PRESSURE   UPWARD FLUX   DIFDOWN FLUX  DIRDOWN FLUX  DOWNWARD FLUX   NET FLUX    HEATING RATE
          mb          W/m2          W/m2          W/m2        W/m2          W/m2       degree/day
  51    .06700        1.3038        0.0000        6.9421        6.9421       5.638256       0.00000
  50    .07753        1.3038        0.0000        6.9421        6.9421       5.638255       0.00080
  49    .09103        1.3038        0.0000        6.9421        6.9421       5.638254       0.00078
  48    0.1069        1.3038        0.0000        6.9421        6.9421       5.638252       0.00076
  47    0.1255        1.3038        0.0000        6.9421        6.9421       5.638251       0.00075
  46    0.1487        1.3038        0.0000        6.9421        6.9421       5.638249       0.00076
  45    0.1794        1.3038        0.0000        6.9421        6.9421       5.638246       0.00078
  44    0.2165        1.3038        0.0000        6.9421        6.9421       5.638242       0.00076
  43    0.2613        1.3038        0.0000        6.9420        6.9421       5.638239       0.00075
  42    0.3336        1.3038        0.0000        6.9420        6.9420       5.638232       0.00077
  41    0.4307        1.3038        0.0000        6.9420        6.9420       5.638223       0.00077
  40    0.5894        1.3038        0.0000        6.9420        6.9420       5.638208       0.00079
  39     1.339        1.3038        0.0000        6.9419        6.9419       5.638119       0.00100
  38     1.782        1.3038        0.0000        6.9418        6.9419       5.638049       0.00133
  37     2.292        1.3038        0.0000        6.9418        6.9418       5.637955       0.00155
  36     2.964        1.3038        0.0000        6.9416        6.9416       5.637815       0.00176
  35     3.853        1.3038        0.0000        6.9414        6.9414       5.637608       0.00197
  34     5.035        1.3038        0.0000        6.9411        6.9411       5.637302       0.00219
  33     6.613        1.3038        0.0000        6.9406        6.9406       5.636852       0.00240
  32     8.786        1.3038        0.0000        6.9399        6.9400       5.636189       0.00257
  31     11.80        1.3038        0.0000        6.9389        6.9389       5.635150       0.00291
  30     15.07        1.3038        0.0001        6.9376        6.9377       5.633935       0.00314
  29     18.79        1.3038        0.0001        6.9362        6.9362       5.632470       0.00332
  28     23.16        1.3037        0.0001        6.9343        6.9344       5.630658       0.00350
  27     28.12        1.3037        0.0001        6.9321        6.9322       5.628475       0.00371
  26     33.73        1.3037        0.0001        6.9294        6.9295       5.625795       0.00403
  25     40.54        1.3037        0.0002        6.9257        6.9259       5.622182       0.00448
  24     48.69        1.3037        0.0002        6.9209        6.9211       5.617399       0.00495
  23     57.69        1.3037        0.0002        6.9152        6.9154       5.611772       0.00527
  22     68.43        1.3037        0.0003        6.9082        6.9084       5.604775       0.00550
  21     81.20        1.3037        0.0003        6.8996        6.8999       5.596219       0.00565
  20     96.49        1.3037        0.0004        6.8892        6.8895       5.585885       0.00570
  19     114.6        1.3037        0.0004        6.8764        6.8769       5.573190       0.00593
  18     136.5        1.3037        0.0005        6.8611        6.8616       5.557923       0.00587
  17     162.9        1.3038        0.0006        6.8423        6.8429       5.539167       0.00600
  16     196.4        1.3039        0.0007        6.8165        6.8172       5.513337       0.00650
  15     218.7        1.3041        0.0008        6.7980        6.7988       5.494796       0.00704
  14     243.0        1.3043        0.0009        6.7754        6.7763       5.471989       0.00791
  13     269.0        1.3047        0.0010        6.7451        6.7461       5.441464       0.00990
  12     297.5        1.3053        0.0011        6.7056        6.7067       5.401420       0.01188
  11     328.5        1.3061        0.0012        6.6525        6.6538       5.347610       0.01463
  10     361.9        1.3074        0.0013        6.5816        6.5829       5.275558       0.01823
   9     398.1        1.3090        0.0014        6.4919        6.4933       5.184383       0.02124
   8     437.6        1.3110        0.0016        6.3840        6.3856       5.074579       0.02348
   7     480.5        1.3137        0.0017        6.2590        6.2607       4.946970       0.02506
   6     533.0        1.3179        0.0018        6.1030        6.1048       4.786912       0.02575
   5     589.8        1.3237        0.0020        5.9237        5.9257       4.602011       0.02745
   4     651.6        1.3319        0.0021        5.7082        5.7103       4.378410       0.03058
   3     718.7        1.3429        0.0023        5.4720        5.4742       4.131339       0.03105
   2     792.3        1.3570        0.0024        5.2394        5.2419       3.884921       0.02826
   1     891.5        1.3807        0.0026        4.9630        4.9656       3.584889       0.02553
   0    1013.0        1.4222        0.0028        4.6608        4.6636       3.241344       0.02385



 Wavenumbers:  4650. -  5150. cm-1, ATM      1
 LEVEL PRESSURE   UPWARD FLUX   DIFDOWN FLUX  DIRDOWN FLUX  DOWNWARD FLUX   NET FLUX    HEATING RATE
          mb          W/m2          W/m2          W/m2        W/m2          W/m2       degree/day
  51    .06700        0.8736        0.0000        6.5710        6.5710       5.697412       0.00000
  50    .07753        0.8736        0.0000        6.5708        6.5708       5.697177       0.18849
  49    .09103        0.8736        0.0000        6.5705        6.5705       5.696884       0.18325
  48    0.1069        0.8736        0.0000        6.5701        6.5701       5.696550       0.17771
  47    0.1255        0.8736        0.0000        6.5698        6.5698       5.696171       0.17204
  46    0.1487        0.8736        0.0000        6.5693        6.5693       5.695698       0.17234
  45    0.1794        0.8736        0.0000        6.5686        6.5686       5.695063       0.17439
  44    0.2165        0.8736        0.0000        6.5679        6.5679       5.694326       0.16754
  43    0.2613        0.8736        0.0000        6.5671        6.5671       5.693475       0.16046
  42    0.3336        0.8736        0.0000        6.5657        6.5657       5.692114       0.15862
  41    0.4307        0.8736        0.0000        6.5640        6.5640       5.690396       0.14941
  40    0.5894        0.8736        0.0000        6.5614        6.5614       5.687785       0.13885
  39     1.339        0.8736        0.0000        6.5516        6.5516       5.678027       0.10986
  38     1.782        0.8736        0.0000        6.5474        6.5474       5.673819       0.08010
  37     2.292        0.8736        0.0000        6.5435        6.5435       5.669940       0.06425
  36     2.964        0.8736        0.0000        6.5395        6.5396       5.665993       0.04954
  35     3.853        0.8736        0.0000        6.5356        6.5356       5.662058       0.03734
  34     5.035        0.8736        0.0000        6.5316        6.5316       5.658064       0.02853
  33     6.613        0.8735        0.0000        6.5272        6.5272       5.653678       0.02345
  32     8.786        0.8735        0.0001        6.5217        6.5217       5.648194       0.02130
  31     11.80        0.8735        0.0001        6.5136        6.5137       5.640130       0.02258
  30     15.07        0.8735        0.0001        6.5042        6.5043       5.630779       0.02414
  29     18.79        0.8735        0.0001        6.4927        6.4928       5.619284       0.02606
  28     23.16        0.8735        0.0001        6.4781        6.4782       5.604719       0.02816
  27     28.12        0.8735        0.0002        6.4601        6.4603       5.586776       0.03050
  26     33.73        0.8735        0.0002        6.4387        6.4388       5.565384       0.03216
  25     40.54        0.8735        0.0002        6.4115        6.4118       5.538307       0.03359
  24     48.69        0.8734        0.0003        6.3779        6.3782       5.504730       0.03475
  23     57.69        0.8734        0.0003        6.3408        6.3411       5.467703       0.03471
  22     68.43        0.8734        0.0004        6.2976        6.2980       5.424588       0.03389
  21     81.20        0.8735        0.0005        6.2489        6.2493       5.375854       0.03220
  20     96.49        0.8735        0.0005        6.1955        6.1961       5.322569       0.02941
  19     114.6        0.8735        0.0006        6.1390        6.1396       5.266092       0.02637
  18     136.5        0.8736        0.0007        6.0800        6.0808       5.207138       0.02267
  17     162.9        0.8738        0.0009        6.0173        6.0182       5.144407       0.02005
  16     196.4        0.8740        0.0010        5.9417        5.9427       5.068677       0.01906
  15     218.7        0.8743        0.0012        5.8921        5.8933       5.019042       0.01884
  14     243.0        0.8746        0.0013        5.8363        5.8376       4.962997       0.01944
  13     269.0        0.8750        0.0014        5.7708        5.7722       4.897200       0.02134
  12     297.5        0.8757        0.0015        5.6921        5.6936       4.817978       0.02350
  11     328.5        0.8766        0.0017        5.5972        5.5989       4.722289       0.02602
  10     361.9        0.8778        0.0018        5.4850        5.4868       4.608969       0.02867
   9     398.1        0.8795        0.0020        5.3540        5.3560       4.476493       0.03086
   8     437.6        0.8817        0.0021        5.2025        5.2046       4.322850       0.03285
   7     480.5        0.8848        0.0023        5.0281        5.0303       4.145578       0.03482
   6     533.0        0.8895        0.0024        4.8065        4.8090       3.919487       0.03637
   5     589.8        0.8959        0.0026        4.5708        4.5734       3.677454       0.03593
   4     651.6        0.9047        0.0027        4.3271        4.3298       3.425105       0.03451
   3     718.7        0.9163        0.0029        4.0869        4.0898       3.173475       0.03162
   2     792.3        0.9313        0.0030        3.8564        3.8594       2.928091       0.02814
   1     891.5        0.9567        0.0032        3.5777        3.5809       2.624180       0.02586
   0    1013.0        0.9992        0.0034        3.2733        3.2767       2.277487       0.02407



 Wavenumbers:  5150. -  6150. cm-1, ATM      1
 LEVEL PRESSURE   UPWARD FLUX   DIFDOWN FLUX  DIRDOWN FLUX  DOWNWARD FLUX   NET FLUX    HEATING RATE
          mb          W/m2          W/m2          W/m2        W/m2          W/m2       degree/day
  51    .06700        2.3032        0.0000       16.4735       16.4735      14.170341       0.00000
  50    .07753        2.3032        0.0000       16.4735       16.4735      14.170321       0.01664
  49    .09103        2.3032        0.0000       16.4735       16.4735      14.170294       0.01694
  48    0.1069        2.3032        0.0000       16.4734       16.4734      14.170261       0.01723
  47    0.1255        2.3032        0.0000       16.4734       16.4734      14.170223       0.01750
  46    0.1487        2.3032        0.0000       16.4733       16.4733      14.170172       0.01844
  45    0.1794        2.3032        0.0000       16.4733       16.4733      14.170100       0.01970
  44    0.2165        2.3032        0.0000       16.4732       16.4732      14.170012       0.02008
  43    0.2613        2.3032        0.0000       16.4731       16.4731      14.169904       0.02036
  42    0.3336        2.3032        0.0000       16.4729       16.4729      14.169719       0.02150
  41    0.4307        2.3032        0.0000       16.4726       16.4726      14.169466       0.02201
  40    0.5894        2.3032        0.0000       16.4722       16.4722      14.169042       0.02254
  39     1.339        2.3031        0.0000       16.4701       16.4701      14.166970       0.02333
  38     1.782        2.3031        0.0000       16.4688       16.4689      14.165745       0.02332
  37     2.292        2.3031        0.0001       16.4674       16.4675      14.164333       0.02339
  36     2.964        2.3031        0.0001       16.4655       16.4656      14.162490       0.02314
  35     3.853        2.3031        0.0001       16.4631       16.4632      14.160076       0.02291
  34     5.035        2.3031        0.0001       16.4598       16.4600      14.156909       0.02263
  33     6.613        2.3030        0.0002       16.4556       16.4558      14.152750       0.02223
  32     8.786        2.3030        0.0002       16.4501       16.4503      14.147292       0.02120
  31     11.80        2.3029        0.0003       16.4424       16.4427      14.139771       0.02106
  30     15.07        2.3029        0.0004       16.4345       16.4349      14.132061       0.01991
  29     18.79        2.3028        0.0005       16.4261       16.4266      14.123781       0.01877
  28     23.16        2.3027        0.0006       16.4168       16.4174      14.114646       0.01766
  27     28.12        2.3027        0.0007       16.4067       16.4075      14.104822       0.01670
  26     33.73        2.3026        0.0009       16.3962       16.3971      14.094528       0.01548
  25     40.54        2.3025        0.0011       16.3844       16.3855      14.083018       0.01428
  24     48.69        2.3024        0.0013       16.3714       16.3727      14.070287       0.01318
  23     57.69        2.3023        0.0015       16.3584       16.3599      14.057632       0.01186
  22     68.43        2.3021        0.0018       16.3445       16.3463      14.044157       0.01059
  21     81.20        2.3020        0.0021       16.3294       16.3315      14.029505       0.00968
  20     96.49        2.3018        0.0025       16.3125       16.3150      14.013192       0.00900
  19     114.6        2.3016        0.0030       16.2931       16.2961      13.994478       0.00874
  18     136.5        2.3014        0.0036       16.2680       16.2715      13.970128       0.00936
  17     162.9        2.3012        0.0042       16.2257       16.2299      13.928763       0.01322
  16     196.4        2.3009        0.0051       16.1348       16.1399      13.839025       0.02259
  15     218.7        2.3007        0.0056       16.0289       16.0345      13.733851       0.03993
  14     243.0        2.3005        0.0062       15.8229       15.8291      13.528562       0.07120
  13     269.0        2.3004        0.0067       15.4279       15.4346      13.134220       0.12792
  12     297.5        2.3003        0.0073       14.9414       14.9487      12.648358       0.14410
  11     328.5        2.3004        0.0078       14.3775       14.3853      12.084850       0.15322
  10     361.9        2.3007        0.0083       13.6959       13.7042      11.403506       0.17239
   9     398.1        2.3012        0.0087       12.9561       12.9648      10.663621       0.17238
   8     437.6        2.3021        0.0091       12.1915       12.2006       9.898506       0.16359
   7     480.5        2.3036        0.0094       11.4147       11.4241       9.120473       0.15280
   6     533.0        2.3065        0.0098       10.6318       10.6416       8.335101       0.12634
   5     589.8        2.3111        0.0102       10.0045       10.0147       7.703620       0.09373
   4     651.6        2.3184        0.0107        9.5134        9.5241       7.205675       0.06810
   3     718.7        2.3292        0.0114        9.1321        9.1434       6.814230       0.04919
   2     792.3        2.3442        0.0121        8.8066        8.8186       6.474487       0.03896
   1     891.5        2.3721        0.0131        8.4086        8.4216       6.049545       0.03616
   0    1013.0        2.4286        0.0142        7.9511        7.9653       5.536624       0.03561



 Wavenumbers:  6150. -  7700. cm-1, ATM      1
 LEVEL PRESSURE   UPWARD FLUX   DIFDOWN FLUX  DIRDOWN FLUX  DOWNWARD FLUX   NET FLUX    HEATING RATE
          mb          W/m2          W/m2          W/m2        W/m2          W/m2       degree/day
  51    .06700        3.5647        0.0000       30.4684       30.4684      26.903710       0.00000
  50    .07753        3.5647        0.0000       30.4683       30.4683      26.903673       0.03007
  49    .09103        3.5647        0.0000       30.4683       30.4683      26.903624       0.03015
  48    0.1069        3.5647        0.0000       30.4682       30.4682      26.903568       0.03021
  47    0.1255        3.5647        0.0000       30.4682       30.4682      26.903501       0.03025
  46    0.1487        3.5647        0.0000       30.4681       30.4681      26.903415       0.03143
  45    0.1794        3.5647        0.0000       30.4679       30.4680      26.903294       0.03313
  44    0.2165        3.5647        0.0000       30.4678       30.4678      26.903148       0.03331
  43    0.2613        3.5647        0.0000       30.4676       30.4676      26.902970       0.03339
  42    0.3336        3.5646        0.0000       30.4673       30.4673      26.902671       0.03489
  41    0.4307        3.5646        0.0000       30.4669       30.4669      26.902265       0.03531
  40    0.5894        3.5646        0.0001       30.4662       30.4662      26.901590       0.03588
  39     1.339        3.5645        0.0001       30.4627       30.4629      26.898331       0.03669
  38     1.782        3.5645        0.0002       30.4607       30.4609      26.896414       0.03650
  37     2.292        3.5645        0.0002       30.4584       30.4587      26.894207       0.03656
  36     2.964        3.5644        0.0003       30.4554       30.4557      26.891327       0.03615
  35     3.853        3.5643        0.0004       30.4514       30.4519      26.887556       0.03578
  34     5.035        3.5642        0.0006       30.4462       30.4468      26.882604       0.03538
  33     6.613        3.5640        0.0007       30.4394       30.4401      26.876086       0.03484
  32     8.786        3.5638        0.0010       30.4303       30.4313      26.867491       0.03338
  31     11.80        3.5635        0.0013       30.4178       30.4191      26.855556       0.03341
  30     15.07        3.5632        0.0017       30.4047       30.4064      26.843197       0.03191
  29     18.79        3.5628        0.0021       30.3905       30.3926      26.829768       0.03045
  28     23.16        3.5624        0.0025       30.3746       30.3771      26.814747       0.02905
  27     28.12        3.5619        0.0031       30.3572       30.3603      26.798358       0.02786
  26     33.73        3.5613        0.0037       30.3386       30.3423      26.780944       0.02618
  25     40.54        3.5607        0.0044       30.3174       30.3219      26.761174       0.02453
  24     48.69        3.5599        0.0053       30.2935       30.2989      26.738987       0.02296
  23     57.69        3.5590        0.0063       30.2691       30.2754      26.716437       0.02114
  22     68.43        3.5579        0.0075       30.2424       30.2499      26.691950       0.01925
  21     81.20        3.5567        0.0089       30.2127       30.2216      26.664933       0.01785
  20     96.49        3.5552        0.0105       30.1793       30.1898      26.634628       0.01673
  19     114.6        3.5534        0.0125       30.1406       30.1532      26.599745       0.01629
  18     136.5        3.5513        0.0149       30.0918       30.1066      26.555316       0.01708
  17     162.9        3.5488        0.0176       30.0142       30.0319      26.483081       0.02309
  16     196.4        3.5456        0.0212       29.8586       29.8799      26.334273       0.03746
  15     218.7        3.5435        0.0235       29.7023       29.7259      26.182343       0.05768
  14     243.0        3.5413        0.0260       29.4258       29.4518      25.910463       0.09430
  13     269.0        3.5390        0.0284       28.8603       28.8887      25.349697       0.18191
  12     297.5        3.5368        0.0308       28.0356       28.0664      24.529561       0.24324
  11     328.5        3.5348        0.0330       27.0537       27.0867      23.551961       0.26581
  10     361.9        3.5330        0.0352       25.9260       25.9612      22.428131       0.28434
   9     398.1        3.5319        0.0372       24.6292       24.6664      21.134476       0.30139
   8     437.6        3.5317        0.0390       23.2095       23.2485      19.716801       0.30311
   7     480.5        3.5332        0.0404       21.6890       21.7294      18.196175       0.29865
   6     533.0        3.5380        0.0418       20.0014       20.0432      16.505150       0.27203
   5     589.8        3.5476        0.0431       18.4573       18.5004      14.952776       0.23042
   4     651.6        3.5646        0.0444       17.0490       17.0934      13.528795       0.19473
   3     718.7        3.5909        0.0458       15.8298       15.8756      12.284727       0.15634
   2     792.3        3.6279        0.0475       14.8014       14.8489      11.220996       0.12200
   1     891.5        3.6973        0.0498       13.6864       13.7362      10.038864       0.10059
   0    1013.0        3.8368        0.0523       12.5366       12.5889       8.752138       0.08934



 Wavenumbers:  7700. -  8050. cm-1, ATM      1
 LEVEL PRESSURE   UPWARD FLUX   DIFDOWN FLUX  DIRDOWN FLUX  DOWNWARD FLUX   NET FLUX    HEATING RATE
          mb          W/m2          W/m2          W/m2        W/m2          W/m2       degree/day
  51    .06700        1.6978        0.0000        7.2006        7.2006       5.502749       0.00000
  50    .07753        1.6978        0.0000        7.2006        7.2006       5.502731       0.01510
  49    .09103        1.6978        0.0000        7.2005        7.2005       5.502707       0.01479
  48    0.1069        1.6978        0.0000        7.2005        7.2005       5.502680       0.01448
  47    0.1255        1.6978        0.0000        7.2005        7.2005       5.502648       0.01417
  46    0.1487        1.6978        0.0000        7.2004        7.2005       5.502609       0.01438
  45    0.1794        1.6978        0.0000        7.2004        7.2004       5.502555       0.01480
  44    0.2165        1.6978        0.0000        7.2003        7.2003       5.502491       0.01451
  43    0.2613        1.6979        0.0000        7.2003        7.2003       5.502416       0.01424
  42    0.3336        1.6979        0.0000        7.2001        7.2001       5.502291       0.01457
  41    0.4307        1.6979        0.0000        7.2000        7.2000       5.502125       0.01441
  40    0.5894        1.6979        0.0000        7.1997        7.1997       5.501854       0.01440
  39     1.339        1.6979        0.0001        7.1984        7.1985       5.500574       0.01441
  38     1.782        1.6979        0.0001        7.1977        7.1978       5.499822       0.01431
  37     2.292        1.6980        0.0001        7.1968        7.1969       5.498952       0.01441
  36     2.964        1.6980        0.0001        7.1957        7.1958       5.497811       0.01433
  35     3.853        1.6981        0.0002        7.1942        7.1944       5.496303       0.01431
  34     5.035        1.6982        0.0002        7.1922        7.1925       5.494302       0.01430
  33     6.613        1.6983        0.0003        7.1896        7.1899       5.491632       0.01428
  32     8.786        1.6984        0.0004        7.1860        7.1864       5.488039       0.01395
  31     11.80        1.6986        0.0005        7.1810        7.1815       5.482910       0.01436
  30     15.07        1.6988        0.0007        7.1755        7.1762       5.477420       0.01418
  29     18.79        1.6990        0.0008        7.1694        7.1703       5.471237       0.01402
  28     23.16        1.6993        0.0010        7.1623        7.1634       5.464044       0.01391
  27     28.12        1.6996        0.0013        7.1542        7.1555       5.455855       0.01392
  26     33.73        1.7000        0.0015        7.1452        7.1467       5.446738       0.01371
  25     40.54        1.7004        0.0018        7.1344        7.1362       5.435790       0.01358
  24     48.69        1.7010        0.0022        7.1215        7.1236       5.422689       0.01356
  23     57.69        1.7015        0.0026        7.1074        7.1100       5.408422       0.01337
  22     68.43        1.7023        0.0030        7.0908        7.0939       5.391596       0.01323
  21     81.20        1.7031        0.0036        7.0713        7.0749       5.371783       0.01309
  20     96.49        1.7041        0.0042        7.0484        7.0526       5.348496       0.01285
  19     114.6        1.7054        0.0050        7.0216        7.0267       5.321289       0.01270
  18     136.5        1.7069        0.0060        6.9905        6.9965       5.289635       0.01217
  17     162.9        1.7087        0.0071        6.9543        6.9614       5.252734       0.01180
  16     196.4        1.7111        0.0085        6.9087        6.9171       5.206097       0.01174
  15     218.7        1.7127        0.0094        6.8793        6.8888       5.176114       0.01138
  14     243.0        1.7144        0.0104        6.8481        6.8585       5.144057       0.01112
  13     269.0        1.7164        0.0115        6.8147        6.8263       5.109851       0.01110
  12     297.5        1.7186        0.0127        6.7793        6.7920       5.073397       0.01081
  11     328.5        1.7211        0.0140        6.7415        6.7555       5.034417       0.01060
  10     361.9        1.7238        0.0153        6.7013        6.7167       4.992861       0.01051
   9     398.1        1.7269        0.0168        6.6584        6.6752       4.948262       0.01039
   8     437.6        1.7304        0.0183        6.6123        6.6307       4.900227       0.01027
   7     480.5        1.7345        0.0200        6.5627        6.5827       4.848165       0.01022
   6     533.0        1.7399        0.0220        6.5008        6.5228       4.782884       0.01050
   5     589.8        1.7463        0.0242        6.4328        6.4570       4.710675       0.01072
   4     651.6        1.7540        0.0265        6.3577        6.3842       4.630258       0.01100
   3     718.7        1.7630        0.0290        6.2752        6.3042       4.541152       0.01120
   2     792.3        1.7736        0.0316        6.1856        6.2172       4.443583       0.01119
   1     891.5        1.7894        0.0350        6.0623        6.0973       4.307894       0.01155
   0    1013.0        1.8113        0.0390        5.9066        5.9456       4.134336       0.01205



 Wavenumbers:  8050. - 12850. cm-1, ATM      1
 LEVEL PRESSURE   UPWARD FLUX   DIFDOWN FLUX  DIRDOWN FLUX  DOWNWARD FLUX   NET FLUX    HEATING RATE
          mb          W/m2          W/m2          W/m2        W/m2          W/m2       degree/day
  51    .06700       23.1886        0.0000      100.8135      100.8135      77.624866       0.00000
  50    .07753       23.1886        0.0000      100.8135      100.8135      77.624866       0.00000
  49    .09103       23.1886        0.0001      100.8134      100.8135      77.624866       0.00000
  48    0.1069       23.1886        0.0001      100.8134      100.8134      77.624866       0.00000
  47    0.1255       23.1885        0.0001      100.8133      100.8134      77.624866       0.00000
  46    0.1487       23.1885        0.0002      100.8132      100.8134      77.624866      -0.00000
  45    0.1794       23.1885        0.0002      100.8131      100.8133      77.624866       0.00000
  44    0.2165       23.1884        0.0003      100.8129      100.8133      77.624866      -0.00000
  43    0.2613       23.1883        0.0004      100.8127      100.8132      77.624866       0.00000
  42    0.3336       23.1882        0.0006      100.8125      100.8130      77.624866      -0.00000
  41    0.4307       23.1880        0.0008      100.8121      100.8129      77.624866       0.00000
  40    0.5894       23.1877        0.0011      100.8115      100.8126      77.624866      -0.00000
  39     1.339       23.1864        0.0028      100.8085      100.8113      77.624866       0.00000
  38     1.782       23.1856        0.0037      100.8068      100.8105      77.624866      -0.00000
  37     2.292       23.1847        0.0049      100.8047      100.8096      77.624866      -0.00000
  36     2.964       23.1836        0.0063      100.8021      100.8084      77.624866       0.00000
  35     3.853       23.1820        0.0083      100.7986      100.8069      77.624866      -0.00000
  34     5.035       23.1799        0.0108      100.7940      100.8048      77.624866       0.00000
  33     6.613       23.1772        0.0143      100.7878      100.8020      77.624866       0.00000
  32     8.786       23.1734        0.0189      100.7794      100.7983      77.624866       0.00000
  31     11.80       23.1681        0.0255      100.7674      100.7930      77.624866       0.00000
  30     15.07       23.1623        0.0327      100.7546      100.7872      77.624866      -0.00000
  29     18.79       23.1558        0.0407      100.7400      100.7807      77.624866       0.00000
  28     23.16       23.1483        0.0501      100.7230      100.7731      77.624866       0.00000
  27     28.12       23.1396        0.0609      100.7035      100.7644      77.624866       0.00000
  26     33.73       23.1298        0.0730      100.6817      100.7547      77.624866      -0.00000
  25     40.54       23.1180        0.0876      100.6552      100.7429      77.624866       0.00000
  24     48.69       23.1038        0.1053      100.6234      100.7287      77.624866      -0.00000
  23     57.69       23.0881        0.1247      100.5883      100.7130      77.624866       0.00000
  22     68.43       23.0695        0.1479      100.5464      100.6943      77.624866       0.00000
  21     81.20       23.0472        0.1755      100.4965      100.6720      77.624866       0.00000
  20     96.49       23.0205        0.2085      100.4370      100.6454      77.624866      -0.00000
  19     114.6       22.9889        0.2477      100.3615      100.6092      77.620242       0.00216
  18     136.5       22.9514        0.2942      100.2708      100.5649      77.613560       0.00257
  17     162.9       22.9066        0.3497      100.1568      100.5065      77.599906       0.00436
  16     196.4       22.8484        0.4218       99.9894      100.4112      77.562866       0.00932
  15     218.7       22.8101        0.4692       99.8556      100.3248      77.514659       0.01830
  14     243.0       22.7685        0.5207       99.6639      100.1846      77.416079       0.03419
  13     269.0       22.7238        0.5763       99.3484       99.9247      77.200897       0.06980
  12     297.5       22.6761        0.6360       98.9073       99.5434      76.867231       0.09896
  11     328.5       22.6257        0.7002       98.3357       99.0359      76.410194       0.12427
  10     361.9       22.5733        0.7686       97.5991       98.3677      75.794382       0.15581
   9     398.1       22.5195        0.8413       96.6494       97.4907      74.971152       0.19179
   8     437.6       22.4662        0.9179       95.4391       96.3570      73.890796       0.23099
   7     480.5       22.4165        0.9976       93.8818       94.8794      72.462947       0.28042
   6     533.0       22.3679        1.0926       91.7394       92.8319      70.464015       0.32156
   5     589.8       22.3341        1.1910       89.2990       90.4900      68.155930       0.34260
   4     651.6       22.3247        1.2924       86.6157       87.9081      65.583386       0.35180
   3     718.7       22.3456        1.3978       83.8590       85.2568      62.911246       0.33581
   2     792.3       22.4017        1.5079       81.1248       82.6327      60.231025       0.30739
   1     891.5       22.5479        1.6510       77.6612       79.3122      56.764234       0.29501
   0    1013.0       22.9062        1.8111       73.6137       75.4248      52.518591       0.29480



 Wavenumbers: 12850. - 16000. cm-1, ATM      1
 LEVEL PRESSURE   UPWARD FLUX   DIFDOWN FLUX  DIRDOWN FLUX  DOWNWARD FLUX   NET FLUX    HEATING RATE
          mb          W/m2          W/m2          W/m2        W/m2          W/m2       degree/day
  51    .06700       31.8991        0.0000       63.1686       63.1686      31.269477       0.00000
  50    .07753       31.8991        0.0001       63.1677       63.1678      31.268698       0.62438
  49    .09103       31.8990        0.0001       63.1666       63.1668      31.267727       0.60672
  48    0.1069       31.8990        0.0002       63.1654       63.1656      31.266622       0.58825
  47    0.1255       31.8990        0.0003       63.1640       63.1643      31.265366       0.56971
  46    0.1487       31.8989        0.0004       63.1623       63.1627      31.263799       0.57115
  45    0.1794       31.8989        0.0006       63.1600       63.1606      31.261698       0.57668
  44    0.2165       31.8988        0.0008       63.1573       63.1581      31.259270       0.55243
  43    0.2613       31.8987        0.0010       63.1542       63.1552      31.256470       0.52780
  42    0.3336       31.8986        0.0014       63.1493       63.1507      31.252010       0.51989
  41    0.4307       31.8986        0.0019       63.1431       63.1450      31.246437       0.48459
  40    0.5894       31.8985        0.0027       63.1338       63.1365      31.238003       0.44851
  39     1.339       31.8993        0.0065       63.0956       63.1020      31.202712       0.39732
  38     1.782       31.9007        0.0087       63.0740       63.0827      31.182026       0.39383
  37     2.292       31.9031        0.0113       63.0477       63.0590      31.155842       0.43367
  36     2.964       31.9075        0.0147       63.0095       63.0242      31.116686       0.49153
  35     3.853       31.9151        0.0192       62.9533       62.9724      31.057304       0.56354
  34     5.035       31.9269        0.0251       62.8725       62.8976      30.970675       0.61884
  33     6.613       31.9436        0.0331       62.7621       62.7951      30.851488       0.63717
  32     8.786       31.9652        0.0437       62.6183       62.6620      30.696792       0.60078
  31     11.80       31.9926        0.0589       62.4284       62.4873      30.494729       0.56571
  30     15.07       32.0180        0.0753       62.2426       62.3179      30.299857       0.50312
  29     18.79       32.0431        0.0936       62.0493       62.1429      30.099787       0.45362
  28     23.16       32.0684        0.1150       61.8425       61.9575      29.889126       0.40735
  27     28.12       32.0924        0.1395       61.6278       61.7673      29.674902       0.36417
  26     33.73       32.1124        0.1668       61.4177       61.5844      29.472066       0.30497
  25     40.54       32.1285        0.1997       61.1983       61.3980      29.269455       0.25136
  24     48.69       32.1402        0.2393       60.9680       61.2073      29.067036       0.20947
  23     57.69       32.1456        0.2827       60.7478       61.0305      28.884944       0.17068
  22     68.43       32.1438        0.3344       60.5202       60.8546      28.710771       0.13692
  21     81.20       32.1306        0.3959       60.2938       60.6898      28.559174       0.10017
  20     96.49       32.1045        0.4692       60.0643       60.5335      28.428956       0.07187
  19     114.6       32.0735        0.5566       59.8078       60.3645      28.290965       0.06443
  18     136.5       32.0322        0.6601       59.5158       60.1759      28.143700       0.05663
  17     162.9       31.9788        0.7829       59.1773       59.9602      27.981401       0.05188
  16     196.4       31.9008        0.9417       58.7611       59.7028      27.802029       0.04515
  15     218.7       31.8464        1.0457       58.4960       59.5417      27.695370       0.04049
  14     243.0       31.7858        1.1585       58.2112       59.3698      27.583926       0.03865
  13     269.0       31.7189        1.2805       57.9057       59.1862      27.467265       0.03784
  12     297.5       31.6456        1.4120       57.5775       58.9894      27.343787       0.03662
  11     328.5       31.5664        1.5536       57.2211       58.7747      27.208236       0.03686
  10     361.9       31.4817        1.7056       56.8331       58.5387      27.057033       0.03826
   9     398.1       31.3915        1.8687       56.4088       58.2775      26.885943       0.03986
   8     437.6       31.2970        2.0430       55.9402       57.9832      26.686201       0.04271
   7     480.5       31.1998        2.2288       55.4154       57.6442      26.444360       0.04750
   6     533.0       31.0873        2.4558       54.7372       57.1930      26.105736       0.05447
   5     589.8       30.9765        2.6982       53.9702       56.6685      25.691960       0.06142
   4     651.6       30.8725        2.9558       53.1052       56.0610      25.188497       0.06885
   3     718.7       30.7754        3.2283       52.1684       55.3967      24.621314       0.07128
   2     792.3       30.6874        3.5158       51.1777       54.6934      24.006062       0.07056
   1     891.5       30.6005        3.8962       49.8554       53.7516      23.151093       0.07275
   0    1013.0       30.5627        4.3402       48.2630       52.6032      22.040525       0.07711



 Wavenumbers: 16000. - 22650. cm-1, ATM      1
 LEVEL PRESSURE   UPWARD FLUX   DIFDOWN FLUX  DIRDOWN FLUX  DOWNWARD FLUX   NET FLUX    HEATING RATE
          mb          W/m2          W/m2          W/m2        W/m2          W/m2       degree/day
  51    .06700       73.7494        0.0000      100.7153      100.7153      26.965932       0.00000
  50    .07753       73.7492        0.0003      100.7147      100.7151      26.965815       0.09328
  49    .09103       73.7491        0.0007      100.7140      100.7147      26.965646       0.10580
  48    0.1069       73.7489        0.0012      100.7131      100.7143      26.965420       0.12065
  47    0.1255       73.7487        0.0017      100.7121      100.7138      26.965116       0.13752
  46    0.1487       73.7485        0.0024      100.7108      100.7132      26.964669       0.16296
  45    0.1794       73.7483        0.0033      100.7089      100.7122      26.963970       0.19187
  44    0.2165       73.7480        0.0044      100.7066      100.7110      26.963022       0.21564
  43    0.2613       73.7477        0.0057      100.7037      100.7094      26.961736       0.24242
  42    0.3336       73.7473        0.0079      100.6987      100.7066      26.959291       0.28508
  41    0.4307       73.7469        0.0107      100.6918      100.7025      26.955605       0.32045
  40    0.5894       73.7466        0.0154      100.6797      100.6952      26.948577       0.37378
  39     1.339       73.7503        0.0375      100.6095      100.6470      26.896658       0.58451
  38     1.782       73.7564        0.0504      100.5585      100.6089      26.852443       0.84178
  37     2.292       73.7672        0.0654      100.4903      100.5556      26.788463       1.05968
  36     2.964       73.7869        0.0850      100.3868      100.4718      26.684864       1.30048
  35     3.853       73.8210        0.1110      100.2306      100.3416      26.520599       1.55891
  34     5.035       73.8740        0.1454      100.0045      100.1498      26.275800       1.74874
  33     6.613       73.9490        0.1912       99.6939       99.8851      25.936138       1.81584
  32     8.786       74.0458        0.2529       99.2881       99.5409      25.495090       1.71287
  31     11.80       74.1691        0.3407       98.7496       99.0903      24.921226       1.60664
  30     15.07       74.2837        0.4348       98.2198       98.6546      24.370898       1.42084
  29     18.79       74.3971        0.5406       97.6651       98.2057      23.808623       1.27485
  28     23.16       74.5111        0.6637       97.0671       97.7309      23.219759       1.13867
  27     28.12       74.6200        0.8040       96.4406       97.2446      22.624614       1.01171
  26     33.73       74.7108        0.9605       95.8179       96.7784      22.067532       0.83759
  25     40.54       74.7849        1.1489       95.1548       96.3037      21.518850       0.68070
  24     48.69       74.8394        1.3751       94.4420       95.8170      20.977612       0.56010
  23     57.69       74.8660        1.6225       93.7416       95.3641      20.498133       0.44944
  22     68.43       74.8617        1.9160       92.9954       94.9113      20.049633       0.35258
  21     81.20       74.8074        2.2642       92.2231       94.4873      19.679940       0.24429
  20     96.49       74.6973        2.6772       91.4110       94.0882      19.390837       0.15956
  19     114.6       74.5443        3.1641       90.5070       93.6711      19.126871       0.12325
  18     136.5       74.3484        3.7363       89.4803       93.2166      18.868206       0.09946
  17     162.9       74.1029        4.4109       88.3023       92.7131      18.610230       0.08246
  16     196.4       73.7567        5.2753       86.8607       92.1361      18.379386       0.05811
  15     218.7       73.5200        5.8368       85.9494       91.7862      18.266219       0.04297
  14     243.0       73.2592        6.4415       84.9793       91.4208      18.161582       0.03629
  13     269.0       72.9733        7.0902       83.9502       91.0404      18.067151       0.03063
  12     297.5       72.6614        7.7839       82.8608       90.6447      17.983244       0.02489
  11     328.5       72.3248        8.5248       81.7018       90.2266      17.901721       0.02217
  10     361.9       71.9634        9.3126       80.4733       89.7859      17.822444       0.02006
   9     398.1       71.5762       10.1492       79.1717       89.3209      17.744671       0.01812
   8     437.6       71.1635       11.0348       77.7947       88.8294      17.665897       0.01684
   7     480.5       70.7252       11.9695       76.3402       88.3097      17.584474       0.01599
   6     533.0       70.1923       13.1000       74.5780       87.6780      17.485654       0.01590
   5     589.8       69.6272       14.2939       72.7102       87.0042      17.377000       0.01613
   4     651.6       69.0312       15.5494       70.7364       86.2857      17.254509       0.01675
   3     718.7       68.4047       16.8641       68.6599       85.5240      17.119325       0.01699
   2     792.3       67.7497       18.2333       66.4879       84.7212      16.971573       0.01695
   1     891.5       66.8934       20.0182       63.6361       83.6544      16.760990       0.01792
   0    1013.0       65.9089       22.0690       60.3244       82.3934      16.484554       0.01919



 Wavenumbers: 22650. - 29000. cm-1, ATM      1
 LEVEL PRESSURE   UPWARD FLUX   DIFDOWN FLUX  DIRDOWN FLUX  DOWNWARD FLUX   NET FLUX    HEATING RATE
          mb          W/m2          W/m2          W/m2        W/m2          W/m2       degree/day
  51    .06700       32.0549        0.0000       38.0063       38.0063       5.951343       0.00000
  50    .07753       32.0548        0.0004       38.0057       38.0061       5.951343       0.00000
  49    .09103       32.0546        0.0009       38.0050       38.0059       5.951343       0.00000
  48    0.1069       32.0543        0.0014       38.0042       38.0056       5.951343       0.00000
  47    0.1255       32.0540        0.0020       38.0033       38.0054       5.951343       0.00000
  46    0.1487       32.0537        0.0028       38.0022       38.0050       5.951343       0.00000
  45    0.1794       32.0532        0.0039       38.0006       38.0045       5.951343       0.00000
  44    0.2165       32.0526        0.0052       37.9987       38.0039       5.951343      -0.00000
  43    0.2613       32.0519        0.0067       37.9965       38.0032       5.951343       0.00000
  42    0.3336       32.0507        0.0092       37.9928       38.0021       5.951343       0.00000
  41    0.4307       32.0492        0.0125       37.9880       38.0005       5.951343      -0.00000
  40    0.5894       32.0467        0.0180       37.9800       37.9980       5.951343       0.00000
  39     1.339       32.0349        0.0437       37.9425       37.9862       5.951343       0.00000
  38     1.782       32.0279        0.0588       37.9204       37.9793       5.951343       0.00000
  37     2.292       32.0199        0.0763       37.8949       37.9712       5.951343       0.00000
  36     2.964       32.0094        0.0993       37.8614       37.9607       5.951343       0.00000
  35     3.853       31.9954        0.1296       37.8172       37.9468       5.951343       0.00000
  34     5.035       31.9770        0.1697       37.7586       37.9283       5.951343       0.00000
  33     6.613       31.9523        0.2234       37.6803       37.9037       5.951343      -0.00000
  32     8.786       31.9192        0.2955       37.5750       37.8705       5.951343       0.00000
  31     11.80       31.8718        0.3983       37.4249       37.8232       5.951343      -0.00000
  30     15.07       31.8212        0.5083       37.2642       37.7725       5.951343       0.00000
  29     18.79       31.7641        0.6321       37.0833       37.7154       5.951343       0.00000
  28     23.16       31.6977        0.7761       36.8730       37.6491       5.951343       0.00000
  27     28.12       31.6221        0.9397       36.6338       37.5735       5.951343      -0.00000
  26     33.73       31.5380        1.1217       36.3677       37.4894       5.951343      -0.00000
  25     40.54       31.4370        1.3398       36.0486       37.3884       5.951343       0.00000
  24     48.69       31.3162        1.6003       35.6672       37.2675       5.951343       0.00000
  23     57.69       31.1846        1.8833       35.2527       37.1360       5.951343       0.00000
  22     68.43       31.0296        2.2160       34.7649       36.9810       5.951343       0.00000
  21     81.20       30.8472        2.6063       34.1922       36.7986       5.951343       0.00000
  20     96.49       30.6332        3.0628       33.5218       36.5846       5.951343      -0.00000
  19     114.6       30.3837        3.5927       32.7424       36.3351       5.951343      -0.00000
  18     136.5       30.0944        4.2041       31.8416       36.0457       5.951343       0.00000
  17     162.9       29.7586        4.9091       30.8008       35.7099       5.951343       0.00000
  16     196.4       29.3369        5.7875       29.5007       35.2882       5.951343      -0.00000
  15     218.7       29.0682        6.3428       28.6767       35.0195       5.951343      -0.00000
  14     243.0       28.7832        6.9277       27.8068       34.7345       5.951343       0.00000
  13     269.0       28.4824        7.5403       26.8935       34.4338       5.951343      -0.00000
  12     297.5       28.1666        8.1784       25.9395       34.1179       5.951343       0.00000
  11     328.5       27.8353        8.8412       24.9455       33.7867       5.951343      -0.00000
  10     361.9       27.4901        9.5247       23.9167       33.4414       5.951343       0.00000
   9     398.1       27.1311       10.2273       22.8551       33.0824       5.951343      -0.00000
   8     437.6       26.7596       10.9443       21.7666       32.7109       5.951343       0.00000
   7     480.5       26.3764       11.6728       20.6549       32.3277       5.951343       0.00000
   6     533.0       25.9253       12.5145       19.3621       31.8766       5.951343      -0.00000
   5     589.8       25.4620       13.3600       18.0534       31.4133       5.951343      -0.00000
   4     651.6       24.9890       14.2011       16.7392       30.9403       5.951343       0.00000
   3     718.7       24.5091       15.0287       15.4318       30.4604       5.951343      -0.00000
   2     792.3       24.0247       15.8350       14.1411       29.9761       5.951343       0.00000
   1     891.5       23.4156       16.8022       12.5647       29.3669       5.951343      -0.00000
   0    1013.0       22.7431       17.8016       10.8928       28.6944       5.951343       0.00000



 Wavenumbers: 29000. - 38000. cm-1, ATM      1
 LEVEL PRESSURE   UPWARD FLUX   DIFDOWN FLUX  DIRDOWN FLUX  DOWNWARD FLUX   NET FLUX    HEATING RATE
          mb          W/m2          W/m2          W/m2        W/m2          W/m2       degree/day
  51    .06700        4.7043        0.0000       13.4026       13.4026       8.698283       0.00000
  50    .07753        4.7041        0.0003       13.3983       13.3986       8.694485       3.04421
  49    .09103        4.7038        0.0007       13.3921       13.3928       8.688966       3.44947
  48    0.1069        4.7035        0.0011       13.3840       13.3851       8.681590       3.92653
  47    0.1255        4.7032        0.0016       13.3733       13.3749       8.671746       4.46291
  46    0.1487        4.7027        0.0022       13.3579       13.3600       8.657304       5.26406
  45    0.1794        4.7022        0.0030       13.3340       13.3371       8.634906       6.14888
  44    0.2165        4.7015        0.0040       13.3024       13.3064       8.604889       6.82832
  43    0.2613        4.7007        0.0051       13.2604       13.2655       8.564837       7.54960
  42    0.3336        4.6995        0.0070       13.1833       13.1903       8.490836       8.62781
  41    0.4307        4.6979        0.0095       13.0729       13.0824       8.384472       9.24810
  40    0.5894        4.6955        0.0133       12.8796       12.8929       8.197445       9.94587
  39     1.339        4.6868        0.0295       11.9165       11.9460       7.259228      10.56262
  38     1.782        4.6833        0.0378       11.4399       11.4777       6.794350       8.85053
  37     2.292        4.6806        0.0466       10.9796       11.0262       6.345563       7.43308
  36     2.964        4.6789        0.0574       10.4786       10.5361       5.857161       6.13092
  35     3.853        4.6791        0.0708        9.9429       10.0137       5.334659       4.95865
  34     5.035        4.6818        0.0875        9.4007        9.4882       4.806444       3.77335
  33     6.613        4.6871        0.1087        8.8752        8.9839       4.296761       2.72477
  32     8.786        4.6946        0.1360        8.3786        8.5145       3.819943       1.85179
  31     11.80        4.7036        0.1734        7.8897        8.0630       3.359481       1.28915
  30     15.07        4.7111        0.2120        7.5108        7.7228       3.011722       0.89785
  29     18.79        4.7178        0.2540        7.1776        7.4317       2.713838       0.67539
  28     23.16        4.7237        0.3014        6.8664        7.1678       2.444147       0.52150
  27     28.12        4.7279        0.3537        6.5780        6.9317       2.203840       0.40851
  26     33.73        4.7281        0.4106        6.3195        6.7301       2.002002       0.30347
  25     40.54        4.7231        0.4778        6.0663        6.5441       1.820993       0.22456
  24     48.69        4.7122        0.5565        5.8128        6.3693       1.657125       0.16958
  23     57.69        4.6956        0.6404        5.5777        6.2181       1.522487       0.12620
  22     68.43        4.6709        0.7375        5.3379        6.0753       1.404478       0.09277
  21     81.20        4.6338        0.8500        5.0965        5.9465       1.312694       0.06065
  20     96.49        4.5832        0.9799        4.8476        5.8276       1.244396       0.03770
  19     114.6        4.5219        1.1270        4.5799        5.7069       1.184993       0.02774
  18     136.5        4.4509        1.2912        4.2891        5.5802       1.129366       0.02139
  17     162.9        4.3697        1.4729        3.9732        5.4461       1.076392       0.01693
  16     196.4        4.2670        1.6902        3.6080        5.2982       1.031170       0.01138
  15     218.7        4.2022        1.8221        3.3898        5.2119       1.009668       0.00816
  14     243.0        4.1348        1.9564        3.1686        5.1250       0.990183       0.00676
  13     269.0        4.0649        2.0918        2.9461        5.0379       0.973016       0.00557
  12     297.5        3.9930        2.2273        2.7239        4.9512       0.958181       0.00440
  11     328.5        3.9199        2.3613        2.5029        4.8642       0.944266       0.00378
  10     361.9        3.8460        2.4927        2.2846        4.7772       0.931290       0.00328
   9     398.1        3.7716        2.6201        2.0708        4.6908       0.919246       0.00281
   8     437.6        3.6973        2.7421        1.8631        4.6052       0.907879       0.00243
   7     480.5        3.6233        2.8580        1.6626        4.5206       0.897306       0.00208
   6     533.0        3.5396        2.9811        1.4445        4.4256       0.886031       0.00181
   5     589.8        3.4574        3.0927        1.2401        4.3328       0.875365       0.00158
   4     651.6        3.3773        3.1911        1.0513        4.2425       0.865164       0.00140
   3     718.7        3.2994        3.2756        0.8793        4.1548       0.855391       0.00123
   2     792.3        3.2241        3.3449        0.7253        4.0702       0.846029       0.00107
   1     891.5        3.1334        3.4101        0.5580        3.9681       0.834741       0.00096
   0    1013.0        3.0374        3.4542        0.4057        3.8600       0.822615       0.00084



 Wavenumbers: 38000. - 50000. cm-1, ATM      1
 LEVEL PRESSURE   UPWARD FLUX   DIFDOWN FLUX  DIRDOWN FLUX  DOWNWARD FLUX   NET FLUX    HEATING RATE
          mb          W/m2          W/m2          W/m2        W/m2          W/m2       degree/day
  51    .06700        0.0051        0.0000        0.8267        0.8267       0.821528       0.00000
  50    .07753        0.0051        0.0001        0.8242        0.8243       0.819196       1.86936
  49    .09103        0.0050        0.0002        0.8207        0.8209       0.815872       2.07705
  48    0.1069        0.0049        0.0002        0.8162        0.8164       0.811514       2.31984
  47    0.1255        0.0048        0.0004        0.8103        0.8106       0.805801       2.59006
  46    0.1487        0.0047        0.0005        0.8018        0.8023       0.797567       3.00143
  45    0.1794        0.0045        0.0007        0.7889        0.7896       0.785013       3.44648
  44    0.2165        0.0044        0.0009        0.7720        0.7729       0.768507       3.75474
  43    0.2613        0.0042        0.0011        0.7500        0.7511       0.746955       4.06246
  42    0.3336        0.0039        0.0015        0.7106        0.7121       0.708267       4.51071
  41    0.4307        0.0035        0.0019        0.6566        0.6584       0.654972       4.63387
  40    0.5894        0.0029        0.0024        0.5680        0.5704       0.567464       4.65357
  39     1.339        0.0015        0.0030        0.2422        0.2452       0.243720       3.64476
  38     1.782        0.0010        0.0026        0.1493        0.1519       0.150889       1.76735
  37     2.292        0.0007        0.0022        0.0924        0.0946       0.093932       0.94336
  36     2.964        0.0005        0.0018        0.0539        0.0557       0.055224       0.48589
  35     3.853        0.0003        0.0013        0.0295        0.0308       0.030502       0.23462
  34     5.035        0.0002        0.0010        0.0154        0.0164       0.016181       0.10230
  33     6.613        0.0001        0.0007        0.0073        0.0080       0.007912       0.04420
  32     8.786        0.0000        0.0004        0.0030        0.0034       0.003390       0.01756
  31     11.80        0.0000        0.0003        0.0010        0.0012       0.001199       0.00613
  30     15.07        0.0000        0.0001        0.0003        0.0005       0.000463       0.00190
  29     18.79        0.0000        0.0001        0.0001        0.0002       0.000182       0.00064
  28     23.16        0.0000        0.0000        0.0000        0.0001       0.000071       0.00022
  27     28.12        0.0000        0.0000        0.0000        0.0000       0.000028       0.00007
  26     33.73        0.0000        0.0000        0.0000        0.0000       0.000011       0.00002
  25     40.54        0.0000        0.0000        0.0000        0.0000       0.000005       0.00001
  24     48.69        0.0000        0.0000        0.0000        0.0000       0.000002       0.00000
  23     57.69        0.0000        0.0000        0.0000        0.0000       0.000001       0.00000
  22     68.43        0.0000        0.0000        0.0000        0.0000       0.000000       0.00000
  21     81.20        0.0000        0.0000        0.0000        0.0000       0.000000       0.00000
  20     96.49        0.0000        0.0000        0.0000        0.0000       0.000000       0.00000
  19     114.6        0.0000        0.0000        0.0000        0.0000       0.000000       0.00000
  18     136.5        0.0000        0.0000        0.0000        0.0000       0.000000       0.00000
  17     162.9        0.0000        0.0000        0.0000        0.0000       0.000000       0.00000
  16     196.4        0.0000        0.0000        0.0000        0.0000       0.000000       0.00000
  15     218.7        0.0000        0.0000        0.0000        0.0000       0.000000       0.00000
  14     243.0        0.0000        0.0000        0.0000        0.0000       0.000000       0.00000
  13     269.0        0.0000        0.0000        0.0000        0.0000       0.000000       0.00000
  12     297.5        0.0000        0.0000        0.0000        0.0000       0.000000       0.00000
  11     328.5        0.0000        0.0000        0.0000        0.0000       0.000000       0.00000
  10     361.9        0.0000        0.0000        0.0000        0.0000       0.000000       0.00000
   9     398.1        0.0000        0.0000        0.0000        0.0000       0.000000       0.00000
   8     437.6        0.0000        0.0000        0.0000        0.0000       0.000000       0.00000
   7     480.5        0.0000        0.0000        0.0000        0.0000       0.000000       0.00000
   6     533.0        0.0000        0.0000        0.0000        0.0000       0.000000       0.00000
   5     589.8        0.0000        0.0000        0.0000        0.0000       0.000000       0.00000
   4     651.6        0.0000        0.0000        0.0000        0.0000       0.000000       0.00000
   3     718.7        0.0000        0.0000        0.0000        0.0000       0.000000       0.00000
   2     792.3        0.0000        0.0000        0.0000        0.0000       0.000000       0.00000
   1     891.5        0.0000        0.0000        0.0000        0.0000       0.000000       0.00000
   0    1013.0        0.0000        0.0000        0.0000        0.0000       0.000000       0.00000



 Wavenumbers:   820. -  2600. cm-1, ATM      1
 LEVEL PRESSURE   UPWARD FLUX   DIFDOWN FLUX  DIRDOWN FLUX  DOWNWARD FLUX   NET FLUX    HEATING RATE
          mb          W/m2          W/m2          W/m2        W/m2          W/m2       degree/day
  51    .06700        0.2940        0.0000        3.8670        3.8670       3.573009       0.00000
  50    .07753        0.2940        0.0000        3.8643        3.8643       3.570318       2.15713
  49    .09103        0.2940        0.0000        3.8636        3.8636       3.569541       0.48543
  48    0.1069        0.2940        0.0000        3.8627        3.8627       3.568691       0.45282
  47    0.1255        0.2940        0.0000        3.8618        3.8618       3.567778       0.41392
  46    0.1487        0.2940        0.0000        3.8607        3.8607       3.566731       0.38152
  45    0.1794        0.2940        0.0000        3.8595        3.8595       3.565485       0.34206
  44    0.2165        0.2940        0.0000        3.8582        3.8582       3.564216       0.28857
  43    0.2613        0.2940        0.0000        3.8569        3.8569       3.562890       0.25002
  42    0.3336        0.2940        0.0000        3.8549        3.8549       3.560887       0.23355
  41    0.4307        0.2940        0.0000        3.8523        3.8523       3.558316       0.22352
  40    0.5894        0.2940        0.0000        3.8481        3.8481       3.554108       0.22376
  39     1.339        0.2940        0.0000        3.8292        3.8292       3.535167       0.21324
  38     1.782        0.2940        0.0000        3.8187        3.8187       3.524702       0.19923
  37     2.292        0.2940        0.0000        3.8071        3.8071       3.513098       0.19219
  36     2.964        0.2940        0.0000        3.7927        3.7927       3.498715       0.18055
  35     3.853        0.2940        0.0000        3.7748        3.7748       3.480758       0.17042
  34     5.035        0.2940        0.0000        3.7522        3.7522       3.458139       0.16158
  33     6.613        0.2940        0.0000        3.7235        3.7235       3.429450       0.15337
  32     8.786        0.2940        0.0000        3.6883        3.6883       3.394318       0.13644
  31     11.80        0.2940        0.0000        3.6484        3.6484       3.354381       0.11181
  30     15.07        0.2940        0.0000        3.6186        3.6186       3.324583       0.07693
  29     18.79        0.2940        0.0000        3.5961        3.5961       3.302085       0.05101
  28     23.16        0.2940        0.0000        3.5773        3.5773       3.283253       0.03641
  27     28.12        0.2940        0.0000        3.5591        3.5591       3.265040       0.03096
  26     33.73        0.2940        0.0000        3.5397        3.5397       3.245675       0.02912
  25     40.54        0.2940        0.0000        3.5168        3.5168       3.222803       0.02838
  24     48.69        0.2940        0.0000        3.4898        3.4898       3.195793       0.02795
  23     57.69        0.2941        0.0000        3.4610        3.4610       3.166965       0.02702
  22     68.43        0.2941        0.0000        3.4281        3.4281       3.133990       0.02592
  21     81.20        0.2941        0.0000        3.3911        3.3911       3.097018       0.02443
  20     96.49        0.2941        0.0000        3.3497        3.3498       3.055664       0.02282
  19     114.6        0.2941        0.0000        3.3038        3.3038       3.009713       0.02146
  18     136.5        0.2941        0.0000        3.2513        3.2514       2.957210       0.02019
  17     162.9        0.2942        0.0000        3.1847        3.1847       2.890483       0.02133
  16     196.4        0.2943        0.0000        3.0893        3.0893       2.795031       0.02403
  15     218.7        0.2943        0.0000        3.0286        3.0286       2.734283       0.02306
  14     243.0        0.2944        0.0000        2.9548        2.9548       2.660407       0.02562
  13     269.0        0.2946        0.0000        2.8556        2.8556       2.561030       0.03224
  12     297.5        0.2948        0.0000        2.7275        2.7276       2.432759       0.03804
  11     328.5        0.2952        0.0000        2.5555        2.5555       2.260362       0.04687
  10     361.9        0.2957        0.0000        2.3536        2.3536       2.057935       0.05122
   9     398.1        0.2964        0.0000        2.1682        2.1682       1.871832       0.04336
   8     437.6        0.2974        0.0000        2.0282        2.0282       1.730784       0.03016
   7     480.5        0.2988        0.0000        1.9242        1.9242       1.625464       0.02068
   6     533.0        0.3009        0.0000        1.8140        1.8140       1.513094       0.01808
   5     589.8        0.3039        0.0000        1.6965        1.6965       1.392566       0.01789
   4     651.6        0.3082        0.0000        1.5774        1.5775       1.269254       0.01686
   3     718.7        0.3138        0.0000        1.4718        1.4719       1.158076       0.01397
   2     792.3        0.3206        0.0000        1.3829        1.3829       1.062276       0.01099
   1     891.5        0.3318        0.0000        1.2803        1.2804       0.948569       0.00968
   0    1013.0        0.3513        0.0000        1.1519        1.1520       0.800620       0.01027

  Modules and versions used in this calculation:

       rrtmg_sw.1col.f90:  $Revision$                    rrtmg_sw_init.f90:  $Revision$        
     rrtmgsw_cldprop.f90:  $Revision$                  rrtmgsw_cldprmc.f90:  NOT USED          
     rrtmg_sw_reftra.f90:  $Revision$                  rrtmg_sw_spcvrt.f90:  NOT USED          
     rrtmg_sw_spcvmc.f90:  NOT USED                    rrtmgsw_setcoef.f90:  NOT USED          
     rrtmg_sw_taumol.f90:  $Revision$                  rrtmg_sw_vrtqdr.f90:  NOT USED          
                rrtatm.f:  NOT USED                             util_xxx.f:  NOT USED          
                 extra.f:  NOT USED                       rrtmg_sw_k_g.f90:  $Revision$        

