

 Wavenumbers:   820. - 50000. cm-1, ATM      1
 LEVEL PRESSURE   UPWARD FLUX   DIFDOWN FLUX  DIRDOWN FLUX  DOWNWARD FLUX   NET FLUX    HEATING RATE
          mb          W/m2          W/m2          W/m2        W/m2          W/m2       degree/day
  51    .06700      177.1215        0.0000      397.8738      397.8738     220.752317       0.00000
  50    .07753      177.1208        0.0011      397.8579      397.8590     220.738176      11.33402
  49    .09103      177.1201        0.0026      397.8421      397.8447     220.724672       8.44020
  48    0.1069      177.1192        0.0042      397.8235      397.8277     220.708527       8.59403
  47    0.1255      177.1182        0.0061      397.8004      397.8065     220.688313       9.16433
  46    0.1487      177.1170        0.0085      397.7686      397.7771     220.660141      10.26868
  45    0.1794      177.1154        0.0118      397.7218      397.7336     220.618242      11.50235
  44    0.2165      177.1135        0.0156      397.6620      397.6776     220.564073      12.32259
  43    0.2613      177.1114        0.0202      397.5851      397.6053     220.493867      13.23344
  42    0.3336      177.1081        0.0276      397.4480      397.4756     220.367454      14.73859
  41    0.4307      177.1040        0.0374      397.2566      397.2940     220.189992      15.42992
  40    0.5894      177.0978        0.0531      396.9314      396.9844     219.886591      16.13444
  39     1.339      177.0792        0.1232      395.4391      395.5623     218.483140      15.80031
  38     1.782      177.0751        0.1625      394.7467      394.9091     217.834011      12.35838
  37     2.292      177.0764        0.2072      394.0796      394.2868     217.210330      10.32979
  36     2.964      177.0871        0.2651      393.3289      393.5940     216.506947       8.82957
  35     3.853      177.1135        0.3409      392.4671      392.8080     215.694563       7.70968
  34     5.035      177.1608        0.4406      391.4880      391.9286     214.767860       6.61998
  33     6.613      177.2308        0.5726      390.3807      390.9533     213.722537       5.58830
  32     8.786      177.3204        0.7492      389.1276      389.8767     212.556360       4.52901
  31     11.80      177.4282        0.9997      387.6286      388.6283     211.200019       3.79733
  30     15.07      177.5202        1.2663      386.2469      387.5132     209.993060       3.11613
  29     18.79      177.6028        1.5651      384.8548      386.4200     208.817184       2.66607
  28     23.16      177.6748        1.9113      383.3877      385.2990     207.624194       2.30686
  27     28.12      177.7285        2.3038      381.8669      384.1707     206.442153       2.00939
  26     33.73      177.7466        2.7397      380.3469      383.0865     205.339928       1.65722
  25     40.54      177.7198        3.2623      378.7027      381.9650     204.245246       1.35808
  24     48.69      177.6409        3.8866      376.9026      380.7892     203.148349       1.13512
  23     57.69      177.5097        4.5657      375.0929      379.6586     202.148910       0.93682
  22     68.43      177.3058        5.3660      373.1124      378.4784     201.172587       0.76752
  21     81.20      176.9970        6.3089      370.9771      377.2860     200.288948       0.58390
  20     96.49      176.5700        7.4177      368.6480      376.0657     199.495695       0.43782
  19     114.6      176.0435        8.7120      366.0187      374.7307     198.687165       0.37753
  18     136.5      175.4086       10.2142      363.0275      373.2417     197.833147       0.32839
  17     162.9      174.6482       11.9591      359.5580      371.5170     196.868863       0.30822
  16     196.4      173.6419       14.1570      355.1482      369.3052     195.663331       0.30345
  15     218.7      172.9795       15.5615      352.2149      367.7765     194.796918       0.32894
  14     243.0      172.2651       17.0544      348.8513      365.9057     193.640564       0.40106
  13     269.0      171.4984       18.6337      344.6897      363.3234     191.825032       0.58895
  12     297.5      170.6802       20.2971      339.8024      360.0995     189.419319       0.71351
  11     328.5      169.8133       22.0456      334.2937      356.3394     186.526058       0.78667
  10     361.9      168.9009       23.8740      328.1992      352.0733     183.172420       0.84850
   9     398.1      167.9438       25.7817      321.5314      347.3131     179.369278       0.88605
   8     437.6      166.9478       27.7627      314.3089      342.0716     175.123785       0.90771
   7     480.5      165.9202       29.8130      306.4671      336.2801     170.359903       0.93561
   6     533.0      164.7156       32.2371      297.0871      329.3242     164.608680       0.92519
   5     589.8      163.4958       34.7351      287.4653      322.2004     158.704621       0.87636
   4     651.6      162.2851       37.2953      277.6457      314.9410     152.655970       0.82717
   3     718.7      161.0966       39.9100      267.9489      307.8589     146.762376       0.74066
   2     792.3      159.9457       42.5635      258.4961      301.0596     141.113948       0.64781
   1     891.5      158.6159       45.9214      246.7249      292.6463     134.030369       0.60278
   0    1013.0      157.4930       49.6411      233.3755      283.0166     125.523663       0.59066



 Wavenumbers:  2600. -  3250. cm-1, ATM      1
 LEVEL PRESSURE   UPWARD FLUX   DIFDOWN FLUX  DIRDOWN FLUX  DOWNWARD FLUX   NET FLUX    HEATING RATE
          mb          W/m2          W/m2          W/m2        W/m2          W/m2       degree/day
  51    .06700        0.3657        0.0000        3.5066        3.5066       3.140939       0.00000
  50    .07753        0.3657        0.0000        3.5066        3.5066       3.140931       0.00640
  49    .09103        0.3657        0.0000        3.5066        3.5066       3.140921       0.00627
  48    0.1069        0.3657        0.0000        3.5066        3.5066       3.140910       0.00613
  47    0.1255        0.3657        0.0000        3.5066        3.5066       3.140896       0.00599
  46    0.1487        0.3657        0.0000        3.5066        3.5066       3.140880       0.00607
  45    0.1794        0.3657        0.0000        3.5065        3.5065       3.140857       0.00624
  44    0.2165        0.3657        0.0000        3.5065        3.5065       3.140830       0.00611
  43    0.2613        0.3657        0.0000        3.5065        3.5065       3.140798       0.00598
  42    0.3336        0.3657        0.0000        3.5064        3.5064       3.140746       0.00615
  41    0.4307        0.3657        0.0000        3.5064        3.5064       3.140675       0.00618
  40    0.5894        0.3657        0.0000        3.5062        3.5062       3.140556       0.00633
  39     1.339        0.3657        0.0000        3.5055        3.5055       3.139857       0.00787
  38     1.782        0.3657        0.0000        3.5050        3.5050       3.139326       0.01011
  37     2.292        0.3657        0.0000        3.5043        3.5043       3.138633       0.01147
  36     2.964        0.3657        0.0000        3.5033        3.5033       3.137642       0.01245
  35     3.853        0.3657        0.0000        3.5019        3.5019       3.136265       0.01307
  34     5.035        0.3657        0.0000        3.5001        3.5001       3.134404       0.01329
  33     6.613        0.3657        0.0000        3.4977        3.4977       3.131994       0.01288
  32     8.786        0.3657        0.0000        3.4947        3.4947       3.129023       0.01154
  31     11.80        0.3657        0.0000        3.4911        3.4911       3.125388       0.01018
  30     15.07        0.3657        0.0000        3.4878        3.4878       3.122167       0.00832
  29     18.79        0.3657        0.0000        3.4848        3.4848       3.119103       0.00695
  28     23.16        0.3657        0.0000        3.4816        3.4816       3.115883       0.00623
  27     28.12        0.3657        0.0000        3.4779        3.4779       3.112264       0.00615
  26     33.73        0.3657        0.0000        3.4735        3.4735       3.107797       0.00672
  25     40.54        0.3657        0.0000        3.4671        3.4671       3.101470       0.00785
  24     48.69        0.3657        0.0000        3.4582        3.4583       3.092573       0.00921
  23     57.69        0.3657        0.0000        3.4472        3.4472       3.081523       0.01036
  22     68.43        0.3657        0.0000        3.4329        3.4329       3.067259       0.01121
  21     81.20        0.3657        0.0000        3.4152        3.4152       3.049525       0.01172
  20     96.49        0.3657        0.0000        3.3940        3.3941       3.028373       0.01167
  19     114.6        0.3657        0.0000        3.3696        3.3696       3.003870       0.01144
  18     136.5        0.3658        0.0001        3.3428        3.3428       2.977092       0.01030
  17     162.9        0.3658        0.0001        3.3145        3.3146       2.948769       0.00905
  16     196.4        0.3659        0.0001        3.2829        3.2830       2.917090       0.00797
  15     218.7        0.3659        0.0001        3.2638        3.2639       2.897971       0.00726
  14     243.0        0.3661        0.0001        3.2422        3.2423       2.876269       0.00753
  13     269.0        0.3662        0.0001        3.2143        3.2144       2.848207       0.00910
  12     297.5        0.3665        0.0001        3.1784        3.1785       2.811976       0.01075
  11     328.5        0.3669        0.0001        3.1305        3.1306       2.763654       0.01314
  10     361.9        0.3675        0.0001        3.0661        3.0662       2.698673       0.01644
   9     398.1        0.3683        0.0001        2.9821        2.9823       2.613941       0.01974
   8     437.6        0.3695        0.0001        2.8751        2.8752       2.505735       0.02313
   7     480.5        0.3711        0.0002        2.7413        2.7414       2.370286       0.02660
   6     533.0        0.3738        0.0002        2.5707        2.5709       2.197032       0.02787
   5     589.8        0.3777        0.0002        2.3942        2.3944       2.016674       0.02677
   4     651.6        0.3833        0.0002        2.2148        2.2150       1.831682       0.02530
   3     718.7        0.3908        0.0002        2.0406        2.0408       1.649998       0.02283
   2     792.3        0.4004        0.0002        1.8738        1.8740       1.473637       0.02023
   1     891.5        0.4167        0.0002        1.6744        1.6746       1.257913       0.01836
   0    1013.0        0.4454        0.0002        1.4603        1.4605       1.015073       0.01686



 Wavenumbers:  3250. -  4000. cm-1, ATM      1
 LEVEL PRESSURE   UPWARD FLUX   DIFDOWN FLUX  DIRDOWN FLUX  DOWNWARD FLUX   NET FLUX    HEATING RATE
          mb          W/m2          W/m2          W/m2        W/m2          W/m2       degree/day
  51    .06700        0.0022        0.0000        5.9117        5.9117       5.909498       0.00000
  50    .07753        0.0022        0.0000        5.9075        5.9075       5.905382       3.29895
  49    .09103        0.0022        0.0000        5.9052        5.9052       5.903023       1.47451
  48    0.1069        0.0022        0.0000        5.9034        5.9034       5.901237       0.95054
  47    0.1255        0.0022        0.0000        5.9017        5.9017       5.899559       0.76080
  46    0.1487        0.0022        0.0000        5.8999        5.8999       5.897759       0.65600
  45    0.1794        0.0022        0.0000        5.8979        5.8979       5.895720       0.55999
  44    0.2165        0.0022        0.0000        5.8959        5.8959       5.893726       0.45340
  43    0.2613        0.0022        0.0000        5.8939        5.8939       5.891716       0.37890
  42    0.3336        0.0022        0.0000        5.8910        5.8910       5.888812       0.33865
  41    0.4307        0.0022        0.0000        5.8875        5.8875       5.885302       0.30516
  40    0.5894        0.0022        0.0000        5.8821        5.8821       5.879958       0.28420
  39     1.339        0.0022        0.0000        5.8627        5.8627       5.860545       0.21856
  38     1.782        0.0022        0.0000        5.8547        5.8547       5.852513       0.15290
  37     2.292        0.0022        0.0000        5.8469        5.8469       5.844768       0.12829
  36     2.964        0.0022        0.0000        5.8379        5.8379       5.835722       0.11355
  35     3.853        0.0022        0.0000        5.8265        5.8265       5.824372       0.10772
  34     5.035        0.0021        0.0000        5.8115        5.8115       5.809376       0.10712
  33     6.613        0.0021        0.0000        5.7911        5.7911       5.788941       0.10924
  32     8.786        0.0021        0.0000        5.7626        5.7626       5.760492       0.11049
  31     11.80        0.0021        0.0000        5.7207        5.7207       5.718609       0.11726
  30     15.07        0.0021        0.0000        5.6753        5.6753       5.673143       0.11739
  29     18.79        0.0021        0.0000        5.6247        5.6247       5.622610       0.11457
  28     23.16        0.0021        0.0000        5.5689        5.5689       5.566794       0.10793
  27     28.12        0.0021        0.0000        5.5107        5.5107       5.508632       0.09887
  26     33.73        0.0021        0.0000        5.4527        5.4527       5.450602       0.08725
  25     40.54        0.0021        0.0001        5.3899        5.3900       5.387861       0.07784
  24     48.69        0.0021        0.0001        5.3202        5.3203       5.318222       0.07207
  23     57.69        0.0021        0.0001        5.2467        5.2468       5.244740       0.06888
  22     68.43        0.0021        0.0001        5.1610        5.1611       5.159020       0.06739
  21     81.20        0.0021        0.0001        5.0617        5.0618       5.059795       0.06557
  20     96.49        0.0020        0.0001        4.9499        4.9500       4.947975       0.06172
  19     114.6        0.0020        0.0001        4.8241        4.8243       4.822255       0.05870
  18     136.5        0.0020        0.0002        4.6870        4.6872       4.685216       0.05269
  17     162.9        0.0020        0.0002        4.5256        4.5258       4.523867       0.05157
  16     196.4        0.0019        0.0002        4.2977        4.2979       4.295961       0.05737
  15     218.7        0.0019        0.0002        4.1207        4.1210       4.119060       0.06716
  14     243.0        0.0019        0.0002        3.9100        3.9103       3.908389       0.07307
  13     269.0        0.0019        0.0003        3.6203        3.6206       3.618699       0.09397
  12     297.5        0.0018        0.0003        3.2592        3.2595       3.257635       0.10709
  11     328.5        0.0018        0.0003        2.8450        2.8452       2.843387       0.11263
  10     361.9        0.0018        0.0002        2.4350        2.4352       2.433394       0.10373
   9     398.1        0.0018        0.0002        2.0682        2.0684       2.066629       0.08545
   8     437.6        0.0018        0.0002        1.7366        1.7368       1.735019       0.07090
   7     480.5        0.0019        0.0002        1.4270        1.4272       1.425366       0.06081
   6     533.0        0.0019        0.0002        1.1107        1.1109       1.108993       0.05089
   5     589.8        0.0021        0.0002        0.8304        0.8306       0.828498       0.04163
   4     651.6        0.0024        0.0001        0.5821        0.5822       0.579843       0.03400
   3     718.7        0.0028        0.0001        0.3887        0.3888       0.386026       0.02436
   2     792.3        0.0036        0.0001        0.2471        0.2472       0.243600       0.01633
   1     891.5        0.0054        0.0001        0.1204        0.1204       0.115024       0.01094
   0    1013.0        0.0110        0.0000        0.0360        0.0360       0.025021       0.00625



 Wavenumbers:  4000. -  4650. cm-1, ATM      1
 LEVEL PRESSURE   UPWARD FLUX   DIFDOWN FLUX  DIRDOWN FLUX  DOWNWARD FLUX   NET FLUX    HEATING RATE
          mb          W/m2          W/m2          W/m2        W/m2          W/m2       degree/day
  51    .06700        1.3376        0.0000        6.9421        6.9421       5.604435       0.00000
  50    .07753        1.3376        0.0000        6.9421        6.9421       5.604434       0.00080
  49    .09103        1.3376        0.0000        6.9421        6.9421       5.604433       0.00078
  48    0.1069        1.3376        0.0000        6.9421        6.9421       5.604431       0.00077
  47    0.1255        1.3376        0.0000        6.9421        6.9421       5.604429       0.00075
  46    0.1487        1.3376        0.0000        6.9421        6.9421       5.604427       0.00076
  45    0.1794        1.3376        0.0000        6.9421        6.9421       5.604425       0.00078
  44    0.2165        1.3376        0.0000        6.9421        6.9421       5.604421       0.00076
  43    0.2613        1.3376        0.0000        6.9421        6.9421       5.604417       0.00075
  42    0.3336        1.3376        0.0000        6.9420        6.9420       5.604411       0.00077
  41    0.4307        1.3376        0.0000        6.9420        6.9420       5.604402       0.00077
  40    0.5894        1.3376        0.0000        6.9420        6.9420       5.604387       0.00080
  39     1.339        1.3376        0.0000        6.9419        6.9419       5.604297       0.00101
  38     1.782        1.3376        0.0000        6.9418        6.9419       5.604227       0.00133
  37     2.292        1.3376        0.0000        6.9418        6.9418       5.604133       0.00156
  36     2.964        1.3376        0.0000        6.9416        6.9416       5.603993       0.00176
  35     3.853        1.3376        0.0000        6.9414        6.9414       5.603785       0.00197
  34     5.035        1.3376        0.0000        6.9411        6.9411       5.603479       0.00219
  33     6.613        1.3376        0.0000        6.9406        6.9406       5.603028       0.00241
  32     8.786        1.3376        0.0000        6.9399        6.9400       5.602363       0.00258
  31     11.80        1.3376        0.0000        6.9389        6.9389       5.601322       0.00292
  30     15.07        1.3376        0.0001        6.9376        6.9377       5.600104       0.00314
  29     18.79        1.3376        0.0001        6.9361        6.9362       5.598636       0.00333
  28     23.16        1.3376        0.0001        6.9343        6.9344       5.596820       0.00351
  27     28.12        1.3376        0.0001        6.9321        6.9322       5.594631       0.00372
  26     33.73        1.3375        0.0001        6.9294        6.9295       5.591945       0.00404
  25     40.54        1.3375        0.0002        6.9257        6.9258       5.588322       0.00449
  24     48.69        1.3375        0.0002        6.9209        6.9210       5.583526       0.00496
  23     57.69        1.3375        0.0002        6.9152        6.9154       5.577882       0.00529
  22     68.43        1.3375        0.0003        6.9081        6.9084       5.570865       0.00552
  21     81.20        1.3375        0.0003        6.8995        6.8998       5.562281       0.00567
  20     96.49        1.3375        0.0004        6.8890        6.8894       5.551912       0.00572
  19     114.6        1.3375        0.0004        6.8763        6.8767       5.539230       0.00592
  18     136.5        1.3375        0.0005        6.8610        6.8615       5.523989       0.00586
  17     162.9        1.3376        0.0006        6.8423        6.8430       5.505332       0.00596
  16     196.4        1.3378        0.0007        6.8168        6.8175       5.479751       0.00644
  15     218.7        1.3380        0.0008        6.7987        6.7995       5.461532       0.00692
  14     243.0        1.3382        0.0009        6.7767        6.7776       5.439364       0.00769
  13     269.0        1.3386        0.0010        6.7477        6.7487       5.410140       0.00948
  12     297.5        1.3392        0.0011        6.7104        6.7115       5.372291       0.01123
  11     328.5        1.3401        0.0012        6.6612        6.6625       5.322357       0.01358
  10     361.9        1.3414        0.0013        6.5959        6.5973       5.255870       0.01682
   9     398.1        1.3430        0.0015        6.5128        6.5143       5.171265       0.01971
   8     437.6        1.3451        0.0016        6.4113        6.4128       5.067732       0.02214
   7     480.5        1.3478        0.0017        6.2916        6.2933       4.945429       0.02402
   6     533.0        1.3521        0.0019        6.1425        6.1443       4.792285       0.02464
   5     589.8        1.3579        0.0020        5.9761        5.9781       4.620198       0.02554
   4     651.6        1.3659        0.0022        5.7781        5.7802       4.414291       0.02816
   3     718.7        1.3767        0.0023        5.5575        5.5599       4.183175       0.02904
   2     792.3        1.3904        0.0025        5.3347        5.3372       3.946800       0.02711
   1     891.5        1.4136        0.0027        5.0633        5.0660       3.652340       0.02506
   0    1013.0        1.4541        0.0029        4.7653        4.7682       3.314033       0.02349



 Wavenumbers:  4650. -  5150. cm-1, ATM      1
 LEVEL PRESSURE   UPWARD FLUX   DIFDOWN FLUX  DIRDOWN FLUX  DOWNWARD FLUX   NET FLUX    HEATING RATE
          mb          W/m2          W/m2          W/m2        W/m2          W/m2       degree/day
  51    .06700        0.8960        0.0000        6.5710        6.5710       5.674997       0.00000
  50    .07753        0.8960        0.0000        6.5708        6.5708       5.674762       0.18825
  49    .09103        0.8960        0.0000        6.5705        6.5705       5.674469       0.18302
  48    0.1069        0.8960        0.0000        6.5701        6.5701       5.674136       0.17748
  47    0.1255        0.8960        0.0000        6.5698        6.5698       5.673757       0.17182
  46    0.1487        0.8960        0.0000        6.5693        6.5693       5.673285       0.17212
  45    0.1794        0.8960        0.0000        6.5686        6.5686       5.672650       0.17416
  44    0.2165        0.8960        0.0000        6.5679        6.5679       5.671915       0.16733
  43    0.2613        0.8960        0.0000        6.5671        6.5671       5.671065       0.16026
  42    0.3336        0.8960        0.0000        6.5657        6.5657       5.669706       0.15842
  41    0.4307        0.8960        0.0000        6.5640        6.5640       5.667990       0.14922
  40    0.5894        0.8960        0.0000        6.5614        6.5614       5.665382       0.13868
  39     1.339        0.8960        0.0000        6.5516        6.5516       5.655636       0.10972
  38     1.782        0.8960        0.0000        6.5474        6.5474       5.651433       0.08001
  37     2.292        0.8960        0.0000        6.5435        6.5435       5.647559       0.06417
  36     2.964        0.8960        0.0000        6.5396        6.5396       5.643617       0.04948
  35     3.853        0.8960        0.0000        6.5356        6.5357       5.639686       0.03730
  34     5.035        0.8960        0.0000        6.5316        6.5317       5.635695       0.02851
  33     6.613        0.8960        0.0000        6.5272        6.5273       5.631314       0.02342
  32     8.786        0.8960        0.0001        6.5217        6.5218       5.625834       0.02128
  31     11.80        0.8959        0.0001        6.5137        6.5137       5.617776       0.02256
  30     15.07        0.8959        0.0001        6.5043        6.5044       5.608433       0.02412
  29     18.79        0.8959        0.0001        6.4928        6.4929       5.596947       0.02604
  28     23.16        0.8959        0.0001        6.4782        6.4783       5.582393       0.02814
  27     28.12        0.8959        0.0002        6.4602        6.4604       5.564463       0.03048
  26     33.73        0.8959        0.0002        6.4388        6.4390       5.543086       0.03214
  25     40.54        0.8959        0.0002        6.4117        6.4119       5.516029       0.03357
  24     48.69        0.8959        0.0003        6.3781        6.3783       5.482475       0.03472
  23     57.69        0.8959        0.0003        6.3410        6.3413       5.445473       0.03468
  22     68.43        0.8959        0.0004        6.2979        6.2983       5.402385       0.03387
  21     81.20        0.8959        0.0005        6.2491        6.2496       5.353680       0.03218
  20     96.49        0.8959        0.0005        6.1958        6.1964       5.300421       0.02939
  19     114.6        0.8960        0.0006        6.1394        6.1400       5.243978       0.02636
  18     136.5        0.8961        0.0007        6.0804        6.0812       5.185057       0.02266
  17     162.9        0.8963        0.0009        6.0178        6.0187       5.122368       0.02004
  16     196.4        0.8966        0.0010        5.9423        5.9434       5.046748       0.01903
  15     218.7        0.8969        0.0012        5.8930        5.8941       4.997268       0.01879
  14     243.0        0.8972        0.0013        5.8375        5.8388       4.941591       0.01931
  13     269.0        0.8977        0.0014        5.7731        5.7745       4.876805       0.02102
  12     297.5        0.8984        0.0015        5.6966        5.6981       4.799748       0.02285
  11     328.5        0.8994        0.0017        5.6042        5.6058       4.706492       0.02536
  10     361.9        0.9007        0.0018        5.4959        5.4978       4.597091       0.02768
   9     398.1        0.9024        0.0020        5.3696        5.3716       4.469179       0.02980
   8     437.6        0.9048        0.0021        5.2245        5.2266       4.321825       0.03151
   7     480.5        0.9079        0.0023        5.0573        5.0595       4.151651       0.03342
   6     533.0        0.9127        0.0024        4.8446        4.8470       3.934314       0.03496
   5     589.8        0.9193        0.0026        4.6171        4.6197       3.700443       0.03471
   4     651.6        0.9282        0.0028        4.3807        4.3835       3.455295       0.03352
   3     718.7        0.9400        0.0029        4.1465        4.1494       3.209494       0.03089
   2     792.3        0.9550        0.0031        3.9215        3.9246       2.969542       0.02752
   1     891.5        0.9804        0.0032        3.6488        3.6521       2.671663       0.02535
   0    1013.0        1.0225        0.0034        3.3497        3.3531       2.330621       0.02368



 Wavenumbers:  5150. -  6150. cm-1, ATM      1
 LEVEL PRESSURE   UPWARD FLUX   DIFDOWN FLUX  DIRDOWN FLUX  DOWNWARD FLUX   NET FLUX    HEATING RATE
          mb          W/m2          W/m2          W/m2        W/m2          W/m2       degree/day
  51    .06700        2.3521        0.0000       16.4735       16.4735      14.121405       0.00000
  50    .07753        2.3521        0.0000       16.4735       16.4735      14.121388       0.01390
  49    .09103        2.3521        0.0000       16.4735       16.4735      14.121365       0.01415
  48    0.1069        2.3521        0.0000       16.4734       16.4734      14.121338       0.01439
  47    0.1255        2.3521        0.0000       16.4734       16.4734      14.121306       0.01462
  46    0.1487        2.3521        0.0000       16.4734       16.4734      14.121263       0.01540
  45    0.1794        2.3521        0.0000       16.4733       16.4733      14.121204       0.01646
  44    0.2165        2.3521        0.0000       16.4732       16.4732      14.121130       0.01677
  43    0.2613        2.3521        0.0000       16.4731       16.4731      14.121040       0.01700
  42    0.3336        2.3521        0.0000       16.4730       16.4730      14.120886       0.01796
  41    0.4307        2.3521        0.0000       16.4728       16.4728      14.120674       0.01839
  40    0.5894        2.3521        0.0000       16.4724       16.4724      14.120320       0.01884
  39     1.339        2.3521        0.0000       16.4706       16.4707      14.118585       0.01953
  38     1.782        2.3521        0.0000       16.4696       16.4696      14.117558       0.01956
  37     2.292        2.3521        0.0001       16.4684       16.4684      14.116371       0.01965
  36     2.964        2.3520        0.0001       16.4668       16.4669      14.114819       0.01948
  35     3.853        2.3520        0.0001       16.4647       16.4648      14.112782       0.01933
  34     5.035        2.3520        0.0001       16.4620       16.4621      14.110100       0.01916
  33     6.613        2.3520        0.0002       16.4584       16.4585      14.106566       0.01890
  32     8.786        2.3519        0.0002       16.4536       16.4538      14.101901       0.01812
  31     11.80        2.3519        0.0003       16.4470       16.4473      14.095428       0.01812
  30     15.07        2.3518        0.0004       16.4402       16.4406      14.088737       0.01727
  29     18.79        2.3518        0.0005       16.4328       16.4333      14.081488       0.01644
  28     23.16        2.3517        0.0006       16.4245       16.4251      14.073413       0.01561
  27     28.12        2.3516        0.0007       16.4155       16.4163      14.064652       0.01489
  26     33.73        2.3515        0.0009       16.4060       16.4069      14.055357       0.01397
  25     40.54        2.3514        0.0011       16.3952       16.3963      14.044835       0.01305
  24     48.69        2.3513        0.0013       16.3831       16.3844      14.033057       0.01219
  23     57.69        2.3512        0.0015       16.3709       16.3724      14.021171       0.01114
  22     68.43        2.3511        0.0018       16.3577       16.3595      14.008391       0.01005
  21     81.20        2.3510        0.0021       16.3432       16.3453      13.994355       0.00927
  20     96.49        2.3508        0.0025       16.3269       16.3294      13.978612       0.00869
  19     114.6        2.3507        0.0030       16.3081       16.3111      13.960484       0.00846
  18     136.5        2.3505        0.0036       16.2838       16.2873      13.936871       0.00908
  17     162.9        2.3502        0.0042       16.2431       16.2473      13.897046       0.01273
  16     196.4        2.3500        0.0051       16.1586       16.1637      13.813699       0.02098
  15     218.7        2.3498        0.0056       16.0647       16.0704      13.720565       0.03536
  14     243.0        2.3497        0.0062       15.8832       15.8894      13.539759       0.06271
  13     269.0        2.3496        0.0068       15.5215       15.5283      13.178736       0.11711
  12     297.5        2.3495        0.0073       15.0572       15.0646      12.715002       0.13754
  11     328.5        2.3497        0.0079       14.5309       14.5387      12.189084       0.14300
  10     361.9        2.3500        0.0084       13.8965       13.9049      11.554920       0.16045
   9     398.1        2.3505        0.0088       13.1875       13.1964      10.845835       0.16520
   8     437.6        2.3515        0.0093       12.4420       12.4512      10.099738       0.15952
   7     480.5        2.3531        0.0096       11.6685       11.6781       9.324967       0.15216
   6     533.0        2.3561        0.0100       10.8656       10.8756       8.519498       0.12957
   5     589.8        2.3610        0.0104       10.2053       10.2157       7.854735       0.09867
   4     651.6        2.3687        0.0109        9.6812        9.6921       7.323436       0.07266
   3     718.7        2.3800        0.0116        9.2817        9.2933       6.913270       0.05155
   2     792.3        2.3958        0.0123        8.9579        8.9702       6.574398       0.03886
   1     891.5        2.4249        0.0133        8.5765        8.5898       6.164950       0.03484
   0    1013.0        2.4826        0.0145        8.1279        8.1424       5.659723       0.03508



 Wavenumbers:  6150. -  7700. cm-1, ATM      1
 LEVEL PRESSURE   UPWARD FLUX   DIFDOWN FLUX  DIRDOWN FLUX  DOWNWARD FLUX   NET FLUX    HEATING RATE
          mb          W/m2          W/m2          W/m2        W/m2          W/m2       degree/day
  51    .06700        3.6983        0.0000       30.4684       30.4684      26.770117       0.00000
  50    .07753        3.6983        0.0000       30.4683       30.4683      26.770083       0.02723
  49    .09103        3.6983        0.0000       30.4683       30.4683      26.770040       0.02725
  48    0.1069        3.6983        0.0000       30.4682       30.4683      26.769989       0.02726
  47    0.1255        3.6983        0.0000       30.4682       30.4682      26.769928       0.02725
  46    0.1487        3.6983        0.0000       30.4681       30.4681      26.769851       0.02826
  45    0.1794        3.6983        0.0000       30.4680       30.4680      26.769743       0.02973
  44    0.2165        3.6983        0.0000       30.4678       30.4679      26.769611       0.02984
  43    0.2613        3.6982        0.0000       30.4677       30.4677      26.769453       0.02987
  42    0.3336        3.6982        0.0000       30.4674       30.4674      26.769186       0.03117
  41    0.4307        3.6982        0.0000       30.4670       30.4671      26.768823       0.03150
  40    0.5894        3.6982        0.0001       30.4664       30.4664      26.768222       0.03197
  39     1.339        3.6981        0.0001       30.4633       30.4635      26.765321       0.03266
  38     1.782        3.6981        0.0002       30.4615       30.4617      26.763614       0.03250
  37     2.292        3.6980        0.0002       30.4594       30.4597      26.761647       0.03257
  36     2.964        3.6980        0.0003       30.4567       30.4571      26.759079       0.03223
  35     3.853        3.6979        0.0004       30.4532       30.4536      26.755714       0.03194
  34     5.035        3.6978        0.0006       30.4485       30.4491      26.751288       0.03162
  33     6.613        3.6976        0.0007       30.4423       30.4431      26.745453       0.03119
  32     8.786        3.6974        0.0010       30.4342       30.4351      26.737738       0.02996
  31     11.80        3.6971        0.0013       30.4228       30.4241      26.726993       0.03008
  30     15.07        3.6968        0.0017       30.4109       30.4126      26.715822       0.02884
  29     18.79        3.6964        0.0021       30.3980       30.4000      26.703634       0.02763
  28     23.16        3.6960        0.0026       30.3834       30.3859      26.689939       0.02648
  27     28.12        3.6955        0.0031       30.3673       30.3704      26.674924       0.02552
  26     33.73        3.6949        0.0037       30.3501       30.3538      26.658894       0.02410
  25     40.54        3.6943        0.0045       30.3304       30.3349      26.640588       0.02271
  24     48.69        3.6935        0.0053       30.3080       30.3134      26.619898       0.02141
  23     57.69        3.6926        0.0063       30.2850       30.2913      26.598727       0.01984
  22     68.43        3.6915        0.0075       30.2597       30.2672      26.575613       0.01817
  21     81.20        3.6903        0.0089       30.2313       30.2402      26.549934       0.01697
  20     96.49        3.6888        0.0106       30.1992       30.2098      26.520993       0.01597
  19     114.6        3.6870        0.0126       30.1622       30.1748      26.487735       0.01553
  18     136.5        3.6849        0.0149       30.1156       30.1305      26.445592       0.01620
  17     162.9        3.6824        0.0177       30.0427       30.0604      26.377975       0.02161
  16     196.4        3.6792        0.0213       29.8985       29.9198      26.240542       0.03459
  15     218.7        3.6771        0.0236       29.7549       29.7785      26.101346       0.05285
  14     243.0        3.6749        0.0261       29.5077       29.5337      25.858814       0.08412
  13     269.0        3.6727        0.0286       29.0046       29.0332      25.360558       0.16163
  12     297.5        3.6704        0.0310       28.2445       28.2755      24.605038       0.22408
  11     328.5        3.6684        0.0333       27.3154       27.3487      23.680323       0.25143
  10     361.9        3.6666        0.0356       26.2638       26.2994      22.632751       0.26505
   9     398.1        3.6655        0.0378       25.0495       25.0873      21.421785       0.28213
   8     437.6        3.6653        0.0397       23.6877       23.7274      20.062019       0.29073
   7     480.5        3.6669        0.0413       22.2070       22.2482      18.581307       0.29081
   6     533.0        3.6719        0.0428       20.5388       20.5817      16.909748       0.26890
   5     589.8        3.6819        0.0443       18.9920       19.0363      15.354415       0.23086
   4     651.6        3.6995        0.0457       17.5736       17.6194      13.919884       0.19618
   3     718.7        3.7266        0.0473       16.3428       16.3901      12.663514       0.15789
   2     792.3        3.7647        0.0491       15.3006       15.3497      11.585030       0.12369
   1     891.5        3.8359        0.0515       14.1663       14.2179      10.381931       0.10238
   0    1013.0        3.9782        0.0542       12.9987       13.0529       9.074703       0.09077



 Wavenumbers:  7700. -  8050. cm-1, ATM      1
 LEVEL PRESSURE   UPWARD FLUX   DIFDOWN FLUX  DIRDOWN FLUX  DOWNWARD FLUX   NET FLUX    HEATING RATE
          mb          W/m2          W/m2          W/m2        W/m2          W/m2       degree/day
  51    .06700        1.7069        0.0000        7.2006        7.2006       5.493662       0.00000
  50    .07753        1.7069        0.0000        7.2006        7.2006       5.493643       0.01511
  49    .09103        1.7069        0.0000        7.2005        7.2005       5.493619       0.01480
  48    0.1069        1.7069        0.0000        7.2005        7.2005       5.493592       0.01449
  47    0.1255        1.7069        0.0000        7.2005        7.2005       5.493560       0.01418
  46    0.1487        1.7069        0.0000        7.2004        7.2005       5.493521       0.01439
  45    0.1794        1.7069        0.0000        7.2004        7.2004       5.493467       0.01481
  44    0.2165        1.7069        0.0000        7.2003        7.2003       5.493403       0.01453
  43    0.2613        1.7069        0.0000        7.2003        7.2003       5.493328       0.01425
  42    0.3336        1.7069        0.0000        7.2001        7.2001       5.493203       0.01458
  41    0.4307        1.7070        0.0000        7.2000        7.2000       5.493037       0.01442
  40    0.5894        1.7070        0.0000        7.1997        7.1997       5.492766       0.01441
  39     1.339        1.7070        0.0001        7.1984        7.1985       5.491485       0.01442
  38     1.782        1.7070        0.0001        7.1977        7.1978       5.490732       0.01432
  37     2.292        1.7071        0.0001        7.1968        7.1969       5.489862       0.01442
  36     2.964        1.7071        0.0001        7.1957        7.1958       5.488719       0.01434
  35     3.853        1.7072        0.0002        7.1942        7.1944       5.487211       0.01432
  34     5.035        1.7072        0.0002        7.1922        7.1925       5.485208       0.01431
  33     6.613        1.7073        0.0003        7.1896        7.1899       5.482536       0.01429
  32     8.786        1.7075        0.0004        7.1860        7.1864       5.478940       0.01396
  31     11.80        1.7077        0.0005        7.1810        7.1815       5.473808       0.01437
  30     15.07        1.7079        0.0007        7.1755        7.1762       5.468313       0.01419
  29     18.79        1.7081        0.0008        7.1694        7.1703       5.462126       0.01403
  28     23.16        1.7084        0.0010        7.1623        7.1633       5.454927       0.01392
  27     28.12        1.7087        0.0013        7.1542        7.1555       5.446732       0.01393
  26     33.73        1.7091        0.0015        7.1452        7.1467       5.437608       0.01372
  25     40.54        1.7096        0.0018        7.1344        7.1362       5.426652       0.01359
  24     48.69        1.7101        0.0022        7.1215        7.1236       5.413542       0.01357
  23     57.69        1.7107        0.0026        7.1074        7.1100       5.399263       0.01338
  22     68.43        1.7114        0.0030        7.0908        7.0938       5.382424       0.01324
  21     81.20        1.7123        0.0036        7.0713        7.0749       5.362595       0.01310
  20     96.49        1.7133        0.0042        7.0484        7.0526       5.339290       0.01286
  19     114.6        1.7146        0.0050        7.0216        7.0266       5.312060       0.01271
  18     136.5        1.7161        0.0060        6.9905        6.9965       5.280380       0.01218
  17     162.9        1.7179        0.0071        6.9543        6.9614       5.243448       0.01180
  16     196.4        1.7203        0.0085        6.9086        6.9171       5.196772       0.01175
  15     218.7        1.7220        0.0094        6.8793        6.8887       5.166765       0.01139
  14     243.0        1.7238        0.0104        6.8480        6.8585       5.134688       0.01113
  13     269.0        1.7258        0.0115        6.8147        6.8262       5.100473       0.01110
  12     297.5        1.7280        0.0127        6.7793        6.7920       5.064022       0.01081
  11     328.5        1.7305        0.0140        6.7416        6.7556       5.025157       0.01057
  10     361.9        1.7332        0.0153        6.7016        6.7169       4.983698       0.01049
   9     398.1        1.7363        0.0168        6.6589        6.6757       4.939358       0.01033
   8     437.6        1.7399        0.0183        6.6133        6.6316       4.891734       0.01018
   7     480.5        1.7439        0.0200        6.5642        6.5842       4.840248       0.01011
   6     533.0        1.7493        0.0220        6.5033        6.5253       4.776013       0.01033
   5     589.8        1.7556        0.0242        6.4367        6.4609       4.705276       0.01050
   4     651.6        1.7630        0.0265        6.3635        6.3900       4.626931       0.01071
   3     718.7        1.7718        0.0290        6.2834        6.3124       4.540616       0.01085
   2     792.3        1.7820        0.0316        6.1968        6.2284       4.446421       0.01080
   1     891.5        1.7971        0.0351        6.0778        6.1128       4.315734       0.01112
   0    1013.0        1.8180        0.0391        5.9285        5.9676       4.149590       0.01154



 Wavenumbers:  8050. - 12850. cm-1, ATM      1
 LEVEL PRESSURE   UPWARD FLUX   DIFDOWN FLUX  DIRDOWN FLUX  DOWNWARD FLUX   NET FLUX    HEATING RATE
          mb          W/m2          W/m2          W/m2        W/m2          W/m2       degree/day
  51    .06700       23.7189        0.0000      100.8135      100.8135      77.094594       0.00000
  50    .07753       23.7189        0.0000      100.8135      100.8135      77.094594       0.00000
  49    .09103       23.7189        0.0001      100.8134      100.8135      77.094594      -0.00000
  48    0.1069       23.7189        0.0001      100.8134      100.8134      77.094594       0.00000
  47    0.1255       23.7188        0.0001      100.8133      100.8134      77.094594      -0.00000
  46    0.1487       23.7188        0.0002      100.8132      100.8134      77.094594       0.00000
  45    0.1794       23.7187        0.0002      100.8131      100.8133      77.094594      -0.00000
  44    0.2165       23.7187        0.0003      100.8129      100.8133      77.094594       0.00000
  43    0.2613       23.7186        0.0004      100.8127      100.8132      77.094594       0.00000
  42    0.3336       23.7185        0.0006      100.8125      100.8130      77.094594      -0.00000
  41    0.4307       23.7183        0.0008      100.8121      100.8129      77.094594      -0.00000
  40    0.5894       23.7180        0.0011      100.8115      100.8126      77.094594       0.00000
  39     1.339       23.7167        0.0028      100.8085      100.8113      77.094594       0.00000
  38     1.782       23.7159        0.0038      100.8068      100.8105      77.094594      -0.00000
  37     2.292       23.7150        0.0049      100.8047      100.8096      77.094594       0.00000
  36     2.964       23.7138        0.0063      100.8021      100.8084      77.094594      -0.00000
  35     3.853       23.7123        0.0083      100.7986      100.8069      77.094594       0.00000
  34     5.035       23.7102        0.0108      100.7940      100.8048      77.094594      -0.00000
  33     6.613       23.7075        0.0143      100.7878      100.8021      77.094594      -0.00000
  32     8.786       23.7037        0.0189      100.7794      100.7983      77.094594       0.00000
  31     11.80       23.6984        0.0256      100.7674      100.7930      77.094594       0.00000
  30     15.07       23.6927        0.0327      100.7546      100.7873      77.094594       0.00000
  29     18.79       23.6862        0.0408      100.7400      100.7808      77.094594      -0.00000
  28     23.16       23.6786        0.0502      100.7230      100.7732      77.094594       0.00000
  27     28.12       23.6699        0.0610      100.7035      100.7645      77.094594      -0.00000
  26     33.73       23.6602        0.0732      100.6817      100.7548      77.094594       0.00000
  25     40.54       23.6485        0.0878      100.6552      100.7431      77.094594      -0.00000
  24     48.69       23.6343        0.1055      100.6234      100.7289      77.094594      -0.00000
  23     57.69       23.6186        0.1250      100.5883      100.7132      77.094594       0.00000
  22     68.43       23.6000        0.1481      100.5464      100.6946      77.094594      -0.00000
  21     81.20       23.5778        0.1758      100.4965      100.6724      77.094594       0.00000
  20     96.49       23.5512        0.2089      100.4370      100.6458      77.094594      -0.00000
  19     114.6       23.5197        0.2481      100.3623      100.6104      77.090737       0.00180
  18     136.5       23.4822        0.2947      100.2726      100.5674      77.085158       0.00215
  17     162.9       23.4375        0.3504      100.1609      100.5112      77.073738       0.00365
  16     196.4       23.3794        0.4226       99.9994      100.4220      77.042629       0.00783
  15     218.7       23.3412        0.4701       99.8729      100.3430      77.001777       0.01551
  14     243.0       23.2997        0.5217       99.6954      100.2171      76.917440       0.02925
  13     269.0       23.2551        0.5775       99.4069       99.9844      76.729372       0.06101
  12     297.5       23.2074        0.6375       98.9996       99.6371      76.429676       0.08889
  11     328.5       23.1570        0.7020       98.4712       99.1732      76.016139       0.11244
  10     361.9       23.1045        0.7708       97.8011       98.5719      75.467401       0.13884
   9     398.1       23.0506        0.8442       96.9427       97.7869      74.736206       0.17035
   8     437.6       22.9970        0.9216       95.8428       96.7644      73.767425       0.20713
   7     480.5       22.9469        1.0025       94.4204       95.4229      72.476057       0.25362
   6     533.0       22.8974        1.0992       92.4491       93.5483      70.650910       0.29361
   5     589.8       22.8622        1.1998       90.1721       91.3719      68.509709       0.31782
   4     651.6       22.8508        1.3037       87.6384       88.9421      66.091332       0.33072
   3     718.7       22.8685        1.4119       85.0285       86.4405      63.571937       0.31662
   2     792.3       22.9203        1.5252       82.4378       83.9630      61.042692       0.29008
   1     891.5       23.0586        1.6730       79.1296       80.8026      57.744055       0.28070
   0    1013.0       23.4004        1.8394       75.2106       77.0500      53.649646       0.28430



 Wavenumbers: 12850. - 16000. cm-1, ATM      1
 LEVEL PRESSURE   UPWARD FLUX   DIFDOWN FLUX  DIRDOWN FLUX  DOWNWARD FLUX   NET FLUX    HEATING RATE
          mb          W/m2          W/m2          W/m2        W/m2          W/m2       degree/day
  51    .06700       32.1278        0.0000       63.1686       63.1686      31.040784       0.00000
  50    .07753       32.1278        0.0001       63.1677       63.1678      31.040005       0.62447
  49    .09103       32.1277        0.0001       63.1666       63.1668      31.039034       0.60683
  48    0.1069       32.1277        0.0002       63.1654       63.1656      31.037928       0.58838
  47    0.1255       32.1277        0.0003       63.1640       63.1643      31.036671       0.56985
  46    0.1487       32.1276        0.0004       63.1623       63.1627      31.035104       0.57132
  45    0.1794       32.1275        0.0006       63.1600       63.1606      31.033003       0.57688
  44    0.2165       32.1275        0.0008       63.1573       63.1581      31.030573       0.55266
  43    0.2613       32.1274        0.0010       63.1542       63.1552      31.027772       0.52806
  42    0.3336       32.1273        0.0014       63.1493       63.1507      31.023310       0.52019
  41    0.4307       32.1273        0.0019       63.1431       63.1450      31.017733       0.48492
  40    0.5894       32.1272        0.0027       63.1338       63.1365      31.009291       0.44891
  39     1.339       32.1281        0.0065       63.0956       63.1021      30.973945       0.39793
  38     1.782       32.1295        0.0087       63.0740       63.0828      30.953213       0.39472
  37     2.292       32.1320        0.0113       63.0477       63.0590      30.926962       0.43478
  36     2.964       32.1365        0.0147       63.0095       63.0242      30.887696       0.49290
  35     3.853       32.1443        0.0192       62.9533       62.9725      30.828141       0.56519
  34     5.035       32.1564        0.0252       62.8725       62.8977      30.741253       0.62069
  33     6.613       32.1735        0.0331       62.7621       62.7952      30.621705       0.63910
  32     8.786       32.1955        0.0438       62.6183       62.6620      30.466538       0.60261
  31     11.80       32.2236        0.0590       62.4284       62.4874      30.263859       0.56744
  30     15.07       32.2496        0.0754       62.2426       62.3180      30.068390       0.50466
  29     18.79       32.2754        0.0938       62.0493       62.1431      29.867706       0.45501
  28     23.16       32.3013        0.1152       61.8425       61.9577      29.656396       0.40861
  27     28.12       32.3260        0.1397       61.6278       61.7675      29.441511       0.36529
  26     33.73       32.3467        0.1670       61.4177       61.5847      29.238050       0.30591
  25     40.54       32.3635        0.2000       61.1983       61.3983      29.034816       0.25213
  24     48.69       32.3759        0.2397       60.9680       61.2077      28.831775       0.21012
  23     57.69       32.3819        0.2832       60.7478       61.0310      28.649122       0.17121
  22     68.43       32.3808        0.3350       60.5202       60.8552      28.474412       0.13734
  21     81.20       32.3681        0.3966       60.2938       60.6905      28.322359       0.10047
  20     96.49       32.3425        0.4700       60.0643       60.5343      28.191767       0.07208
  19     114.6       32.3118        0.5576       59.8078       60.3655      28.053612       0.06451
  18     136.5       32.2709        0.6612       59.5158       60.1771      27.906170       0.05670
  17     162.9       32.2179        0.7842       59.1774       59.9616      27.743680       0.05194
  16     196.4       32.1404        0.9434       58.7612       59.7046      27.564129       0.04520
  15     218.7       32.0864        1.0476       58.4962       59.5438      27.457417       0.04051
  14     243.0       32.0262        1.1606       58.2118       59.3723      27.346103       0.03861
  13     269.0       31.9597        1.2827       57.9070       59.1897      27.229998       0.03766
  12     297.5       31.8868        1.4144       57.5801       58.9945      27.107763       0.03625
  11     328.5       31.8079        1.5563       57.2262       58.7825      26.974640       0.03620
  10     361.9       31.7234        1.7086       56.8423       58.5509      26.827534       0.03722
   9     398.1       31.6333        1.8720       56.4242       58.2962      26.662906       0.03835
   8     437.6       31.5385        2.0467       55.9648       58.0114      26.472888       0.04063
   7     480.5       31.4406        2.2330       55.4538       57.6868      26.246150       0.04453
   6     533.0       31.3263        2.4607       54.7989       57.2596      25.933260       0.05033
   5     589.8       31.2124        2.7040       54.0619       56.7659      25.553472       0.05637
   4     651.6       31.1033        2.9628       53.2351       56.1980      25.094678       0.06274
   3     718.7       31.0007        3.2372       52.3328       55.5701      24.569407       0.06601
   2     792.3       30.9060        3.5271       51.3742       54.9013      23.995308       0.06584
   1     891.5       30.8070        3.9112       50.0960       54.0072      23.200212       0.06766
   0    1013.0       30.7480        4.3610       48.5609       52.9219      22.173901       0.07126



 Wavenumbers: 16000. - 22650. cm-1, ATM      1
 LEVEL PRESSURE   UPWARD FLUX   DIFDOWN FLUX  DIRDOWN FLUX  DOWNWARD FLUX   NET FLUX    HEATING RATE
          mb          W/m2          W/m2          W/m2        W/m2          W/m2       degree/day
  51    .06700       73.8297        0.0000      100.7153      100.7153      26.885647       0.00000
  50    .07753       73.8295        0.0003      100.7147      100.7151      26.885530       0.09334
  49    .09103       73.8294        0.0007      100.7140      100.7147      26.885361       0.10587
  48    0.1069       73.8292        0.0012      100.7131      100.7143      26.885134       0.12073
  47    0.1255       73.8290        0.0017      100.7121      100.7138      26.884831       0.13761
  46    0.1487       73.8288        0.0024      100.7108      100.7132      26.884383       0.16307
  45    0.1794       73.8285        0.0033      100.7089      100.7122      26.883684       0.19200
  44    0.2165       73.8283        0.0044      100.7066      100.7110      26.882735       0.21578
  43    0.2613       73.8280        0.0057      100.7037      100.7094      26.881448       0.24259
  42    0.3336       73.8276        0.0079      100.6987      100.7066      26.879001       0.28528
  41    0.4307       73.8272        0.0107      100.6918      100.7025      26.875313       0.32068
  40    0.5894       73.8269        0.0154      100.6797      100.6952      26.868280       0.37404
  39     1.339       73.8306        0.0375      100.6095      100.6470      26.816325       0.58491
  38     1.782       73.8368        0.0504      100.5585      100.6089      26.772080       0.84236
  37     2.292       73.8476        0.0654      100.4903      100.5557      26.708055       1.06042
  36     2.964       73.8674        0.0851      100.3868      100.4718      26.604384       1.30138
  35     3.853       73.9016        0.1110      100.2306      100.3416      26.440006       1.55999
  34     5.035       73.9548        0.1454      100.0045      100.1499      26.195037       1.74995
  33     6.613       74.0300        0.1913       99.6939       99.8851      25.855137       1.81711
  32     8.786       74.1272        0.2529       99.2881       99.5410      25.413779       1.71408
  31     11.80       74.2509        0.3408       98.7496       99.0904      24.839508       1.60778
  30     15.07       74.3659        0.4348       98.2198       98.6547      24.288786       1.42186
  29     18.79       74.4797        0.5407       97.6651       98.2058      23.726105       1.27577
  28     23.16       74.5942        0.6639       97.0671       97.7310      23.136812       1.13950
  27     28.12       74.7035        0.8042       96.4406       97.2447      22.541229       1.01245
  26     33.73       74.7948        0.9607       95.8179       96.7786      21.983732       0.83821
  25     40.54       74.8693        1.1491       95.1548       96.3039      21.434637       0.68121
  24     48.69       74.9243        1.3753       94.4420       95.8173      20.892988       0.56052
  23     57.69       74.9513        1.6228       93.7416       95.3644      20.413141       0.44978
  22     68.43       74.9474        1.9163       92.9954       94.9117      19.964293       0.35285
  21     81.20       74.8934        2.2646       92.2231       94.4877      19.594311       0.24448
  20     96.49       74.7837        2.6777       91.4110       94.0887      19.304980       0.15969
  19     114.6       74.6309        3.1647       90.5070       93.6717      19.040846       0.12333
  18     136.5       74.4353        3.7371       89.4803       93.2174      18.782016       0.09953
  17     162.9       74.1901        4.4117       88.3023       92.7140      18.523878       0.08251
  16     196.4       73.8443        5.2764       86.8608       92.1372      18.292901       0.05814
  15     218.7       73.6077        5.8380       85.9494       91.7874      18.179684       0.04298
  14     243.0       73.3472        6.4428       84.9794       91.4222      18.075031       0.03630
  13     269.0       73.0614        7.0917       83.9504       91.0421      17.980674       0.03061
  12     297.5       72.7497        7.7855       82.8612       90.6467      17.896980       0.02482
  11     328.5       72.4133        8.5265       81.7027       90.2292      17.815887       0.02205
  10     361.9       72.0520        9.3145       80.4749       89.7893      17.737356       0.01987
   9     398.1       71.6648       10.1512       79.1744       89.3256      17.660764       0.01784
   8     437.6       71.2520       11.0369       77.7989       88.8358      17.583804       0.01645
   7     480.5       70.8135       11.9718       76.3468       88.3187      17.505210       0.01544
   6     533.0       70.2800       13.1024       74.5887       87.6911      17.411123       0.01514
   5     589.8       69.7137       14.2966       72.7263       87.0229      17.309121       0.01514
   4     651.6       69.1161       15.5522       70.7596       86.3118      17.195669       0.01551
   3     718.7       68.4873       16.8674       68.6917       85.5590      17.071670       0.01558
   2     792.3       67.8291       18.2371       66.5293       84.7664      16.937248       0.01542
   1     891.5       66.9671       20.0234       63.6912       83.7146      16.747487       0.01615
   0    1013.0       65.9739       22.0752       60.3992       82.4743      16.500422       0.01715



 Wavenumbers: 22650. - 29000. cm-1, ATM      1
 LEVEL PRESSURE   UPWARD FLUX   DIFDOWN FLUX  DIRDOWN FLUX  DOWNWARD FLUX   NET FLUX    HEATING RATE
          mb          W/m2          W/m2          W/m2        W/m2          W/m2       degree/day
  51    .06700       32.0545        0.0000       38.0063       38.0063       5.951759       0.00000
  50    .07753       32.0544        0.0004       38.0057       38.0061       5.951759       0.00000
  49    .09103       32.0541        0.0009       38.0050       38.0059       5.951759       0.00000
  48    0.1069       32.0539        0.0014       38.0042       38.0056       5.951759       0.00000
  47    0.1255       32.0536        0.0020       38.0033       38.0054       5.951759      -0.00000
  46    0.1487       32.0532        0.0028       38.0022       38.0050       5.951759       0.00000
  45    0.1794       32.0527        0.0039       38.0006       38.0045       5.951759       0.00000
  44    0.2165       32.0521        0.0052       37.9987       38.0039       5.951759      -0.00000
  43    0.2613       32.0515        0.0067       37.9965       38.0032       5.951759       0.00000
  42    0.3336       32.0503        0.0092       37.9928       38.0021       5.951759       0.00000
  41    0.4307       32.0488        0.0125       37.9880       38.0005       5.951759       0.00000
  40    0.5894       32.0463        0.0180       37.9800       37.9980       5.951759       0.00000
  39     1.339       32.0345        0.0437       37.9425       37.9862       5.951759      -0.00000
  38     1.782       32.0275        0.0588       37.9204       37.9793       5.951759       0.00000
  37     2.292       32.0195        0.0763       37.8949       37.9712       5.951759       0.00000
  36     2.964       32.0089        0.0993       37.8614       37.9607       5.951759      -0.00000
  35     3.853       31.9950        0.1296       37.8172       37.9468       5.951759       0.00000
  34     5.035       31.9766        0.1697       37.7586       37.9283       5.951759      -0.00000
  33     6.613       31.9519        0.2234       37.6803       37.9037       5.951759       0.00000
  32     8.786       31.9187        0.2955       37.5750       37.8705       5.951759      -0.00000
  31     11.80       31.8714        0.3983       37.4249       37.8232       5.951759      -0.00000
  30     15.07       31.8207        0.5083       37.2642       37.7725       5.951759       0.00000
  29     18.79       31.7637        0.6321       37.0833       37.7154       5.951759       0.00000
  28     23.16       31.6973        0.7761       36.8730       37.6491       5.951759       0.00000
  27     28.12       31.6217        0.9397       36.6338       37.5735       5.951759      -0.00000
  26     33.73       31.5376        1.1217       36.3677       37.4894       5.951759      -0.00000
  25     40.54       31.4366        1.3398       36.0486       37.3883       5.951759      -0.00000
  24     48.69       31.3158        1.6003       35.6672       37.2675       5.951759       0.00000
  23     57.69       31.1842        1.8833       35.2527       37.1360       5.951759       0.00000
  22     68.43       31.0292        2.2160       34.7649       36.9809       5.951759       0.00000
  21     81.20       30.8468        2.6063       34.1922       36.7986       5.951759       0.00000
  20     96.49       30.6328        3.0628       33.5218       36.5845       5.951759      -0.00000
  19     114.6       30.3833        3.5927       32.7424       36.3350       5.951759       0.00000
  18     136.5       30.0939        4.2041       31.8416       36.0457       5.951759       0.00000
  17     162.9       29.7582        4.9091       30.8008       35.7099       5.951759      -0.00000
  16     196.4       29.3364        5.7875       29.5007       35.2882       5.951759       0.00000
  15     218.7       29.0677        6.3427       28.6767       35.0195       5.951759      -0.00000
  14     243.0       28.7827        6.9276       27.8069       34.7345       5.951759       0.00000
  13     269.0       28.4820        7.5403       26.8935       34.4338       5.951759      -0.00000
  12     297.5       28.1661        8.1783       25.9396       34.1179       5.951759      -0.00000
  11     328.5       27.8349        8.8411       24.9456       33.7867       5.951759       0.00000
  10     361.9       27.4897        9.5246       23.9169       33.4415       5.951759      -0.00000
   9     398.1       27.1307       10.2271       22.8554       33.0824       5.951759       0.00000
   8     437.6       26.7592       10.9440       21.7670       32.7110       5.951759      -0.00000
   7     480.5       26.3761       11.6724       20.6555       32.3279       5.951759       0.00000
   6     533.0       25.9251       12.5140       19.3628       31.8768       5.951759      -0.00000
   5     589.8       25.4624       13.3581       18.0560       31.4141       5.951759       0.00000
   4     651.6       24.9903       14.1971       16.7450       30.9420       5.951759       0.00000
   3     718.7       24.5104       15.0249       15.4373       30.4621       5.951759      -0.00000
   2     792.3       24.0264       15.8307       14.1475       29.9781       5.951759       0.00000
   1     891.5       23.4175       16.7977       12.5716       29.3693       5.951759       0.00000
   0    1013.0       22.7453       17.7970       10.9001       28.6971       5.951759      -0.00000



 Wavenumbers: 29000. - 38000. cm-1, ATM      1
 LEVEL PRESSURE   UPWARD FLUX   DIFDOWN FLUX  DIRDOWN FLUX  DOWNWARD FLUX   NET FLUX    HEATING RATE
          mb          W/m2          W/m2          W/m2        W/m2          W/m2       degree/day
  51    .06700        4.7043        0.0000       13.4026       13.4026       8.698333       0.00000
  50    .07753        4.7040        0.0003       13.3983       13.3986       8.694535       3.04421
  49    .09103        4.7038        0.0007       13.3921       13.3928       8.689016       3.44947
  48    0.1069        4.7035        0.0011       13.3840       13.3851       8.681640       3.92653
  47    0.1255        4.7031        0.0016       13.3733       13.3749       8.671795       4.46291
  46    0.1487        4.7027        0.0022       13.3579       13.3600       8.657354       5.26406
  45    0.1794        4.7021        0.0030       13.3340       13.3371       8.634956       6.14888
  44    0.2165        4.7014        0.0040       13.3024       13.3064       8.604939       6.82832
  43    0.2613        4.7007        0.0051       13.2604       13.2655       8.564887       7.54960
  42    0.3336        4.6994        0.0070       13.1833       13.1903       8.490886       8.62781
  41    0.4307        4.6978        0.0095       13.0729       13.0824       8.384522       9.24810
  40    0.5894        4.6954        0.0133       12.8796       12.8929       8.197495       9.94587
  39     1.339        4.6868        0.0295       11.9165       11.9460       7.259278      10.56262
  38     1.782        4.6833        0.0378       11.4399       11.4777       6.794400       8.85053
  37     2.292        4.6806        0.0466       10.9796       11.0262       6.345613       7.43308
  36     2.964        4.6789        0.0574       10.4786       10.5361       5.857212       6.13092
  35     3.853        4.6790        0.0708        9.9429       10.0137       5.334709       4.95865
  34     5.035        4.6817        0.0875        9.4007        9.4882       4.806494       3.77334
  33     6.613        4.6871        0.1087        8.8752        8.9839       4.296812       2.72476
  32     8.786        4.6945        0.1360        8.3786        8.5145       3.819994       1.85179
  31     11.80        4.7035        0.1734        7.8897        8.0630       3.359533       1.28915
  30     15.07        4.7110        0.2120        7.5108        7.7228       3.011774       0.89785
  29     18.79        4.7178        0.2540        7.1776        7.4317       2.713890       0.67539
  28     23.16        4.7236        0.3014        6.8664        7.1678       2.444200       0.52149
  27     28.12        4.7278        0.3537        6.5780        6.9317       2.203893       0.40851
  26     33.73        4.7281        0.4106        6.3195        6.7301       2.002055       0.30347
  25     40.54        4.7230        0.4778        6.0663        6.5441       1.821047       0.22456
  24     48.69        4.7121        0.5565        5.8128        6.3693       1.657180       0.16958
  23     57.69        4.6956        0.6404        5.5777        6.2181       1.522542       0.12620
  22     68.43        4.6708        0.7375        5.3379        6.0753       1.404534       0.09277
  21     81.20        4.6338        0.8500        5.0965        5.9465       1.312750       0.06065
  20     96.49        4.5831        0.9799        4.8476        5.8276       1.244452       0.03770
  19     114.6        4.5218        1.1270        4.5799        5.7069       1.185050       0.02774
  18     136.5        4.4508        1.2911        4.2891        5.5802       1.129422       0.02139
  17     162.9        4.3696        1.4729        3.9732        5.4461       1.076449       0.01693
  16     196.4        4.2669        1.6902        3.6080        5.2982       1.031228       0.01138
  15     218.7        4.2022        1.8221        3.3898        5.2119       1.009726       0.00816
  14     243.0        4.1347        1.9564        3.1686        5.1250       0.990241       0.00676
  13     269.0        4.0649        2.0918        2.9461        5.0379       0.973073       0.00557
  12     297.5        3.9930        2.2273        2.7239        4.9512       0.958239       0.00440
  11     328.5        3.9198        2.3613        2.5029        4.8642       0.944324       0.00378
  10     361.9        3.8459        2.4926        2.2846        4.7772       0.931348       0.00328
   9     398.1        3.7715        2.6200        2.0708        4.6908       0.919304       0.00281
   8     437.6        3.6972        2.7421        1.8631        4.6052       0.907936       0.00243
   7     480.5        3.6232        2.8580        1.6626        4.5206       0.897362       0.00208
   6     533.0        3.5395        2.9811        1.4445        4.4256       0.886087       0.00181
   5     589.8        3.4574        3.0927        1.2402        4.3328       0.875423       0.00158
   4     651.6        3.3774        3.1910        1.0515        4.2426       0.865222       0.00139
   3     718.7        3.2996        3.2752        0.8798        4.1550       0.855450       0.00123
   2     792.3        3.2243        3.3447        0.7257        4.0704       0.846086       0.00107
   1     891.5        3.1335        3.4100        0.5584        3.9683       0.834796       0.00096
   0    1013.0        3.0376        3.4541        0.4061        3.8603       0.822668       0.00084



 Wavenumbers: 38000. - 50000. cm-1, ATM      1
 LEVEL PRESSURE   UPWARD FLUX   DIFDOWN FLUX  DIRDOWN FLUX  DOWNWARD FLUX   NET FLUX    HEATING RATE
          mb          W/m2          W/m2          W/m2        W/m2          W/m2       degree/day
  51    .06700        0.0051        0.0000        0.8267        0.8267       0.821528       0.00000
  50    .07753        0.0051        0.0001        0.8242        0.8243       0.819196       1.86936
  49    .09103        0.0050        0.0002        0.8207        0.8209       0.815872       2.07705
  48    0.1069        0.0049        0.0002        0.8162        0.8164       0.811514       2.31984
  47    0.1255        0.0048        0.0004        0.8103        0.8106       0.805801       2.59006
  46    0.1487        0.0047        0.0005        0.8018        0.8023       0.797567       3.00143
  45    0.1794        0.0045        0.0007        0.7889        0.7896       0.785013       3.44648
  44    0.2165        0.0044        0.0009        0.7720        0.7729       0.768507       3.75474
  43    0.2613        0.0042        0.0011        0.7500        0.7511       0.746955       4.06246
  42    0.3336        0.0039        0.0015        0.7106        0.7121       0.708267       4.51071
  41    0.4307        0.0035        0.0019        0.6566        0.6584       0.654972       4.63387
  40    0.5894        0.0029        0.0024        0.5680        0.5704       0.567464       4.65357
  39     1.339        0.0015        0.0030        0.2422        0.2452       0.243720       3.64476
  38     1.782        0.0010        0.0026        0.1493        0.1519       0.150889       1.76735
  37     2.292        0.0007        0.0022        0.0924        0.0946       0.093932       0.94336
  36     2.964        0.0005        0.0018        0.0539        0.0557       0.055224       0.48589
  35     3.853        0.0003        0.0013        0.0295        0.0308       0.030502       0.23462
  34     5.035        0.0002        0.0010        0.0154        0.0164       0.016181       0.10230
  33     6.613        0.0001        0.0007        0.0073        0.0080       0.007912       0.04420
  32     8.786        0.0000        0.0004        0.0030        0.0034       0.003390       0.01756
  31     11.80        0.0000        0.0003        0.0010        0.0012       0.001199       0.00613
  30     15.07        0.0000        0.0001        0.0003        0.0005       0.000463       0.00190
  29     18.79        0.0000        0.0001        0.0001        0.0002       0.000182       0.00064
  28     23.16        0.0000        0.0000        0.0000        0.0001       0.000071       0.00022
  27     28.12        0.0000        0.0000        0.0000        0.0000       0.000028       0.00007
  26     33.73        0.0000        0.0000        0.0000        0.0000       0.000011       0.00002
  25     40.54        0.0000        0.0000        0.0000        0.0000       0.000005       0.00001
  24     48.69        0.0000        0.0000        0.0000        0.0000       0.000002       0.00000
  23     57.69        0.0000        0.0000        0.0000        0.0000       0.000001       0.00000
  22     68.43        0.0000        0.0000        0.0000        0.0000       0.000000       0.00000
  21     81.20        0.0000        0.0000        0.0000        0.0000       0.000000       0.00000
  20     96.49        0.0000        0.0000        0.0000        0.0000       0.000000       0.00000
  19     114.6        0.0000        0.0000        0.0000        0.0000       0.000000       0.00000
  18     136.5        0.0000        0.0000        0.0000        0.0000       0.000000       0.00000
  17     162.9        0.0000        0.0000        0.0000        0.0000       0.000000       0.00000
  16     196.4        0.0000        0.0000        0.0000        0.0000       0.000000       0.00000
  15     218.7        0.0000        0.0000        0.0000        0.0000       0.000000       0.00000
  14     243.0        0.0000        0.0000        0.0000        0.0000       0.000000       0.00000
  13     269.0        0.0000        0.0000        0.0000        0.0000       0.000000       0.00000
  12     297.5        0.0000        0.0000        0.0000        0.0000       0.000000       0.00000
  11     328.5        0.0000        0.0000        0.0000        0.0000       0.000000       0.00000
  10     361.9        0.0000        0.0000        0.0000        0.0000       0.000000       0.00000
   9     398.1        0.0000        0.0000        0.0000        0.0000       0.000000       0.00000
   8     437.6        0.0000        0.0000        0.0000        0.0000       0.000000       0.00000
   7     480.5        0.0000        0.0000        0.0000        0.0000       0.000000       0.00000
   6     533.0        0.0000        0.0000        0.0000        0.0000       0.000000       0.00000
   5     589.8        0.0000        0.0000        0.0000        0.0000       0.000000       0.00000
   4     651.6        0.0000        0.0000        0.0000        0.0000       0.000000       0.00000
   3     718.7        0.0000        0.0000        0.0000        0.0000       0.000000       0.00000
   2     792.3        0.0000        0.0000        0.0000        0.0000       0.000000       0.00000
   1     891.5        0.0000        0.0000        0.0000        0.0000       0.000000       0.00000
   0    1013.0        0.0000        0.0000        0.0000        0.0000       0.000000       0.00000



 Wavenumbers:   820. -  2600. cm-1, ATM      1
 LEVEL PRESSURE   UPWARD FLUX   DIFDOWN FLUX  DIRDOWN FLUX  DOWNWARD FLUX   NET FLUX    HEATING RATE
          mb          W/m2          W/m2          W/m2        W/m2          W/m2       degree/day
  51    .06700        0.3224        0.0000        3.8670        3.8670       3.544619       0.00000
  50    .07753        0.3224        0.0000        3.8643        3.8643       3.541934       2.15199
  49    .09103        0.3224        0.0000        3.8636        3.8636       3.541166       0.48019
  48    0.1069        0.3224        0.0000        3.8627        3.8627       3.540325       0.44749
  47    0.1255        0.3224        0.0000        3.8618        3.8618       3.539424       0.40849
  46    0.1487        0.3224        0.0000        3.8608        3.8608       3.538393       0.37581
  45    0.1794        0.3224        0.0000        3.8596        3.8596       3.537170       0.33595
  44    0.2165        0.3224        0.0000        3.8583        3.8583       3.535929       0.28235
  43    0.2613        0.3224        0.0000        3.8570        3.8570       3.534636       0.24371
  42    0.3336        0.3224        0.0000        3.8551        3.8551       3.532690       0.22689
  41    0.4307        0.3224        0.0000        3.8526        3.8526       3.530197       0.21672
  40    0.5894        0.3224        0.0000        3.8485        3.8485       3.526119       0.21684
  39     1.339        0.3224        0.0000        3.8302        3.8302       3.507793       0.20632
  38     1.782        0.3224        0.0000        3.8201        3.8201       3.497672       0.19270
  37     2.292        0.3224        0.0000        3.8088        3.8088       3.486441       0.18601
  36     2.964        0.3224        0.0000        3.7949        3.7949       3.472486       0.17517
  35     3.853        0.3224        0.0000        3.7774        3.7774       3.455039       0.16558
  34     5.035        0.3224        0.0000        3.7554        3.7554       3.432992       0.15749
  33     6.613        0.3224        0.0000        3.7272        3.7272       3.404787       0.15079
  32     8.786        0.3224        0.0000        3.6924        3.6924       3.370014       0.13505
  31     11.80        0.3224        0.0000        3.6526        3.6527       3.330243       0.11135
  30     15.07        0.3224        0.0000        3.6230        3.6230       3.300574       0.07660
  29     18.79        0.3224        0.0000        3.6008        3.6008       3.278402       0.05027
  28     23.16        0.3224        0.0000        3.5826        3.5826       3.260195       0.03521
  27     28.12        0.3224        0.0000        3.5653        3.5653       3.242840       0.02950
  26     33.73        0.3224        0.0000        3.5469        3.5469       3.224436       0.02767
  25     40.54        0.3224        0.0000        3.5251        3.5251       3.202632       0.02705
  24     48.69        0.3224        0.0000        3.4992        3.4992       3.176757       0.02678
  23     57.69        0.3225        0.0000        3.4714        3.4714       3.148971       0.02605
  22     68.43        0.3225        0.0000        3.4395        3.4395       3.117037       0.02510
  21     81.20        0.3225        0.0000        3.4035        3.4035       3.081009       0.02381
  20     96.49        0.3225        0.0000        3.3631        3.3631       3.040567       0.02232
  19     114.6        0.3225        0.0000        3.3181        3.3181       2.995550       0.02102
  18     136.5        0.3226        0.0000        3.2670        3.2670       2.944423       0.01966
  17     162.9        0.3226        0.0000        3.2031        3.2032       2.880552       0.02042
  16     196.4        0.3227        0.0000        3.1128        3.1128       2.790123       0.02276
  15     218.7        0.3228        0.0000        3.0548        3.0548       2.732049       0.02205
  14     243.0        0.3229        0.0000        2.9839        2.9840       2.661117       0.02460
  13     269.0        0.3230        0.0000        2.8895        2.8895       2.566539       0.03068
  12     297.5        0.3233        0.0000        2.7724        2.7724       2.449190       0.03480
  11     328.5        0.3236        0.0000        2.6164        2.6165       2.292855       0.04251
  10     361.9        0.3242        0.0000        2.4248        2.4248       2.100627       0.04864
   9     398.1        0.3249        0.0000        2.2352        2.2352       1.910349       0.04433
   8     437.6        0.3259        0.0000        2.0820        2.0821       1.756171       0.03296
   7     480.5        0.3272        0.0000        1.9713        1.9713       1.644111       0.02201
   6     533.0        0.3293        0.0000        1.8669        1.8670       1.537657       0.01713
   5     589.8        0.3322        0.0000        1.7570        1.7571       1.424898       0.01674
   4     651.6        0.3362        0.0000        1.6421        1.6422       1.305947       0.01627
   3     718.7        0.3414        0.0000        1.5374        1.5375       1.196058       0.01381
   2     792.3        0.3478        0.0000        1.4491        1.4492       1.101429       0.01085
   1     891.5        0.3581        0.0000        1.3505        1.3506       0.992505       0.00927
   0    1013.0        0.3759        0.0001        1.2323        1.2324       0.856504       0.00944

  Modules and versions used in this calculation:

       rrtmg_sw.1col.f90:  $Revision$                    rrtmg_sw_init.f90:  $Revision$        
     rrtmgsw_cldprop.f90:  $Revision$                  rrtmgsw_cldprmc.f90:  NOT USED          
     rrtmg_sw_reftra.f90:  $Revision$                  rrtmg_sw_spcvrt.f90:  NOT USED          
     rrtmg_sw_spcvmc.f90:  NOT USED                    rrtmgsw_setcoef.f90:  NOT USED          
     rrtmg_sw_taumol.f90:  $Revision$                  rrtmg_sw_vrtqdr.f90:  NOT USED          
                rrtatm.f:  NOT USED                             util_xxx.f:  NOT USED          
                 extra.f:  NOT USED                       rrtmg_sw_k_g.f90:  $Revision$        

