

 Wavenumbers:   820. - 50000. cm-1, ATM      1
 LEVEL PRESSURE   UPWARD FLUX   DIFDOWN FLUX  DIRDOWN FLUX  DOWNWARD FLUX   NET FLUX    HEATING RATE
          mb          W/m2          W/m2          W/m2        W/m2          W/m2       degree/day
  51    .06700      182.2188        0.0000      397.8738      397.8738     215.655032       0.00000
  50    .07753      182.2181        0.0011      397.8580      397.8591     215.640983      11.26102
  49    .09103      182.2173        0.0026      397.8423      397.8449     215.627583       8.37539
  48    0.1069      182.2165        0.0042      397.8238      397.8280     215.611553       8.53276
  47    0.1255      182.2155        0.0061      397.8008      397.8069     215.591466       9.10644
  46    0.1487      182.2143        0.0085      397.7692      397.7777     215.563451      10.21169
  45    0.1794      182.2127        0.0118      397.7226      397.7344     215.521763      11.44444
  44    0.2165      182.2108        0.0156      397.6630      397.6787     215.467846      12.26520
  43    0.2613      182.2087        0.0202      397.5865      397.6067     215.397946      13.17580
  42    0.3336      182.2055        0.0276      397.4499      397.4775     215.272047      14.67853
  41    0.4307      182.2014        0.0374      397.2593      397.2966     215.095285      15.36912
  40    0.5894      182.1953        0.0531      396.9352      396.9883     214.792999      16.07520
  39     1.339      182.1770        0.1233      395.4478      395.5711     213.394102      15.74903
  38     1.782      182.1733        0.1626      394.7579      394.9205     212.747264      12.31475
  37     2.292      182.1750        0.2073      394.0938      394.3011     212.126037      10.28914
  36     2.964      182.1864        0.2653      393.3466      393.6120     211.425602       8.79258
  35     3.853      182.2139        0.3412      392.4894      392.8306     210.616717       7.67647
  34     5.035      182.2629        0.4410      391.5159      391.9568     209.693937       6.59196
  33     6.613      182.3352        0.5731      390.4151      390.9882     208.653028       5.56470
  32     8.786      182.4279        0.7498      389.1696      389.9194     207.491471       4.51107
  31     11.80      182.5398        1.0005      387.6799      388.6803     206.140564       3.78211
  30     15.07      182.6356        1.2674      386.3072      387.5745     204.938926       3.10239
  29     18.79      182.7223        1.5664      384.9249      386.4913     203.769042       2.65249
  28     23.16      182.7986        1.9129      383.4689      385.3818     202.583150       2.29313
  27     28.12      182.8568        2.3057      381.9602      384.2659     201.409081       1.99584
  26     33.73      182.8792        2.7420      380.4528      383.1948     200.315620       1.64405
  25     40.54      182.8567        3.2651      378.8228      382.0879     199.231145       1.34541
  24     48.69      182.7823        3.8900      377.0383      380.9283     198.145978       1.12298
  23     57.69      182.6553        4.5697      375.2440      379.8137     197.158397       0.92571
  22     68.43      182.4557        5.3708      373.2791      378.6498     196.194194       0.75799
  21     81.20      182.1508        6.3146      371.1597      377.4743     195.323505       0.57534
  20     96.49      181.7274        7.4245      368.8473      376.2717     194.544343       0.43004
  19     114.6      181.2038        8.7200      366.2417      374.9617     193.757946       0.36719
  18     136.5      180.5721       10.2237      363.2837      373.5074     192.935365       0.31630
  17     162.9      179.8155       11.9704      359.8804      371.8508     192.035280       0.28770
  16     196.4      178.8139       14.1707      355.6245      369.7951     190.981284       0.26530
  15     218.7      178.1545       15.5768      352.8576      368.4343     190.279805       0.26633
  14     243.0      177.4434       17.0715      349.7801      366.8516     189.408257       0.30228
  13     269.0      176.6800       18.6531      346.2088      364.8619     188.181913       0.39782
  12     297.5      175.8649       20.3191      342.0793      362.3984     186.533474       0.48891
  11     328.5      175.0009       22.0709      337.3537      359.4246     184.423722       0.57364
  10     361.9      174.0906       23.9028      332.1391      356.0420     181.951338       0.62554
   9     398.1      173.1347       25.8150      326.4853      352.3004     179.165698       0.64899
   8     437.6      172.1380       27.8019      320.2997      348.1016     175.963638       0.68462
   7     480.5      171.1064       29.8595      313.4582      343.3177     172.211219       0.73696
   6     533.0      169.8910       32.2945      305.1466      337.4412     167.550127       0.74982
   5     589.8      168.6515       34.8058      296.5175      331.3233     162.671850       0.72410
   4     651.6      167.4074       37.3825      287.6041      324.9865     157.579117       0.69644
   3     718.7      166.1701       40.0161      278.7010      318.7171     152.546984       0.63240
   2     792.3      164.9519       42.6928      269.9956      312.6884     147.736484       0.55171
   1     891.5      163.4998       46.0889      259.1928      305.2817     141.781902       0.50671
   0    1013.0      162.1548       49.8638      246.9346      296.7984     134.643586       0.49565



 Wavenumbers:  2600. -  3250. cm-1, ATM      1
 LEVEL PRESSURE   UPWARD FLUX   DIFDOWN FLUX  DIRDOWN FLUX  DOWNWARD FLUX   NET FLUX    HEATING RATE
          mb          W/m2          W/m2          W/m2        W/m2          W/m2       degree/day
  51    .06700        0.4787        0.0000        3.5066        3.5066       3.027942       0.00000
  50    .07753        0.4787        0.0000        3.5066        3.5066       3.027934       0.00640
  49    .09103        0.4787        0.0000        3.5066        3.5066       3.027924       0.00627
  48    0.1069        0.4787        0.0000        3.5066        3.5066       3.027912       0.00613
  47    0.1255        0.4787        0.0000        3.5066        3.5066       3.027899       0.00599
  46    0.1487        0.4787        0.0000        3.5066        3.5066       3.027882       0.00607
  45    0.1794        0.4787        0.0000        3.5065        3.5065       3.027860       0.00624
  44    0.2165        0.4787        0.0000        3.5065        3.5065       3.027833       0.00611
  43    0.2613        0.4787        0.0000        3.5065        3.5065       3.027801       0.00598
  42    0.3336        0.4787        0.0000        3.5064        3.5064       3.027748       0.00615
  41    0.4307        0.4787        0.0000        3.5064        3.5064       3.027677       0.00618
  40    0.5894        0.4787        0.0000        3.5062        3.5062       3.027558       0.00633
  39     1.339        0.4787        0.0000        3.5055        3.5055       3.026859       0.00787
  38     1.782        0.4787        0.0000        3.5050        3.5050       3.026329       0.01011
  37     2.292        0.4787        0.0000        3.5043        3.5043       3.025636       0.01147
  36     2.964        0.4787        0.0000        3.5033        3.5033       3.024645       0.01245
  35     3.853        0.4787        0.0000        3.5019        3.5019       3.023268       0.01307
  34     5.035        0.4787        0.0000        3.5001        3.5001       3.021407       0.01329
  33     6.613        0.4787        0.0000        3.4977        3.4977       3.018997       0.01288
  32     8.786        0.4787        0.0000        3.4947        3.4947       3.016026       0.01154
  31     11.80        0.4787        0.0000        3.4911        3.4911       3.012390       0.01018
  30     15.07        0.4787        0.0000        3.4878        3.4878       3.009168       0.00832
  29     18.79        0.4787        0.0000        3.4848        3.4848       3.006104       0.00695
  28     23.16        0.4787        0.0000        3.4816        3.4816       3.002883       0.00623
  27     28.12        0.4787        0.0000        3.4779        3.4779       2.999263       0.00615
  26     33.73        0.4787        0.0000        3.4735        3.4735       2.994793       0.00672
  25     40.54        0.4787        0.0000        3.4671        3.4671       2.988463       0.00785
  24     48.69        0.4787        0.0000        3.4582        3.4583       2.979562       0.00921
  23     57.69        0.4787        0.0000        3.4472        3.4472       2.968504       0.01036
  22     68.43        0.4787        0.0000        3.4329        3.4329       2.954231       0.01122
  21     81.20        0.4787        0.0000        3.4152        3.4152       2.936484       0.01173
  20     96.49        0.4788        0.0000        3.3940        3.3941       2.915313       0.01168
  19     114.6        0.4788        0.0000        3.3698        3.3698       2.891016       0.01134
  18     136.5        0.4789        0.0001        3.3433        3.3434       2.864482       0.01020
  17     162.9        0.4790        0.0001        3.3155        3.3155       2.836575       0.00892
  16     196.4        0.4791        0.0001        3.2850        3.2851       2.806008       0.00769
  15     218.7        0.4792        0.0001        3.2675        3.2676       2.788386       0.00669
  14     243.0        0.4794        0.0001        3.2493        3.2494       2.770039       0.00636
  13     269.0        0.4796        0.0001        3.2278        3.2279       2.748331       0.00704
  12     297.5        0.4800        0.0001        3.2012        3.2013       2.721278       0.00802
  11     328.5        0.4805        0.0001        3.1678        3.1679       2.687431       0.00920
  10     361.9        0.4812        0.0001        3.1253        3.1255       2.644238       0.01093
   9     398.1        0.4822        0.0001        3.0709        3.0710       2.588788       0.01292
   8     437.6        0.4835        0.0002        3.0012        3.0013       2.517792       0.01518
   7     480.5        0.4854        0.0002        2.9113        2.9115       2.426020       0.01802
   6     533.0        0.4885        0.0002        2.7861        2.7863       2.297848       0.02062
   5     589.8        0.4927        0.0002        2.6451        2.6453       2.152588       0.02156
   4     651.6        0.4986        0.0002        2.4948        2.4950       1.996442       0.02135
   3     718.7        0.5065        0.0002        2.3481        2.3483       1.841886       0.01942
   2     792.3        0.5165        0.0002        2.2098        2.2100       1.693532       0.01701
   1     891.5        0.5333        0.0002        2.0402        2.0404       1.507077       0.01587
   0    1013.0        0.5619        0.0002        1.8422        1.8424       1.280509       0.01573



 Wavenumbers:  3250. -  4000. cm-1, ATM      1
 LEVEL PRESSURE   UPWARD FLUX   DIFDOWN FLUX  DIRDOWN FLUX  DOWNWARD FLUX   NET FLUX    HEATING RATE
          mb          W/m2          W/m2          W/m2        W/m2          W/m2       degree/day
  51    .06700        0.0365        0.0000        5.9117        5.9117       5.875115       0.00000
  50    .07753        0.0365        0.0000        5.9076        5.9076       5.871047       3.26049
  49    .09103        0.0365        0.0000        5.9053        5.9053       5.868735       1.44469
  48    0.1069        0.0365        0.0000        5.9035        5.9035       5.866998       0.92465
  47    0.1255        0.0365        0.0000        5.9019        5.9019       5.865369       0.73865
  46    0.1487        0.0365        0.0000        5.9002        5.9002       5.863623       0.63643
  45    0.1794        0.0365        0.0000        5.8982        5.8982       5.861649       0.54182
  44    0.2165        0.0365        0.0000        5.8963        5.8963       5.859732       0.43623
  43    0.2613        0.0365        0.0000        5.8944        5.8944       5.857812       0.36174
  42    0.3336        0.0365        0.0000        5.8916        5.8916       5.855059       0.32097
  41    0.4307        0.0365        0.0000        5.8883        5.8883       5.851755       0.28731
  40    0.5894        0.0365        0.0000        5.8832        5.8832       5.846709       0.26835
  39     1.339        0.0365        0.0000        5.8646        5.8646       5.828081       0.20972
  38     1.782        0.0365        0.0000        5.8568        5.8568       5.820293       0.14825
  37     2.292        0.0365        0.0000        5.8493        5.8493       5.812805       0.12402
  36     2.964        0.0365        0.0000        5.8406        5.8406       5.804112       0.10913
  35     3.853        0.0365        0.0000        5.8298        5.8298       5.793259       0.10299
  34     5.035        0.0365        0.0000        5.8155        5.8155       5.778938       0.10231
  33     6.613        0.0365        0.0000        5.7959        5.7959       5.759408       0.10441
  32     8.786        0.0365        0.0000        5.7685        5.7685       5.731991       0.10648
  31     11.80        0.0365        0.0000        5.7280        5.7281       5.691534       0.11327
  30     15.07        0.0365        0.0000        5.6839        5.6839       5.647369       0.11403
  29     18.79        0.0365        0.0000        5.6344        5.6344       5.597894       0.11217
  28     23.16        0.0365        0.0000        5.5793        5.5793       5.542827       0.10648
  27     28.12        0.0365        0.0000        5.5216        5.5216       5.485149       0.09805
  26     33.73        0.0365        0.0000        5.4640        5.4641       5.427600       0.08653
  25     40.54        0.0365        0.0001        5.4021        5.4021       5.365655       0.07685
  24     48.69        0.0365        0.0001        5.3339        5.3340       5.297529       0.07050
  23     57.69        0.0365        0.0001        5.2624        5.2625       5.226049       0.06700
  22     68.43        0.0364        0.0001        5.1791        5.1791       5.142691       0.06553
  21     81.20        0.0364        0.0001        5.0824        5.0825       5.046030       0.06387
  20     96.49        0.0364        0.0001        4.9734        4.9735       4.937096       0.06012
  19     114.6        0.0364        0.0001        4.8533        4.8535       4.817075       0.05604
  18     136.5        0.0364        0.0002        4.7244        4.7246       4.688210       0.04955
  17     162.9        0.0363        0.0002        4.5810        4.5812       4.544879       0.04581
  16     196.4        0.0363        0.0002        4.3984        4.3987       4.362349       0.04594
  15     218.7        0.0363        0.0002        4.2691        4.2693       4.233034       0.04910
  14     243.0        0.0363        0.0003        4.1022        4.1025       4.066193       0.05787
  13     269.0        0.0363        0.0003        3.8857        3.8860       3.849764       0.07021
  12     297.5        0.0363        0.0003        3.6260        3.6263       3.590036       0.07703
  11     328.5        0.0363        0.0003        3.3117        3.3120       3.275744       0.08546
  10     361.9        0.0363        0.0003        2.9554        2.9556       2.919319       0.09018
   9     398.1        0.0364        0.0003        2.5957        2.5960       2.559558       0.08382
   8     437.6        0.0367        0.0003        2.2544        2.2546       2.217978       0.07303
   7     480.5        0.0370        0.0003        1.9296        1.9299       1.892870       0.06385
   6     533.0        0.0378        0.0002        1.5952        1.5955       1.557664       0.05392
   5     589.8        0.0390        0.0002        1.2996        1.2999       1.260834       0.04406
   4     651.6        0.0411        0.0002        1.0360        1.0362       0.995161       0.03633
   3     718.7        0.0442        0.0002        0.8069        0.8071       0.762947       0.02918
   2     792.3        0.0487        0.0002        0.6160        0.6162       0.567514       0.02241
   1     891.5        0.0574        0.0001        0.4239        0.4241       0.366670       0.01709
   0    1013.0        0.0764        0.0001        0.2505        0.2506       0.174144       0.01337



 Wavenumbers:  4000. -  4650. cm-1, ATM      1
 LEVEL PRESSURE   UPWARD FLUX   DIFDOWN FLUX  DIRDOWN FLUX  DOWNWARD FLUX   NET FLUX    HEATING RATE
          mb          W/m2          W/m2          W/m2        W/m2          W/m2       degree/day
  51    .06700        1.4772        0.0000        6.9421        6.9421       5.464832       0.00000
  50    .07753        1.4772        0.0000        6.9421        6.9421       5.464831       0.00081
  49    .09103        1.4772        0.0000        6.9421        6.9421       5.464830       0.00079
  48    0.1069        1.4772        0.0000        6.9421        6.9421       5.464828       0.00077
  47    0.1255        1.4772        0.0000        6.9421        6.9421       5.464827       0.00076
  46    0.1487        1.4772        0.0000        6.9421        6.9421       5.464825       0.00077
  45    0.1794        1.4772        0.0000        6.9421        6.9421       5.464822       0.00079
  44    0.2165        1.4772        0.0000        6.9421        6.9421       5.464818       0.00077
  43    0.2613        1.4772        0.0000        6.9421        6.9421       5.464814       0.00076
  42    0.3336        1.4772        0.0000        6.9420        6.9420       5.464808       0.00078
  41    0.4307        1.4772        0.0000        6.9420        6.9420       5.464799       0.00078
  40    0.5894        1.4772        0.0000        6.9420        6.9420       5.464783       0.00081
  39     1.339        1.4772        0.0000        6.9419        6.9419       5.464693       0.00102
  38     1.782        1.4772        0.0000        6.9418        6.9419       5.464622       0.00135
  37     2.292        1.4772        0.0000        6.9417        6.9418       5.464527       0.00158
  36     2.964        1.4772        0.0000        6.9416        6.9416       5.464384       0.00178
  35     3.853        1.4772        0.0000        6.9414        6.9414       5.464174       0.00200
  34     5.035        1.4772        0.0000        6.9411        6.9411       5.463863       0.00222
  33     6.613        1.4772        0.0000        6.9406        6.9406       5.463407       0.00244
  32     8.786        1.4772        0.0000        6.9399        6.9399       5.462734       0.00261
  31     11.80        1.4772        0.0000        6.9388        6.9389       5.461679       0.00295
  30     15.07        1.4772        0.0001        6.9376        6.9376       5.460445       0.00319
  29     18.79        1.4772        0.0001        6.9361        6.9361       5.458957       0.00337
  28     23.16        1.4772        0.0001        6.9342        6.9343       5.457115       0.00356
  27     28.12        1.4772        0.0001        6.9320        6.9321       5.454895       0.00377
  26     33.73        1.4772        0.0001        6.9292        6.9293       5.452168       0.00410
  25     40.54        1.4772        0.0002        6.9255        6.9257       5.448489       0.00456
  24     48.69        1.4772        0.0002        6.9206        6.9208       5.443615       0.00504
  23     57.69        1.4772        0.0002        6.9148        6.9150       5.437875       0.00538
  22     68.43        1.4772        0.0003        6.9077        6.9079       5.430731       0.00562
  21     81.20        1.4772        0.0003        6.8989        6.8992       5.421986       0.00578
  20     96.49        1.4773        0.0004        6.8883        6.8887       5.411411       0.00584
  19     114.6        1.4774        0.0004        6.8756        6.8760       5.398649       0.00596
  18     136.5        1.4775        0.0005        6.8603        6.8608       5.383338       0.00589
  17     162.9        1.4777        0.0006        6.8418        6.8425       5.364788       0.00593
  16     196.4        1.4780        0.0007        6.8172        6.8180       5.339999       0.00624
  15     218.7        1.4783        0.0008        6.8003        6.8011       5.322857       0.00651
  14     243.0        1.4786        0.0009        6.7806        6.7815       5.302886       0.00693
  13     269.0        1.4792        0.0010        6.7564        6.7574       5.278217       0.00800
  12     297.5        1.4799        0.0011        6.7267        6.7278       5.247884       0.00900
  11     328.5        1.4809        0.0012        6.6900        6.6912       5.210315       0.01022
  10     361.9        1.4823        0.0013        6.6448        6.6462       5.163927       0.01174
   9     398.1        1.4841        0.0015        6.5889        6.5904       5.106273       0.01343
   8     437.6        1.4865        0.0016        6.5184        6.5200       5.033543       0.01555
   7     480.5        1.4897        0.0017        6.4291        6.4308       4.941110       0.01815
   6     533.0        1.4945        0.0019        6.3090        6.3110       4.816468       0.02005
   5     589.8        1.5008        0.0021        6.1767        6.1788       4.678004       0.02055
   4     651.6        1.5091        0.0023        6.0334        6.0356       4.526531       0.02071
   3     718.7        1.5200        0.0024        5.8803        5.8827       4.362746       0.02058
   2     792.3        1.5338        0.0026        5.7176        5.7202       4.186486       0.02022
   1     891.5        1.5567        0.0029        5.4978        5.5007       3.944032       0.02063
   0    1013.0        1.5955        0.0031        5.2286        5.2317       3.636223       0.02137



 Wavenumbers:  4650. -  5150. cm-1, ATM      1
 LEVEL PRESSURE   UPWARD FLUX   DIFDOWN FLUX  DIRDOWN FLUX  DOWNWARD FLUX   NET FLUX    HEATING RATE
          mb          W/m2          W/m2          W/m2        W/m2          W/m2       degree/day
  51    .06700        0.9920        0.0000        6.5710        6.5710       5.578981       0.00000
  50    .07753        0.9920        0.0000        6.5708        6.5708       5.578750       0.18523
  49    .09103        0.9920        0.0000        6.5705        6.5705       5.578462       0.18009
  48    0.1069        0.9920        0.0000        6.5701        6.5701       5.578134       0.17465
  47    0.1255        0.9920        0.0000        6.5698        6.5698       5.577761       0.16909
  46    0.1487        0.9920        0.0000        6.5693        6.5693       5.577296       0.16940
  45    0.1794        0.9920        0.0000        6.5687        6.5687       5.576672       0.17143
  44    0.2165        0.9920        0.0000        6.5680        6.5680       5.575948       0.16471
  43    0.2613        0.9920        0.0000        6.5671        6.5671       5.575111       0.15777
  42    0.3336        0.9920        0.0000        6.5658        6.5658       5.573773       0.15598
  41    0.4307        0.9920        0.0000        6.5641        6.5641       5.572083       0.14695
  40    0.5894        0.9920        0.0000        6.5615        6.5615       5.569514       0.13660
  39     1.339        0.9920        0.0000        6.5519        6.5519       5.559908       0.10815
  38     1.782        0.9920        0.0000        6.5478        6.5478       5.555762       0.07893
  37     2.292        0.9920        0.0000        6.5439        6.5439       5.551936       0.06336
  36     2.964        0.9920        0.0000        6.5400        6.5400       5.548039       0.04892
  35     3.853        0.9920        0.0000        6.5361        6.5361       5.544147       0.03694
  34     5.035        0.9920        0.0000        6.5321        6.5322       5.540186       0.02829
  33     6.613        0.9920        0.0000        6.5278        6.5278       5.535827       0.02330
  32     8.786        0.9920        0.0001        6.5223        6.5223       5.530366       0.02121
  31     11.80        0.9920        0.0001        6.5142        6.5143       5.522331       0.02250
  30     15.07        0.9920        0.0001        6.5049        6.5050       5.513011       0.02406
  29     18.79        0.9919        0.0001        6.4934        6.4935       5.501554       0.02598
  28     23.16        0.9919        0.0001        6.4788        6.4790       5.487036       0.02807
  27     28.12        0.9919        0.0002        6.4609        6.4611       5.469149       0.03041
  26     33.73        0.9919        0.0002        6.4396        6.4398       5.447823       0.03207
  25     40.54        0.9919        0.0002        6.4125        6.4128       5.420827       0.03349
  24     48.69        0.9920        0.0003        6.3790        6.3793       5.387347       0.03465
  23     57.69        0.9920        0.0003        6.3421        6.3424       5.350422       0.03461
  22     68.43        0.9920        0.0004        6.2990        6.2994       5.307417       0.03381
  21     81.20        0.9921        0.0005        6.2504        6.2509       5.258796       0.03213
  20     96.49        0.9922        0.0005        6.1973        6.1978       5.205613       0.02935
  19     114.6        0.9923        0.0006        6.1410        6.1416       5.149259       0.02631
  18     136.5        0.9926        0.0008        6.0822        6.0830       5.090413       0.02263
  17     162.9        0.9929        0.0009        6.0199        6.0207       5.027828       0.02000
  16     196.4        0.9934        0.0011        5.9449        5.9459       4.952465       0.01897
  15     218.7        0.9939        0.0012        5.8961        5.8973       4.903398       0.01863
  14     243.0        0.9944        0.0013        5.8419        5.8432       4.848772       0.01895
  13     269.0        0.9951        0.0014        5.7807        5.7821       4.786950       0.02005
  12     297.5        0.9960        0.0016        5.7106        5.7121       4.716094       0.02102
  11     328.5        0.9972        0.0017        5.6298        5.6315       4.634306       0.02224
  10     361.9        0.9988        0.0018        5.5365        5.5383       4.539527       0.02398
   9     398.1        1.0009        0.0020        5.4287        5.4307       4.429854       0.02555
   8     437.6        1.0036        0.0022        5.3065        5.3087       4.305125       0.02667
   7     480.5        1.0071        0.0023        5.1683        5.1706       4.163529       0.02781
   6     533.0        1.0124        0.0025        4.9922        4.9947       3.982271       0.02916
   5     589.8        1.0194        0.0027        4.8019        4.8046       3.785132       0.02926
   4     651.6        1.0287        0.0029        4.5997        4.6026       3.573856       0.02889
   3     718.7        1.0407        0.0031        4.3949        4.3980       3.357354       0.02721
   2     792.3        1.0558        0.0033        4.1936        4.1969       3.141067       0.02481
   1     891.5        1.0807        0.0035        3.9460        3.9495       2.868752       0.02317
   0    1013.0        1.1206        0.0037        3.6709        3.6747       2.554090       0.02185



 Wavenumbers:  5150. -  6150. cm-1, ATM      1
 LEVEL PRESSURE   UPWARD FLUX   DIFDOWN FLUX  DIRDOWN FLUX  DOWNWARD FLUX   NET FLUX    HEATING RATE
          mb          W/m2          W/m2          W/m2        W/m2          W/m2       degree/day
  51    .06700        2.6080        0.0000       16.4735       16.4735      13.865501       0.00000
  50    .07753        2.6080        0.0000       16.4735       16.4735      13.865494       0.00568
  49    .09103        2.6080        0.0000       16.4735       16.4735      13.865485       0.00578
  48    0.1069        2.6080        0.0000       16.4735       16.4735      13.865474       0.00587
  47    0.1255        2.6080        0.0000       16.4735       16.4735      13.865460       0.00596
  46    0.1487        2.6080        0.0000       16.4734       16.4734      13.865443       0.00628
  45    0.1794        2.6080        0.0000       16.4734       16.4734      13.865419       0.00670
  44    0.2165        2.6080        0.0000       16.4734       16.4734      13.865389       0.00683
  43    0.2613        2.6080        0.0000       16.4733       16.4734      13.865352       0.00692
  42    0.3336        2.6080        0.0000       16.4733       16.4733      13.865289       0.00731
  41    0.4307        2.6080        0.0000       16.4732       16.4732      13.865203       0.00749
  40    0.5894        2.6080        0.0000       16.4730       16.4731      13.865059       0.00768
  39     1.339        2.6080        0.0000       16.4723       16.4723      13.864347       0.00801
  38     1.782        2.6080        0.0000       16.4718       16.4719      13.863921       0.00811
  37     2.292        2.6080        0.0001       16.4713       16.4714      13.863425       0.00821
  36     2.964        2.6079        0.0001       16.4706       16.4707      13.862771       0.00821
  35     3.853        2.6079        0.0001       16.4697       16.4698      13.861903       0.00823
  34     5.035        2.6079        0.0001       16.4685       16.4687      13.860748       0.00825
  33     6.613        2.6079        0.0002       16.4669       16.4671      13.859203       0.00826
  32     8.786        2.6079        0.0002       16.4648       16.4650      13.857126       0.00807
  31     11.80        2.6078        0.0003       16.4617       16.4620      13.854173       0.00827
  30     15.07        2.6078        0.0004       16.4584       16.4588      13.851034       0.00811
  29     18.79        2.6077        0.0005       16.4547       16.4552      13.847532       0.00794
  28     23.16        2.6077        0.0006       16.4505       16.4512      13.843504       0.00779
  27     28.12        2.6076        0.0007       16.4458       16.4466      13.838976       0.00770
  26     33.73        2.6075        0.0009       16.4406       16.4415      13.833986       0.00750
  25     40.54        2.6075        0.0011       16.4345       16.4356      13.828081       0.00733
  24     48.69        2.6074        0.0013       16.4273       16.4285      13.821131       0.00719
  23     57.69        2.6074        0.0015       16.4196       16.4211      13.813773       0.00690
  22     68.43        2.6073        0.0018       16.4110       16.4128      13.805472       0.00653
  21     81.20        2.6072        0.0021       16.4010       16.4032      13.795947       0.00629
  20     96.49        2.6072        0.0025       16.3895       16.3920      13.784831       0.00614
  19     114.6        2.6071        0.0030       16.3756       16.3787      13.771548       0.00620
  18     136.5        2.6071        0.0036       16.3573       16.3609      13.753858       0.00680
  17     162.9        2.6070        0.0043       16.3262       16.3304      13.723446       0.00972
  16     196.4        2.6070        0.0051       16.2614       16.2666      13.659625       0.01606
  15     218.7        2.6069        0.0057       16.1975       16.2032      13.596287       0.02405
  14     243.0        2.6069        0.0063       16.0941       16.1004      13.493419       0.03568
  13     269.0        2.6070        0.0069       15.8895       15.8964      13.289411       0.06618
  12     297.5        2.6071        0.0076       15.5657       15.5733      12.966112       0.09589
  11     328.5        2.6074        0.0082       15.1588       15.1670      12.559610       0.11053
  10     361.9        2.6079        0.0088       14.7145       14.7233      12.115404       0.11239
   9     398.1        2.6086        0.0094       14.2072       14.2166      11.608028       0.11821
   8     437.6        2.6097        0.0100       13.6059       13.6159      11.006182       0.12868
   7     480.5        2.6114        0.0105       12.9211       12.9316      10.320200       0.13472
   6     533.0        2.6146        0.0111       12.1263       12.1374       9.522805       0.12828
   5     589.8        2.6195        0.0116       11.3759       11.3875       8.767989       0.11204
   4     651.6        2.6271        0.0122       10.7063       10.7184       8.091290       0.09254
   3     718.7        2.6381        0.0128       10.1648       10.1775       7.539390       0.06936
   2     792.3        2.6531        0.0135        9.7476        9.7611       7.108031       0.04947
   1     891.5        2.6798        0.0145        9.3370        9.3515       6.671749       0.03713
   0    1013.0        2.7300        0.0158        8.9379        8.9537       6.223652       0.03111



 Wavenumbers:  6150. -  7700. cm-1, ATM      1
 LEVEL PRESSURE   UPWARD FLUX   DIFDOWN FLUX  DIRDOWN FLUX  DOWNWARD FLUX   NET FLUX    HEATING RATE
          mb          W/m2          W/m2          W/m2        W/m2          W/m2       degree/day
  51    .06700        4.4141        0.0000       30.4684       30.4684      26.054304       0.00000
  50    .07753        4.4141        0.0000       30.4684       30.4684      26.054280       0.01871
  49    .09103        4.4141        0.0000       30.4683       30.4683      26.054251       0.01856
  48    0.1069        4.4141        0.0000       30.4683       30.4683      26.054216       0.01840
  47    0.1255        4.4141        0.0000       30.4682       30.4682      26.054176       0.01824
  46    0.1487        4.4141        0.0000       30.4682       30.4682      26.054124       0.01875
  45    0.1794        4.4141        0.0000       30.4681       30.4681      26.054053       0.01955
  44    0.2165        4.4141        0.0000       30.4680       30.4680      26.053968       0.01945
  43    0.2613        4.4141        0.0000       30.4679       30.4679      26.053865       0.01932
  42    0.3336        4.4141        0.0000       30.4677       30.4677      26.053693       0.02001
  41    0.4307        4.4140        0.0000       30.4675       30.4675      26.053463       0.02006
  40    0.5894        4.4140        0.0001       30.4670       30.4671      26.053082       0.02023
  39     1.339        4.4140        0.0001       30.4651       30.4652      26.051259       0.02052
  38     1.782        4.4139        0.0002       30.4639       30.4641      26.050187       0.02041
  37     2.292        4.4139        0.0002       30.4626       30.4628      26.048950       0.02050
  36     2.964        4.4138        0.0003       30.4608       30.4611      26.047330       0.02033
  35     3.853        4.4137        0.0004       30.4585       30.4589      26.045201       0.02021
  34     5.035        4.4136        0.0006       30.4554       30.4560      26.042389       0.02009
  33     6.613        4.4134        0.0007       30.4514       30.4521      26.038663       0.01992
  32     8.786        4.4132        0.0010       30.4460       30.4469      26.033701       0.01927
  31     11.80        4.4129        0.0013       30.4383       30.4396      26.026719       0.01955
  30     15.07        4.4126        0.0017       30.4303       30.4320      26.019373       0.01897
  29     18.79        4.4122        0.0021       30.4214       30.4235      26.011254       0.01841
  28     23.16        4.4118        0.0026       30.4112       30.4138      26.001999       0.01789
  27     28.12        4.4113        0.0031       30.3999       30.4030      25.991698       0.01751
  26     33.73        4.4108        0.0038       30.3876       30.3913      25.980514       0.01681
  25     40.54        4.4101        0.0045       30.3731       30.3776      25.967497       0.01615
  24     48.69        4.4093        0.0054       30.3564       30.3618      25.952451       0.01557
  23     57.69        4.4085        0.0064       30.3388       30.3452      25.936720       0.01475
  22     68.43        4.4074        0.0076       30.3189       30.3265      25.919037       0.01390
  21     81.20        4.4062        0.0090       30.2962       30.3052      25.899022       0.01323
  20     96.49        4.4047        0.0107       30.2702       30.2809      25.876180       0.01261
  19     114.6        4.4029        0.0127       30.2401       30.2528      25.849904       0.01227
  18     136.5        4.4009        0.0151       30.2035       30.2186      25.817726       0.01237
  17     162.9        4.3984        0.0179       30.1508       30.1688      25.770394       0.01513
  16     196.4        4.3952        0.0216       30.0536       30.0752      25.679986       0.02276
  15     218.7        4.3931        0.0240       29.9580       29.9820      25.588886       0.03459
  14     243.0        4.3910        0.0265       29.8027       29.8292      25.438251       0.05225
  13     269.0        4.3887        0.0292       29.5212       29.5504      25.161682       0.08972
  12     297.5        4.3865        0.0320       29.0754       29.1074      24.720897       0.13073
  11     328.5        4.3844        0.0348       28.4328       28.4676      24.083140       0.17340
  10     361.9        4.3827        0.0375       27.6520       27.6895      23.306722       0.19644
   9     398.1        4.3816        0.0402       26.7881       26.8283      22.446681       0.20037
   8     437.6        4.3816        0.0429       25.7945       25.8374      21.455761       0.21186
   7     480.5        4.3836        0.0454       24.6008       24.6461      20.262561       0.23434
   6     533.0        4.3893        0.0479       23.1374       23.1853      18.795967       0.23593
   5     589.8        4.4005        0.0502       21.6806       21.7308      17.330304       0.21755
   4     651.6        4.4202        0.0524       20.2656       20.3181      15.897893       0.19589
   3     718.7        4.4502        0.0547       18.9971       19.0518      14.601523       0.16292
   2     792.3        4.4924        0.0571       17.9051       17.9622      13.469839       0.12979
   1     891.5        4.5708        0.0604       16.7007       16.7611      12.190334       0.10888
   0    1013.0        4.7255        0.0640       15.4407       15.5047      10.779261       0.09798



 Wavenumbers:  7700. -  8050. cm-1, ATM      1
 LEVEL PRESSURE   UPWARD FLUX   DIFDOWN FLUX  DIRDOWN FLUX  DOWNWARD FLUX   NET FLUX    HEATING RATE
          mb          W/m2          W/m2          W/m2        W/m2          W/m2       degree/day
  51    .06700        1.7373        0.0000        7.2006        7.2006       5.463243       0.00000
  50    .07753        1.7373        0.0000        7.2006        7.2006       5.463224       0.01515
  49    .09103        1.7373        0.0000        7.2005        7.2005       5.463201       0.01484
  48    0.1069        1.7373        0.0000        7.2005        7.2005       5.463173       0.01453
  47    0.1255        1.7373        0.0000        7.2005        7.2005       5.463142       0.01422
  46    0.1487        1.7373        0.0000        7.2004        7.2005       5.463102       0.01443
  45    0.1794        1.7374        0.0000        7.2004        7.2004       5.463048       0.01485
  44    0.2165        1.7374        0.0000        7.2003        7.2003       5.462984       0.01456
  43    0.2613        1.7374        0.0000        7.2003        7.2003       5.462909       0.01429
  42    0.3336        1.7374        0.0000        7.2001        7.2001       5.462783       0.01462
  41    0.4307        1.7374        0.0000        7.2000        7.2000       5.462617       0.01446
  40    0.5894        1.7374        0.0000        7.1997        7.1997       5.462345       0.01444
  39     1.339        1.7374        0.0001        7.1984        7.1985       5.461061       0.01446
  38     1.782        1.7375        0.0001        7.1977        7.1978       5.460306       0.01436
  37     2.292        1.7375        0.0001        7.1968        7.1969       5.459433       0.01446
  36     2.964        1.7375        0.0001        7.1957        7.1958       5.458288       0.01438
  35     3.853        1.7376        0.0002        7.1942        7.1944       5.456775       0.01435
  34     5.035        1.7377        0.0002        7.1922        7.1924       5.454767       0.01434
  33     6.613        1.7378        0.0003        7.1896        7.1899       5.452087       0.01432
  32     8.786        1.7379        0.0004        7.1860        7.1864       5.448482       0.01400
  31     11.80        1.7381        0.0005        7.1809        7.1815       5.443336       0.01441
  30     15.07        1.7384        0.0007        7.1755        7.1762       5.437827       0.01422
  29     18.79        1.7386        0.0008        7.1694        7.1702       5.431623       0.01407
  28     23.16        1.7389        0.0010        7.1623        7.1633       5.424404       0.01396
  27     28.12        1.7392        0.0013        7.1542        7.1554       5.416186       0.01397
  26     33.73        1.7396        0.0015        7.1452        7.1467       5.407037       0.01376
  25     40.54        1.7401        0.0018        7.1343        7.1361       5.396051       0.01363
  24     48.69        1.7407        0.0022        7.1214        7.1236       5.382904       0.01360
  23     57.69        1.7413        0.0026        7.1073        7.1099       5.368586       0.01342
  22     68.43        1.7420        0.0030        7.0907        7.0937       5.351699       0.01328
  21     81.20        1.7429        0.0036        7.0712        7.0747       5.331814       0.01314
  20     96.49        1.7440        0.0043        7.0482        7.0525       5.308441       0.01290
  19     114.6        1.7453        0.0050        7.0214        7.0265       5.281134       0.01275
  18     136.5        1.7469        0.0060        6.9903        6.9963       5.249361       0.01222
  17     162.9        1.7488        0.0071        6.9541        6.9611       5.212320       0.01184
  16     196.4        1.7514        0.0085        6.9084        6.9169       5.165504       0.01178
  15     218.7        1.7531        0.0094        6.8790        6.8885       5.135415       0.01142
  14     243.0        1.7549        0.0105        6.8477        6.8582       5.103260       0.01115
  13     269.0        1.7570        0.0116        6.8145        6.8260       5.069005       0.01111
  12     297.5        1.7593        0.0127        6.7792        6.7920       5.032630       0.01079
  11     328.5        1.7619        0.0140        6.7418        6.7558       4.993865       0.01054
  10     361.9        1.7647        0.0154        6.7021        6.7175       4.952761       0.01040
   9     398.1        1.7679        0.0168        6.6602        6.6770       4.909124       0.01017
   8     437.6        1.7714        0.0184        6.6157        6.6341       4.862724       0.00992
   7     480.5        1.7753        0.0200        6.5685        6.5885       4.813226       0.00972
   6     533.0        1.7805        0.0221        6.5107        6.5328       4.752358       0.00979
   5     589.8        1.7864        0.0243        6.4486        6.4729       4.686518       0.00977
   4     651.6        1.7932        0.0266        6.3816        6.4082       4.615040       0.00977
   3     718.7        1.8010        0.0291        6.3095        6.3386       4.537664       0.00972
   2     792.3        1.8098        0.0318        6.2324        6.2642       4.454341       0.00956
   1     891.5        1.8227        0.0353        6.1281        6.1633       4.340590       0.00968
   0    1013.0        1.8400        0.0395        6.0002        6.0397       4.199726       0.00978



 Wavenumbers:  8050. - 12850. cm-1, ATM      1
 LEVEL PRESSURE   UPWARD FLUX   DIFDOWN FLUX  DIRDOWN FLUX  DOWNWARD FLUX   NET FLUX    HEATING RATE
          mb          W/m2          W/m2          W/m2        W/m2          W/m2       degree/day
  51    .06700       26.1842        0.0000      100.8135      100.8135      74.629326       0.00000
  50    .07753       26.1842        0.0000      100.8135      100.8135      74.629326       0.00000
  49    .09103       26.1841        0.0001      100.8134      100.8135      74.629326      -0.00000
  48    0.1069       26.1841        0.0001      100.8134      100.8134      74.629326       0.00000
  47    0.1255       26.1841        0.0001      100.8133      100.8134      74.629326      -0.00000
  46    0.1487       26.1840        0.0002      100.8132      100.8134      74.629326       0.00000
  45    0.1794       26.1840        0.0003      100.8131      100.8133      74.629326       0.00000
  44    0.2165       26.1839        0.0003      100.8129      100.8133      74.629326       0.00000
  43    0.2613       26.1839        0.0004      100.8127      100.8132      74.629326      -0.00000
  42    0.3336       26.1837        0.0006      100.8125      100.8131      74.629326       0.00000
  41    0.4307       26.1836        0.0008      100.8121      100.8129      74.629326      -0.00000
  40    0.5894       26.1833        0.0012      100.8115      100.8126      74.629326       0.00000
  39     1.339       26.1820        0.0028      100.8085      100.8113      74.629326       0.00000
  38     1.782       26.1812        0.0038      100.8068      100.8105      74.629326       0.00000
  37     2.292       26.1803        0.0049      100.8047      100.8097      74.629326      -0.00000
  36     2.964       26.1792        0.0064      100.8021      100.8085      74.629326       0.00000
  35     3.853       26.1776        0.0083      100.7986      100.8070      74.629326       0.00000
  34     5.035       26.1756        0.0109      100.7940      100.8049      74.629326       0.00000
  33     6.613       26.1729        0.0144      100.7878      100.8022      74.629326       0.00000
  32     8.786       26.1692        0.0191      100.7794      100.7985      74.629326       0.00000
  31     11.80       26.1639        0.0258      100.7674      100.7932      74.629326       0.00000
  30     15.07       26.1582        0.0330      100.7546      100.7875      74.629326      -0.00000
  29     18.79       26.1518        0.0411      100.7400      100.7811      74.629326       0.00000
  28     23.16       26.1443        0.0507      100.7230      100.7736      74.629326      -0.00000
  27     28.12       26.1357        0.0616      100.7035      100.7651      74.629326       0.00000
  26     33.73       26.1261        0.0738      100.6817      100.7554      74.629326       0.00000
  25     40.54       26.1145        0.0886      100.6552      100.7438      74.629326      -0.00000
  24     48.69       26.1004        0.1064      100.6234      100.7297      74.629326       0.00000
  23     57.69       26.0850        0.1260      100.5883      100.7143      74.629326       0.00000
  22     68.43       26.0665        0.1494      100.5464      100.6958      74.629326       0.00000
  21     81.20       26.0445        0.1773      100.4965      100.6738      74.629326       0.00000
  20     96.49       26.0182        0.2106      100.4370      100.6476      74.629326       0.00000
  19     114.6       25.9870        0.2502      100.3646      100.6148      74.627777       0.00072
  18     136.5       25.9499        0.2972      100.2782      100.5754      74.625530       0.00086
  17     162.9       25.9056        0.3533      100.1732      100.5265      74.620907       0.00148
  16     196.4       25.8481        0.4262      100.0300      100.4562      74.608153       0.00321
  15     218.7       25.8102        0.4742       99.9271      100.4013      74.591065       0.00649
  14     243.0       25.7691        0.5264       99.7972      100.3235      74.554447       0.01270
  13     269.0       25.7247        0.5829       99.6083      100.1912      74.466458       0.02854
  12     297.5       25.6773        0.6439       99.3424       99.9863      74.308977       0.04671
  11     328.5       25.6269        0.7097       98.9847       99.6944      74.067498       0.06566
  10     361.9       25.5740        0.7802       98.5369       99.3171      73.743061       0.08209
   9     398.1       25.5193        0.8558       97.9951       98.8508      73.331539       0.09588
   8     437.6       25.4640        0.9365       97.3199       98.2564      72.792344       0.11528
   7     480.5       25.4109        1.0219       96.4368       97.4588      72.047847       0.14622
   6     533.0       25.3558        1.1255       95.1797       96.3052      70.949409       0.17670
   5     589.8       25.3114        1.2351       93.6703       94.9054      69.593982       0.20119
   4     651.6       25.2855        1.3501       91.8963       93.2464      67.960938       0.22332
   3     718.7       25.2820        1.4710       89.9707       91.4417      66.159652       0.22637
   2     792.3       25.3038        1.5982       88.0075       89.6058      64.301963       0.21306
   1     891.5       25.3850        1.7663       85.4652       87.2315      61.846540       0.20894
   0    1013.0       25.6126        1.9604       82.3644       84.3248      58.712209       0.21763



 Wavenumbers: 12850. - 16000. cm-1, ATM      1
 LEVEL PRESSURE   UPWARD FLUX   DIFDOWN FLUX  DIRDOWN FLUX  DOWNWARD FLUX   NET FLUX    HEATING RATE
          mb          W/m2          W/m2          W/m2        W/m2          W/m2       degree/day
  51    .06700       33.0050        0.0000       63.1686       63.1686      30.163616       0.00000
  50    .07753       33.0049        0.0001       63.1677       63.1678      30.162836       0.62486
  49    .09103       33.0049        0.0001       63.1666       63.1668      30.161864       0.60727
  48    0.1069       33.0049        0.0002       63.1654       63.1656      30.160758       0.58888
  47    0.1255       33.0048        0.0003       63.1640       63.1643      30.159500       0.57042
  46    0.1487       33.0048        0.0004       63.1623       63.1627      30.157931       0.57200
  45    0.1794       33.0047        0.0006       63.1600       63.1606      30.155826       0.57768
  44    0.2165       33.0047        0.0008       63.1573       63.1581      30.153393       0.55356
  43    0.2613       33.0046        0.0010       63.1542       63.1552      30.150586       0.52907
  42    0.3336       33.0046        0.0014       63.1493       63.1507      30.146114       0.52138
  41    0.4307       33.0045        0.0019       63.1431       63.1450      30.140522       0.48626
  40    0.5894       33.0045        0.0027       63.1338       63.1365      30.132051       0.45046
  39     1.339       33.0056        0.0065       63.0956       63.1021      30.096488       0.40037
  38     1.782       33.0072        0.0088       63.0740       63.0828      30.075571       0.39823
  37     2.292       33.0100        0.0114       63.0477       63.0591      30.049054       0.43920
  36     2.964       33.0150        0.0148       63.0095       63.0243      30.009355       0.49834
  35     3.853       33.0235        0.0193       62.9533       62.9726      29.949112       0.57171
  34     5.035       33.0366        0.0253       62.8725       62.8978      29.861197       0.62803
  33     6.613       33.0552        0.0333       62.7621       62.7954      29.740218       0.64675
  32     8.786       33.0792        0.0441       62.6183       62.6623      29.583184       0.60986
  31     11.80       33.1097        0.0594       62.4284       62.4878      29.378057       0.57429
  30     15.07       33.1383        0.0759       62.2426       62.3185      29.180224       0.51077
  29     18.79       33.1666        0.0944       62.0493       62.1437      28.977104       0.46053
  28     23.16       33.1952        0.1160       61.8425       61.9585      28.763221       0.41358
  27     28.12       33.2228        0.1406       61.6278       61.7685      28.545712       0.36975
  26     33.73       33.2461        0.1682       61.4177       61.5858      28.339769       0.30964
  25     40.54       33.2656        0.2013       61.1983       61.3997      28.134065       0.25520
  24     48.69       33.2807        0.2413       60.9680       61.2093      27.928553       0.21267
  23     57.69       33.2893        0.2851       60.7478       61.0329      27.743668       0.17330
  22     68.43       33.2906        0.3372       60.5202       60.8575      27.566817       0.13903
  21     81.20       33.2802        0.3993       60.2939       60.6932      27.412932       0.10168
  20     96.49       33.2567        0.4732       60.0643       60.5375      27.280812       0.07292
  19     114.6       33.2273        0.5614       59.8079       60.3693      27.141972       0.06483
  18     136.5       33.1878        0.6657       59.5159       60.1816      26.993756       0.05699
  17     162.9       33.1367        0.7895       59.1775       59.9670      26.830384       0.05222
  16     196.4       33.0614        0.9497       58.7616       59.7113      26.649873       0.04544
  15     218.7       33.0088        1.0546       58.4970       59.5516      26.542766       0.04066
  14     243.0       32.9503        1.1683       58.2134       59.3817      26.431422       0.03862
  13     269.0       32.8855        1.2913       57.9107       59.2020      26.316551       0.03726
  12     297.5       32.8143        1.4239       57.5881       59.0119      26.197668       0.03526
  11     328.5       32.7371        1.5667       57.2417       58.8084      26.071335       0.03435
  10     361.9       32.6540        1.7201       56.8700       58.5901      25.936175       0.03420
   9     398.1       32.5648        1.8847       56.4708       58.3555      25.790629       0.03391
   8     437.6       32.4701        2.0608       56.0399       58.1007      25.630582       0.03422
   7     480.5       32.3705        2.2488       55.5727       57.8215      25.451069       0.03526
   6     533.0       32.2511        2.4791       54.9882       57.4673      25.216237       0.03778
   5     589.8       32.1275        2.7259       54.3462       57.0721      24.944657       0.04031
   4     651.6       32.0018        2.9894       53.6423       56.6317      24.629895       0.04304
   3     718.7       31.8751        3.2698       52.8819       56.1517      24.276621       0.04440
   2     792.3       31.7487        3.5673       52.0734       55.6407      23.891997       0.04411
   1     891.5       31.5965        3.9639       50.9929       54.9569      23.360357       0.04524
   0    1013.0       31.4524        4.4324       49.7006       54.1330      22.680623       0.04720



 Wavenumbers: 16000. - 22650. cm-1, ATM      1
 LEVEL PRESSURE   UPWARD FLUX   DIFDOWN FLUX  DIRDOWN FLUX  DOWNWARD FLUX   NET FLUX    HEATING RATE
          mb          W/m2          W/m2          W/m2        W/m2          W/m2       degree/day
  51    .06700       74.0935        0.0000      100.7153      100.7153      26.621842       0.00000
  50    .07753       74.0933        0.0003      100.7147      100.7151      26.621726       0.09356
  49    .09103       74.0932        0.0007      100.7140      100.7147      26.621556       0.10611
  48    0.1069       74.0930        0.0012      100.7131      100.7143      26.621329       0.12100
  47    0.1255       74.0928        0.0017      100.7121      100.7138      26.621024       0.13793
  46    0.1487       74.0926        0.0024      100.7108      100.7132      26.620576       0.16344
  45    0.1794       74.0923        0.0033      100.7089      100.7122      26.619875       0.19244
  44    0.2165       74.0921        0.0044      100.7066      100.7110      26.618924       0.21627
  43    0.2613       74.0918        0.0057      100.7037      100.7094      26.617634       0.24314
  42    0.3336       74.0914        0.0079      100.6987      100.7066      26.615182       0.28593
  41    0.4307       74.0910        0.0108      100.6918      100.7025      26.611485       0.32140
  40    0.5894       74.0907        0.0154      100.6797      100.6952      26.604436       0.37489
  39     1.339       74.0946        0.0375      100.6095      100.6470      26.552363       0.58624
  38     1.782       74.1009        0.0504      100.5585      100.6089      26.508018       0.84427
  37     2.292       74.1118        0.0654      100.4903      100.5557      26.443847       1.06283
  36     2.964       74.1319        0.0851      100.3868      100.4719      26.339940       1.30435
  35     3.853       74.1665        0.1111      100.2306      100.3417      26.175186       1.56355
  34     5.035       74.2203        0.1455      100.0045      100.1499      25.929656       1.75396
  33     6.613       74.2963        0.1914       99.6939       99.8852      25.588973       1.82129
  32     8.786       74.3945        0.2530       99.2881       99.5411      25.146592       1.71805
  31     11.80       74.5196        0.3410       98.7496       99.0906      24.570979       1.61154
  30     15.07       74.6360        0.4351       98.2198       98.6549      24.018959       1.42521
  29     18.79       74.7512        0.5410       97.6651       98.2061      23.454938       1.27881
  28     23.16       74.8672        0.6643       97.0671       97.7314      22.864228       1.14224
  27     28.12       74.9780        0.8047       96.4406       97.2452      22.267199       1.01491
  26     33.73       75.0708        0.9612       95.8179       96.7791      21.708335       0.84027
  25     40.54       75.1467        1.1498       95.1548       96.3046      21.157880       0.68290
  24     48.69       75.2032        1.3761       94.4420       95.8181      20.614875       0.56192
  23     57.69       75.2316        1.6238       93.7416       95.3654      20.133814       0.45092
  22     68.43       75.2290        1.9175       92.9954       94.9128      19.683820       0.35376
  21     81.20       75.1763        2.2660       92.2232       94.4891      19.312883       0.24511
  20     96.49       75.0675        2.6793       91.4110       94.0903      19.022799       0.16011
  19     114.6       74.9156        3.1667       90.5070       93.6737      18.758109       0.12359
  18     136.5       74.7210        3.7394       89.4803       93.2197      18.498732       0.09974
  17     162.9       74.4768        4.4146       88.3023       92.7169      18.240055       0.08268
  16     196.4       74.1321        5.2798       86.8609       92.1407      18.008631       0.05825
  15     218.7       73.8962        5.8418       85.9496       91.7914      17.895243       0.04305
  14     243.0       73.6362        6.4470       84.9797       91.4268      17.790530       0.03632
  13     269.0       73.3510        7.0964       83.9510       91.0474      17.696392       0.03054
  12     297.5       73.0399        7.7907       82.8626       90.6533      17.613363       0.02463
  11     328.5       72.7039        8.5322       81.7053       90.2375      17.533621       0.02168
  10     361.9       72.3428        9.3206       80.4796       89.8003      17.457444       0.01927
   9     398.1       71.9556       10.1579       79.1823       89.3402      17.384585       0.01697
   8     437.6       71.5424       11.0441       77.8117       88.8558      17.313376       0.01523
   7     480.5       71.1027       11.9795       76.3670       88.3464      17.243773       0.01367
   6     533.0       70.5667       13.1106       74.6208       87.7315      17.164793       0.01271
   5     589.8       69.9964       14.3054       72.7751       87.0805      17.084141       0.01197
   4     651.6       69.3926       15.5619       70.8305       86.3925      16.999918       0.01152
   3     718.7       68.7552       16.8783       68.7893       85.6676      16.912395       0.01100
   2     792.3       68.0857       18.2500       66.6574       84.9074      16.821701       0.01040
   1     891.5       67.2038       20.0411       63.8630       83.9041      16.700273       0.01033
   0    1013.0       66.1789       22.1018       60.6277       82.7295      16.550613       0.01039



 Wavenumbers: 22650. - 29000. cm-1, ATM      1
 LEVEL PRESSURE   UPWARD FLUX   DIFDOWN FLUX  DIRDOWN FLUX  DOWNWARD FLUX   NET FLUX    HEATING RATE
          mb          W/m2          W/m2          W/m2        W/m2          W/m2       degree/day
  51    .06700       32.0536        0.0000       38.0063       38.0063       5.952693       0.00000
  50    .07753       32.0534        0.0004       38.0057       38.0061       5.952693      -0.00000
  49    .09103       32.0532        0.0009       38.0050       38.0059       5.952693       0.00000
  48    0.1069       32.0530        0.0014       38.0042       38.0056       5.952693       0.00000
  47    0.1255       32.0527        0.0020       38.0033       38.0054       5.952693       0.00000
  46    0.1487       32.0523        0.0028       38.0022       38.0050       5.952693       0.00000
  45    0.1794       32.0518        0.0039       38.0006       38.0045       5.952693       0.00000
  44    0.2165       32.0512        0.0052       37.9987       38.0039       5.952693      -0.00000
  43    0.2613       32.0505        0.0067       37.9965       38.0032       5.952693       0.00000
  42    0.3336       32.0494        0.0092       37.9928       38.0021       5.952693       0.00000
  41    0.4307       32.0478        0.0125       37.9880       38.0005       5.952693      -0.00000
  40    0.5894       32.0453        0.0180       37.9800       37.9980       5.952693      -0.00000
  39     1.339       32.0335        0.0437       37.9425       37.9862       5.952693       0.00000
  38     1.782       32.0266        0.0588       37.9204       37.9793       5.952693      -0.00000
  37     2.292       32.0185        0.0763       37.8949       37.9712       5.952693       0.00000
  36     2.964       32.0080        0.0993       37.8614       37.9607       5.952693       0.00000
  35     3.853       31.9941        0.1295       37.8172       37.9468       5.952693      -0.00000
  34     5.035       31.9756        0.1697       37.7586       37.9283       5.952693      -0.00000
  33     6.613       31.9510        0.2234       37.6803       37.9037       5.952693       0.00000
  32     8.786       31.9178        0.2955       37.5750       37.8705       5.952693      -0.00000
  31     11.80       31.8705        0.3983       37.4249       37.8232       5.952693       0.00000
  30     15.07       31.8198        0.5083       37.2642       37.7725       5.952693       0.00000
  29     18.79       31.7627        0.6321       37.0833       37.7154       5.952693      -0.00000
  28     23.16       31.6964        0.7760       36.8730       37.6491       5.952693       0.00000
  27     28.12       31.6208        0.9397       36.6338       37.5735       5.952693      -0.00000
  26     33.73       31.5367        1.1216       36.3677       37.4893       5.952693       0.00000
  25     40.54       31.4356        1.3398       36.0486       37.3883       5.952693       0.00000
  24     48.69       31.3148        1.6003       35.6672       37.2675       5.952693      -0.00000
  23     57.69       31.1833        1.8833       35.2527       37.1360       5.952693      -0.00000
  22     68.43       31.0282        2.2160       34.7649       36.9809       5.952693       0.00000
  21     81.20       30.8459        2.6063       34.1922       36.7986       5.952693      -0.00000
  20     96.49       30.6318        3.0628       33.5218       36.5845       5.952693      -0.00000
  19     114.6       30.3823        3.5926       32.7424       36.3350       5.952693       0.00000
  18     136.5       30.0930        4.2040       31.8416       36.0456       5.952693      -0.00000
  17     162.9       29.7572        4.9090       30.8008       35.7099       5.952693       0.00000
  16     196.4       29.3354        5.7874       29.5007       35.2881       5.952693      -0.00000
  15     218.7       29.0667        6.3427       28.6768       35.0194       5.952693       0.00000
  14     243.0       28.7818        6.9276       27.8069       34.7345       5.952693      -0.00000
  13     269.0       28.4810        7.5401       26.8936       34.4337       5.952693       0.00000
  12     297.5       28.1652        8.1781       25.9398       34.1179       5.952693      -0.00000
  11     328.5       27.8340        8.8407       24.9460       33.7867       5.952693       0.00000
  10     361.9       27.4889        9.5241       23.9174       33.4416       5.952693      -0.00000
   9     398.1       27.1299       10.2264       22.8562       33.0826       5.952693      -0.00000
   8     437.6       26.7586       10.9432       21.7681       32.7113       5.952693       0.00000
   7     480.5       26.3756       11.6712       20.6571       32.3283       5.952693       0.00000
   6     533.0       25.9248       12.5126       19.3649       31.8775       5.952693       0.00000
   5     589.8       25.4626       13.3560       18.0593       31.4152       5.952693       0.00000
   4     651.6       24.9911       14.1940       16.7497       30.9438       5.952693       0.00000
   3     718.7       24.5122       15.0201       15.4448       30.4649       5.952693       0.00000
   2     792.3       24.0290       15.8247       14.1569       29.9816       5.952693      -0.00000
   1     891.5       23.4207       16.7914       12.5820       29.3734       5.952693      -0.00000
   0    1013.0       22.7500       17.7891       10.9137       28.7027       5.952693       0.00000



 Wavenumbers: 29000. - 38000. cm-1, ATM      1
 LEVEL PRESSURE   UPWARD FLUX   DIFDOWN FLUX  DIRDOWN FLUX  DOWNWARD FLUX   NET FLUX    HEATING RATE
          mb          W/m2          W/m2          W/m2        W/m2          W/m2       degree/day
  51    .06700        4.7041        0.0000       13.4026       13.4026       8.698492       0.00000
  50    .07753        4.7039        0.0003       13.3983       13.3986       8.694694       3.04421
  49    .09103        4.7036        0.0007       13.3921       13.3928       8.689175       3.44947
  48    0.1069        4.7033        0.0011       13.3840       13.3851       8.681799       3.92653
  47    0.1255        4.7030        0.0016       13.3733       13.3749       8.671954       4.46291
  46    0.1487        4.7025        0.0022       13.3579       13.3600       8.657513       5.26406
  45    0.1794        4.7019        0.0030       13.3340       13.3371       8.635115       6.14888
  44    0.2165        4.7013        0.0040       13.3024       13.3064       8.605098       6.82832
  43    0.2613        4.7005        0.0051       13.2604       13.2655       8.565046       7.54960
  42    0.3336        4.6993        0.0070       13.1833       13.1903       8.491045       8.62781
  41    0.4307        4.6977        0.0095       13.0729       13.0824       8.384681       9.24810
  40    0.5894        4.6953        0.0133       12.8796       12.8929       8.197654       9.94587
  39     1.339        4.6866        0.0295       11.9165       11.9460       7.259437      10.56261
  38     1.782        4.6831        0.0378       11.4399       11.4777       6.794559       8.85052
  37     2.292        4.6804        0.0466       10.9796       11.0262       6.345773       7.43308
  36     2.964        4.6787        0.0574       10.4786       10.5361       5.857371       6.13091
  35     3.853        4.6788        0.0708        9.9429       10.0137       5.334869       4.95864
  34     5.035        4.6816        0.0875        9.4007        9.4882       4.806655       3.77334
  33     6.613        4.6869        0.1087        8.8752        8.9839       4.296973       2.72476
  32     8.786        4.6944        0.1359        8.3786        8.5145       3.820156       1.85178
  31     11.80        4.7034        0.1734        7.8897        8.0630       3.359696       1.28914
  30     15.07        4.7109        0.2120        7.5108        7.7228       3.011938       0.89784
  29     18.79        4.7176        0.2540        7.1776        7.4317       2.714056       0.67539
  28     23.16        4.7234        0.3014        6.8664        7.1678       2.444367       0.52149
  27     28.12        4.7276        0.3537        6.5780        6.9317       2.204061       0.40850
  26     33.73        4.7279        0.4106        6.3195        6.7301       2.002225       0.30347
  25     40.54        4.7229        0.4778        6.0663        6.5441       1.821218       0.22456
  24     48.69        4.7120        0.5565        5.8128        6.3693       1.657353       0.16957
  23     57.69        4.6954        0.6404        5.5777        6.2181       1.522716       0.12620
  22     68.43        4.6706        0.7375        5.3379        6.0753       1.404709       0.09277
  21     81.20        4.6336        0.8500        5.0965        5.9465       1.312926       0.06065
  20     96.49        4.5829        0.9799        4.8476        5.8276       1.244630       0.03769
  19     114.6        4.5216        1.1270        4.5799        5.7069       1.185228       0.02774
  18     136.5        4.4506        1.2911        4.2891        5.5802       1.129601       0.02139
  17     162.9        4.3694        1.4729        3.9732        5.4461       1.076629       0.01693
  16     196.4        4.2667        1.6901        3.6080        5.2982       1.031408       0.01138
  15     218.7        4.2020        1.8221        3.3898        5.2119       1.009907       0.00816
  14     243.0        4.1345        1.9564        3.1686        5.1249       0.990422       0.00676
  13     269.0        4.0646        2.0918        2.9461        5.0379       0.973255       0.00557
  12     297.5        3.9928        2.2272        2.7239        4.9512       0.958421       0.00440
  11     328.5        3.9196        2.3612        2.5029        4.8641       0.944505       0.00378
  10     361.9        3.8457        2.4924        2.2848        4.7773       0.931538       0.00328
   9     398.1        3.7714        2.6199        2.0710        4.6909       0.919493       0.00281
   8     437.6        3.6971        2.7419        1.8633        4.6052       0.908123       0.00243
   7     480.5        3.6232        2.8575        1.6632        4.5208       0.897549       0.00208
   6     533.0        3.5396        2.9807        1.4452        4.4259       0.886275       0.00181
   5     589.8        3.4576        3.0920        1.2412        4.3332       0.875608       0.00158
   4     651.6        3.3776        3.1902        1.0528        4.2430       0.865406       0.00140
   3     718.7        3.3000        3.2744        0.8812        4.1556       0.855632       0.00123
   2     792.3        3.2248        3.3439        0.7272        4.0710       0.846266       0.00107
   1     891.5        3.1341        3.4092        0.5599        3.9691       0.834973       0.00096
   0    1013.0        3.0384        3.4536        0.4076        3.8612       0.822839       0.00084



 Wavenumbers: 38000. - 50000. cm-1, ATM      1
 LEVEL PRESSURE   UPWARD FLUX   DIFDOWN FLUX  DIRDOWN FLUX  DOWNWARD FLUX   NET FLUX    HEATING RATE
          mb          W/m2          W/m2          W/m2        W/m2          W/m2       degree/day
  51    .06700        0.0051        0.0000        0.8267        0.8267       0.821528       0.00000
  50    .07753        0.0051        0.0001        0.8242        0.8243       0.819196       1.86936
  49    .09103        0.0050        0.0002        0.8207        0.8209       0.815873       2.07705
  48    0.1069        0.0049        0.0002        0.8162        0.8164       0.811514       2.31984
  47    0.1255        0.0048        0.0004        0.8103        0.8106       0.805801       2.59006
  46    0.1487        0.0047        0.0005        0.8018        0.8023       0.797567       3.00143
  45    0.1794        0.0045        0.0007        0.7889        0.7896       0.785013       3.44648
  44    0.2165        0.0044        0.0009        0.7720        0.7729       0.768507       3.75474
  43    0.2613        0.0042        0.0011        0.7500        0.7511       0.746955       4.06246
  42    0.3336        0.0039        0.0015        0.7106        0.7121       0.708267       4.51071
  41    0.4307        0.0035        0.0019        0.6566        0.6584       0.654972       4.63387
  40    0.5894        0.0029        0.0024        0.5680        0.5704       0.567464       4.65357
  39     1.339        0.0015        0.0030        0.2422        0.2452       0.243720       3.64476
  38     1.782        0.0010        0.0026        0.1493        0.1519       0.150889       1.76735
  37     2.292        0.0007        0.0022        0.0924        0.0946       0.093932       0.94336
  36     2.964        0.0005        0.0018        0.0539        0.0557       0.055224       0.48589
  35     3.853        0.0003        0.0013        0.0295        0.0308       0.030502       0.23462
  34     5.035        0.0002        0.0010        0.0154        0.0164       0.016181       0.10230
  33     6.613        0.0001        0.0007        0.0073        0.0080       0.007912       0.04420
  32     8.786        0.0000        0.0004        0.0030        0.0034       0.003390       0.01756
  31     11.80        0.0000        0.0003        0.0010        0.0012       0.001199       0.00613
  30     15.07        0.0000        0.0001        0.0003        0.0005       0.000463       0.00190
  29     18.79        0.0000        0.0001        0.0001        0.0002       0.000182       0.00064
  28     23.16        0.0000        0.0000        0.0000        0.0001       0.000071       0.00022
  27     28.12        0.0000        0.0000        0.0000        0.0000       0.000028       0.00007
  26     33.73        0.0000        0.0000        0.0000        0.0000       0.000011       0.00002
  25     40.54        0.0000        0.0000        0.0000        0.0000       0.000005       0.00001
  24     48.69        0.0000        0.0000        0.0000        0.0000       0.000002       0.00000
  23     57.69        0.0000        0.0000        0.0000        0.0000       0.000001       0.00000
  22     68.43        0.0000        0.0000        0.0000        0.0000       0.000000       0.00000
  21     81.20        0.0000        0.0000        0.0000        0.0000       0.000000       0.00000
  20     96.49        0.0000        0.0000        0.0000        0.0000       0.000000       0.00000
  19     114.6        0.0000        0.0000        0.0000        0.0000       0.000000       0.00000
  18     136.5        0.0000        0.0000        0.0000        0.0000       0.000000       0.00000
  17     162.9        0.0000        0.0000        0.0000        0.0000       0.000000       0.00000
  16     196.4        0.0000        0.0000        0.0000        0.0000       0.000000       0.00000
  15     218.7        0.0000        0.0000        0.0000        0.0000       0.000000       0.00000
  14     243.0        0.0000        0.0000        0.0000        0.0000       0.000000       0.00000
  13     269.0        0.0000        0.0000        0.0000        0.0000       0.000000       0.00000
  12     297.5        0.0000        0.0000        0.0000        0.0000       0.000000       0.00000
  11     328.5        0.0000        0.0000        0.0000        0.0000       0.000000       0.00000
  10     361.9        0.0000        0.0000        0.0000        0.0000       0.000000       0.00000
   9     398.1        0.0000        0.0000        0.0000        0.0000       0.000000       0.00000
   8     437.6        0.0000        0.0000        0.0000        0.0000       0.000000       0.00000
   7     480.5        0.0000        0.0000        0.0000        0.0000       0.000000       0.00000
   6     533.0        0.0000        0.0000        0.0000        0.0000       0.000000       0.00000
   5     589.8        0.0000        0.0000        0.0000        0.0000       0.000000       0.00000
   4     651.6        0.0000        0.0000        0.0000        0.0000       0.000000       0.00000
   3     718.7        0.0000        0.0000        0.0000        0.0000       0.000000       0.00000
   2     792.3        0.0000        0.0000        0.0000        0.0000       0.000000       0.00000
   1     891.5        0.0000        0.0000        0.0000        0.0000       0.000000       0.00000
   0    1013.0        0.0000        0.0000        0.0000        0.0000       0.000000       0.00000



 Wavenumbers:   820. -  2600. cm-1, ATM      1
 LEVEL PRESSURE   UPWARD FLUX   DIFDOWN FLUX  DIRDOWN FLUX  DOWNWARD FLUX   NET FLUX    HEATING RATE
          mb          W/m2          W/m2          W/m2        W/m2          W/m2       degree/day
  51    .06700        0.4294        0.0000        3.8670        3.8670       3.437618       0.00000
  50    .07753        0.4294        0.0000        3.8644        3.8644       3.434952       2.13657
  49    .09103        0.4294        0.0000        3.8636        3.8636       3.434209       0.46448
  48    0.1069        0.4294        0.0000        3.8628        3.8628       3.433398       0.43149
  47    0.1255        0.4294        0.0000        3.8619        3.8619       3.432533       0.39222
  46    0.1487        0.4294        0.0000        3.8610        3.8610       3.431549       0.35865
  45    0.1794        0.4294        0.0000        3.8598        3.8598       3.430392       0.31760
  44    0.2165        0.4294        0.0000        3.8586        3.8586       3.429233       0.26364
  43    0.2613        0.4294        0.0000        3.8574        3.8574       3.428041       0.22475
  42    0.3336        0.4294        0.0000        3.8557        3.8557       3.426267       0.20688
  41    0.4307        0.4294        0.0000        3.8534        3.8534       3.424009       0.19627
  40    0.5894        0.4294        0.0000        3.8497        3.8497       3.420324       0.19597
  39     1.339        0.4294        0.0000        3.8333        3.8333       3.403867       0.18528
  38     1.782        0.4294        0.0000        3.8242        3.8242       3.394788       0.17284
  37     2.292        0.4294        0.0000        3.8141        3.8141       3.384701       0.16706
  36     2.964        0.4294        0.0000        3.8015        3.8015       3.372124       0.15788
  35     3.853        0.4294        0.0000        3.7857        3.7857       3.356303       0.15014
  34     5.035        0.4294        0.0000        3.7653        3.7653       3.335932       0.14553
  33     6.613        0.4294        0.0000        3.7387        3.7387       3.309341       0.14215
  32     8.786        0.4294        0.0000        3.7051        3.7051       3.275704       0.13063
  31     11.80        0.4294        0.0000        3.6659        3.6659       3.236450       0.10990
  30     15.07        0.4294        0.0000        3.6365        3.6365       3.207097       0.07579
  29     18.79        0.4294        0.0000        3.6152        3.6152       3.185826       0.04823
  28     23.16        0.4294        0.0000        3.5989        3.5989       3.169475       0.03162
  27     28.12        0.4294        0.0000        3.5842        3.5842       3.154746       0.02504
  26     33.73        0.4294        0.0000        3.5688        3.5688       3.139338       0.02317
  25     40.54        0.4294        0.0000        3.5503        3.5503       3.120895       0.02288
  24     48.69        0.4295        0.0000        3.5281        3.5281       3.098638       0.02303
  23     57.69        0.4295        0.0000        3.5037        3.5037       3.074250       0.02286
  22     68.43        0.4295        0.0000        3.4750        3.4750       3.045549       0.02256
  21     81.20        0.4295        0.0000        3.4422        3.4422       3.012665       0.02173
  20     96.49        0.4295        0.0000        3.4047        3.4047       2.975199       0.02068
  19     114.6        0.4296        0.0000        3.3631        3.3632       2.933581       0.01943
  18     136.5        0.4296        0.0000        3.3173        3.3173       2.887664       0.01766
  17     162.9        0.4297        0.0000        3.2641        3.2641       2.834383       0.01703
  16     196.4        0.4298        0.0000        3.1944        3.1944       2.764591       0.01757
  15     218.7        0.4299        0.0000        3.1497        3.1498       2.719870       0.01698
  14     243.0        0.4300        0.0000        3.0959        3.0959       2.665924       0.01871
  13     269.0        0.4302        0.0000        3.0233        3.0234       2.593203       0.02359
  12     297.5        0.4304        0.0000        2.9378        2.9378       2.507422       0.02544
  11     328.5        0.4308        0.0000        2.8404        2.8404       2.409661       0.02658
  10     361.9        0.4312        0.0000        2.7197        2.7198       2.288529       0.03065
   9     398.1        0.4319        0.0000        2.5703        2.5704       2.138453       0.03496
   8     437.6        0.4328        0.0000        2.4001        2.4002       1.967416       0.03657
   7     480.5        0.4339        0.0000        2.2326        2.2326       1.798774       0.03312
   6     533.0        0.4356        0.0000        2.0909        2.0909       1.655339       0.02307
   5     589.8        0.4379        0.0000        1.9972        1.9973       1.559401       0.01424
   4     651.6        0.4410        0.0000        1.9150        1.9151       1.474053       0.01167
   3     718.7        0.4451        0.0001        1.8315        1.8315       1.386480       0.01101
   2     792.3        0.4500        0.0001        1.7510        1.7511       1.301056       0.00980
   1     891.5        0.4582        0.0001        1.6560        1.6560       1.197862       0.00878
   0    1013.0        0.4726        0.0001        1.5496        1.5496       1.077005       0.00839

  Modules and versions used in this calculation:

       rrtmg_sw.1col.f90:  $Revision$                    rrtmg_sw_init.f90:  $Revision$        
     rrtmgsw_cldprop.f90:  $Revision$                  rrtmgsw_cldprmc.f90:  NOT USED          
     rrtmg_sw_reftra.f90:  $Revision$                  rrtmg_sw_spcvrt.f90:  NOT USED          
     rrtmg_sw_spcvmc.f90:  NOT USED                    rrtmgsw_setcoef.f90:  NOT USED          
     rrtmg_sw_taumol.f90:  $Revision$                  rrtmg_sw_vrtqdr.f90:  NOT USED          
                rrtatm.f:  NOT USED                             util_xxx.f:  NOT USED          
                 extra.f:  NOT USED                       rrtmg_sw_k_g.f90:  $Revision$        

