

 Wavenumbers:   820. - 50000. cm-1, ATM      1
 LEVEL PRESSURE   UPWARD FLUX   DIFDOWN FLUX  DIRDOWN FLUX  DOWNWARD FLUX   NET FLUX    HEATING RATE
          mb          W/m2          W/m2          W/m2        W/m2          W/m2       degree/day
  51    .06700      181.4799        0.0000      397.8738      397.8738     216.393862       0.00000
  50    .07753      181.4793        0.0012      397.8580      397.8591     216.379812      11.26160
  49    .09103      181.4785        0.0026      397.8423      397.8449     216.366411       8.37611
  48    0.1069      181.4777        0.0043      397.8238      397.8281     216.350379       8.53364
  47    0.1255      181.4767        0.0062      397.8008      397.8070     216.330290       9.10751
  46    0.1487      181.4755        0.0086      397.7692      397.7778     216.302272      10.21301
  45    0.1794      181.4739        0.0119      397.7226      397.7345     216.260578      11.44606
  44    0.2165      181.4722        0.0158      397.6630      397.6788     216.206652      12.26707
  43    0.2613      181.4701        0.0203      397.5865      397.6069     216.136741      13.17796
  42    0.3336      181.4669        0.0279      397.4499      397.4778     216.010820      14.68114
  41    0.4307      181.4630        0.0377      397.2593      397.2970     215.834023      15.37211
  40    0.5894      181.4571        0.0536      396.9352      396.9888     215.531670      16.07877
  39     1.339      181.4401        0.1245      395.4478      395.5723     214.132256      15.75485
  38     1.782      181.4372        0.1642      394.7579      394.9221     213.484971      12.32327
  37     2.292      181.4400        0.2094      394.0938      394.3031     212.863094      10.29991
  36     2.964      181.4531        0.2680      393.3466      393.6147     212.161602       8.80584
  35     3.853      181.4831        0.3447      392.4894      392.8341     211.351038       7.69241
  34     5.035      181.5357        0.4456      391.5159      391.9614     210.425749       6.60987
  33     6.613      181.6130        0.5792      390.4151      390.9943     209.381352       5.58335
  32     8.786      181.7122        0.7578      389.1696      389.9274     208.215250       4.52872
  31     11.80      181.8328        1.0114      387.6799      388.6912     206.858403       3.79874
  30     15.07      181.9375        1.2813      386.3072      387.5885     205.651035       3.11719
  29     18.79      182.0335        1.5839      384.9249      386.5088     204.475258       2.66585
  28     23.16      182.1201        1.9343      383.4689      385.4033     203.283147       2.30516
  27     28.12      182.1893        2.3318      381.9602      384.2920     202.102747       2.00660
  26     33.73      182.2228        2.7733      380.4528      383.2261     201.003331       1.65300
  25     40.54      182.2125        3.3027      378.8228      382.1255     199.912982       1.35270
  24     48.69      182.1515        3.9352      377.0383      380.9735     198.822023       1.12897
  23     57.69      182.0380        4.6233      375.2440      379.8674     197.829340       0.93049
  22     68.43      181.8531        5.4344      373.2791      378.7135     196.860432       0.76169
  21     81.20      181.5639        6.3902      371.1597      377.5499     195.986042       0.57778
  20     96.49      181.1575        7.5145      368.8473      376.3617     195.204265       0.43149
  19     114.6      180.6532        8.8271      366.2417      375.0688     194.415617       0.36824
  18     136.5      180.0438       10.3512      363.2837      373.6349     193.591055       0.31706
  17     162.9      179.3133       12.1222      359.8804      372.0025     192.689272       0.28825
  16     196.4      178.3441       14.3542      355.6245      369.9786     191.634500       0.26550
  15     218.7      177.7057       15.7812      352.8576      368.6388     190.933092       0.26630
  14     243.0      177.0169       17.2987      349.7801      367.0789     190.061966       0.30214
  13     269.0      176.2774       18.9051      346.2088      365.1139     188.836519       0.39753
  12     297.5      175.4878       20.5981      342.0793      362.6774     187.189572       0.48847
  11     328.5      174.6508       22.3790      337.3537      359.7328     185.081952       0.57306
  10     361.9      173.7692       24.2426      332.1391      356.3817     182.612541       0.62479
   9     398.1      172.8434       26.1890      326.4853      352.6743     179.830953       0.64805
   8     437.6      171.8781       28.2128      320.2997      348.5125     176.634373       0.68345
   7     480.5      170.8789       30.3102      313.4582      343.7684     172.889499       0.73548
   6     533.0      169.7010       32.7947      305.1466      337.9413     168.240281       0.74791
   5     589.8      168.4987       35.3596      296.5175      331.8772     163.378474       0.72165
   4     651.6      167.2899       37.9946      287.6041      325.5987     158.308736       0.69330
   3     718.7      166.0852       40.6914      278.7010      319.3925     153.307282       0.62854
   2     792.3      164.8961       43.4365      269.9956      313.4321     148.535971       0.54722
   1     891.5      163.4718       46.9260      259.1928      306.1187     142.646939       0.50113
   0    1013.0      162.1300       50.8146      246.9346      297.7492     135.619169       0.48797



 Wavenumbers:  2600. -  3250. cm-1, ATM      1
 LEVEL PRESSURE   UPWARD FLUX   DIFDOWN FLUX  DIRDOWN FLUX  DOWNWARD FLUX   NET FLUX    HEATING RATE
          mb          W/m2          W/m2          W/m2        W/m2          W/m2       degree/day
  51    .06700        0.4004        0.0000        3.5066        3.5066       3.106238       0.00000
  50    .07753        0.4004        0.0000        3.5066        3.5066       3.106230       0.00640
  49    .09103        0.4004        0.0000        3.5066        3.5066       3.106220       0.00627
  48    0.1069        0.4004        0.0000        3.5066        3.5066       3.106209       0.00613
  47    0.1255        0.4004        0.0000        3.5066        3.5066       3.106196       0.00599
  46    0.1487        0.4004        0.0000        3.5066        3.5066       3.106179       0.00607
  45    0.1794        0.4004        0.0000        3.5065        3.5065       3.106156       0.00624
  44    0.2165        0.4004        0.0000        3.5065        3.5065       3.106129       0.00611
  43    0.2613        0.4004        0.0000        3.5065        3.5065       3.106098       0.00598
  42    0.3336        0.4004        0.0000        3.5064        3.5064       3.106045       0.00615
  41    0.4307        0.4004        0.0000        3.5064        3.5064       3.105974       0.00618
  40    0.5894        0.4004        0.0000        3.5062        3.5062       3.105855       0.00633
  39     1.339        0.4004        0.0000        3.5055        3.5055       3.105156       0.00787
  38     1.782        0.4004        0.0000        3.5050        3.5050       3.104625       0.01011
  37     2.292        0.4004        0.0000        3.5043        3.5043       3.103933       0.01147
  36     2.964        0.4004        0.0000        3.5033        3.5033       3.102941       0.01245
  35     3.853        0.4004        0.0000        3.5019        3.5019       3.101564       0.01307
  34     5.035        0.4004        0.0000        3.5001        3.5001       3.099703       0.01329
  33     6.613        0.4004        0.0000        3.4977        3.4977       3.097293       0.01288
  32     8.786        0.4004        0.0000        3.4947        3.4947       3.094322       0.01154
  31     11.80        0.4004        0.0000        3.4911        3.4911       3.090687       0.01018
  30     15.07        0.4004        0.0000        3.4878        3.4878       3.087465       0.00832
  29     18.79        0.4004        0.0000        3.4848        3.4848       3.084401       0.00695
  28     23.16        0.4004        0.0000        3.4816        3.4816       3.081180       0.00623
  27     28.12        0.4004        0.0000        3.4779        3.4779       3.077561       0.00615
  26     33.73        0.4004        0.0000        3.4735        3.4735       3.073092       0.00672
  25     40.54        0.4004        0.0000        3.4671        3.4671       3.066763       0.00785
  24     48.69        0.4004        0.0000        3.4582        3.4583       3.057863       0.00921
  23     57.69        0.4004        0.0000        3.4472        3.4472       3.046808       0.01036
  22     68.43        0.4004        0.0000        3.4329        3.4329       3.032537       0.01122
  21     81.20        0.4004        0.0000        3.4152        3.4152       3.014794       0.01172
  20     96.49        0.4005        0.0000        3.3940        3.3941       2.993629       0.01168
  19     114.6        0.4005        0.0000        3.3698        3.3698       2.969341       0.01134
  18     136.5        0.4005        0.0001        3.3433        3.3434       2.942818       0.01020
  17     162.9        0.4006        0.0001        3.3155        3.3155       2.914925       0.00892
  16     196.4        0.4007        0.0001        3.2850        3.2851       2.884384       0.00769
  15     218.7        0.4008        0.0001        3.2675        3.2676       2.866781       0.00668
  14     243.0        0.4009        0.0001        3.2493        3.2494       2.848461       0.00635
  13     269.0        0.4011        0.0001        3.2278        3.2279       2.826794       0.00703
  12     297.5        0.4015        0.0001        3.2012        3.2013       2.799803       0.00801
  11     328.5        0.4019        0.0001        3.1678        3.1679       2.766043       0.00918
  10     361.9        0.4025        0.0001        3.1253        3.1255       2.722970       0.01090
   9     398.1        0.4033        0.0001        3.0709        3.0710       2.667682       0.01288
   8     437.6        0.4044        0.0002        3.0012        3.0013       2.596907       0.01513
   7     480.5        0.4060        0.0002        2.9113        2.9114       2.505445       0.01796
   6     533.0        0.4085        0.0002        2.7861        2.7863       2.377771       0.02054
   5     589.8        0.4121        0.0002        2.6451        2.6453       2.233202       0.02146
   4     651.6        0.4170        0.0002        2.4948        2.4950       2.078025       0.02122
   3     718.7        0.4236        0.0002        2.3481        2.3483       1.924761       0.01926
   2     792.3        0.4320        0.0002        2.2098        2.2100       1.778054       0.01683
   1     891.5        0.4461        0.0002        2.0402        2.0404       1.594359       0.01563
   0    1013.0        0.4700        0.0002        1.8422        1.8424       1.372473       0.01541



 Wavenumbers:  3250. -  4000. cm-1, ATM      1
 LEVEL PRESSURE   UPWARD FLUX   DIFDOWN FLUX  DIRDOWN FLUX  DOWNWARD FLUX   NET FLUX    HEATING RATE
          mb          W/m2          W/m2          W/m2        W/m2          W/m2       degree/day
  51    .06700        0.1125        0.0000        5.9117        5.9117       5.799175       0.00000
  50    .07753        0.1125        0.0000        5.9076        5.9076       5.795107       3.26049
  49    .09103        0.1125        0.0000        5.9053        5.9053       5.792796       1.44469
  48    0.1069        0.1125        0.0000        5.9035        5.9035       5.791059       0.92465
  47    0.1255        0.1125        0.0000        5.9019        5.9019       5.789429       0.73865
  46    0.1487        0.1125        0.0000        5.9002        5.9002       5.787683       0.63643
  45    0.1794        0.1125        0.0000        5.8982        5.8982       5.785710       0.54182
  44    0.2165        0.1125        0.0000        5.8963        5.8963       5.783792       0.43623
  43    0.2613        0.1125        0.0000        5.8944        5.8944       5.781873       0.36174
  42    0.3336        0.1125        0.0000        5.8916        5.8916       5.779120       0.32097
  41    0.4307        0.1125        0.0000        5.8883        5.8883       5.775815       0.28731
  40    0.5894        0.1125        0.0000        5.8832        5.8832       5.770769       0.26835
  39     1.339        0.1125        0.0000        5.8646        5.8646       5.752141       0.20972
  38     1.782        0.1125        0.0000        5.8568        5.8568       5.744354       0.14825
  37     2.292        0.1125        0.0000        5.8493        5.8493       5.736866       0.12402
  36     2.964        0.1125        0.0000        5.8406        5.8406       5.728172       0.10913
  35     3.853        0.1125        0.0000        5.8298        5.8298       5.717320       0.10299
  34     5.035        0.1125        0.0000        5.8155        5.8155       5.702998       0.10231
  33     6.613        0.1125        0.0000        5.7959        5.7959       5.683468       0.10441
  32     8.786        0.1125        0.0000        5.7685        5.7685       5.656051       0.10648
  31     11.80        0.1125        0.0000        5.7280        5.7281       5.615595       0.11327
  30     15.07        0.1125        0.0000        5.6839        5.6839       5.571429       0.11403
  29     18.79        0.1125        0.0000        5.6344        5.6344       5.521954       0.11217
  28     23.16        0.1124        0.0000        5.5793        5.5793       5.466887       0.10648
  27     28.12        0.1124        0.0000        5.5216        5.5216       5.409209       0.09805
  26     33.73        0.1124        0.0000        5.4640        5.4641       5.351661       0.08653
  25     40.54        0.1124        0.0001        5.4021        5.4021       5.289715       0.07685
  24     48.69        0.1124        0.0001        5.3339        5.3340       5.221590       0.07050
  23     57.69        0.1124        0.0001        5.2624        5.2625       5.150109       0.06700
  22     68.43        0.1124        0.0001        5.1791        5.1791       5.066751       0.06553
  21     81.20        0.1124        0.0001        5.0824        5.0825       4.970091       0.06387
  20     96.49        0.1124        0.0001        4.9734        4.9735       4.861156       0.06012
  19     114.6        0.1123        0.0001        4.8533        4.8535       4.741135       0.05604
  18     136.5        0.1123        0.0002        4.7244        4.7246       4.612269       0.04955
  17     162.9        0.1123        0.0002        4.5810        4.5812       4.468938       0.04581
  16     196.4        0.1123        0.0002        4.3984        4.3987       4.286405       0.04595
  15     218.7        0.1122        0.0002        4.2691        4.2693       4.157086       0.04910
  14     243.0        0.1122        0.0003        4.1022        4.1025       3.990236       0.05787
  13     269.0        0.1122        0.0003        3.8857        3.8860       3.773784       0.07022
  12     297.5        0.1123        0.0003        3.6260        3.6263       3.514007       0.07705
  11     328.5        0.1124        0.0003        3.3117        3.3120       3.199619       0.08548
  10     361.9        0.1126        0.0003        2.9554        2.9557       2.843022       0.09022
   9     398.1        0.1130        0.0003        2.5957        2.5960       2.482969       0.08388
   8     437.6        0.1137        0.0003        2.2544        2.2546       2.140899       0.07314
   7     480.5        0.1150        0.0003        1.9296        1.9299       1.814947       0.06402
   6     533.0        0.1173        0.0003        1.5952        1.5955       1.478128       0.05418
   5     589.8        0.1212        0.0002        1.2996        1.2999       1.178643       0.04445
   4     651.6        0.1276        0.0002        1.0360        1.0362       0.908643       0.03692
   3     718.7        0.1373        0.0002        0.8069        0.8071       0.669863       0.03001
   2     792.3        0.1512        0.0002        0.6160        0.6162       0.464960       0.02350
   1     891.5        0.1785        0.0001        0.4239        0.4241       0.245612       0.01867
   0    1013.0        0.2376        0.0001        0.2505        0.2506       0.013003       0.01615



 Wavenumbers:  4000. -  4650. cm-1, ATM      1
 LEVEL PRESSURE   UPWARD FLUX   DIFDOWN FLUX  DIRDOWN FLUX  DOWNWARD FLUX   NET FLUX    HEATING RATE
          mb          W/m2          W/m2          W/m2        W/m2          W/m2       degree/day
  51    .06700        0.7815        0.0000        6.9421        6.9421       6.160566       0.00000
  50    .07753        0.7815        0.0000        6.9421        6.9421       6.160565       0.00081
  49    .09103        0.7815        0.0000        6.9421        6.9421       6.160564       0.00079
  48    0.1069        0.7815        0.0000        6.9421        6.9421       6.160563       0.00077
  47    0.1255        0.7815        0.0000        6.9421        6.9421       6.160561       0.00076
  46    0.1487        0.7815        0.0000        6.9421        6.9421       6.160559       0.00077
  45    0.1794        0.7815        0.0000        6.9421        6.9421       6.160556       0.00079
  44    0.2165        0.7815        0.0000        6.9421        6.9421       6.160553       0.00077
  43    0.2613        0.7815        0.0000        6.9421        6.9421       6.160549       0.00076
  42    0.3336        0.7815        0.0000        6.9420        6.9420       6.160542       0.00078
  41    0.4307        0.7815        0.0000        6.9420        6.9420       6.160533       0.00078
  40    0.5894        0.7815        0.0000        6.9420        6.9420       6.160518       0.00081
  39     1.339        0.7815        0.0000        6.9419        6.9419       6.160427       0.00102
  38     1.782        0.7815        0.0000        6.9418        6.9419       6.160356       0.00135
  37     2.292        0.7815        0.0000        6.9417        6.9418       6.160261       0.00158
  36     2.964        0.7815        0.0000        6.9416        6.9416       6.160119       0.00178
  35     3.853        0.7815        0.0000        6.9414        6.9414       6.159908       0.00200
  34     5.035        0.7815        0.0000        6.9411        6.9411       6.159598       0.00222
  33     6.613        0.7815        0.0000        6.9406        6.9406       6.159142       0.00244
  32     8.786        0.7815        0.0000        6.9399        6.9399       6.158470       0.00261
  31     11.80        0.7815        0.0000        6.9388        6.9389       6.157416       0.00295
  30     15.07        0.7815        0.0001        6.9376        6.9376       6.156183       0.00318
  29     18.79        0.7814        0.0001        6.9361        6.9361       6.154696       0.00337
  28     23.16        0.7814        0.0001        6.9342        6.9343       6.152858       0.00356
  27     28.12        0.7814        0.0001        6.9320        6.9321       6.150641       0.00377
  26     33.73        0.7814        0.0001        6.9292        6.9293       6.147919       0.00409
  25     40.54        0.7814        0.0001        6.9255        6.9256       6.144248       0.00455
  24     48.69        0.7814        0.0002        6.9206        6.9208       6.139386       0.00503
  23     57.69        0.7814        0.0002        6.9148        6.9150       6.133663       0.00536
  22     68.43        0.7814        0.0003        6.9077        6.9079       6.126543       0.00560
  21     81.20        0.7814        0.0003        6.8989        6.8992       6.117832       0.00576
  20     96.49        0.7814        0.0004        6.8883        6.8887       6.107305       0.00581
  19     114.6        0.7814        0.0004        6.8756        6.8760       6.094608       0.00593
  18     136.5        0.7814        0.0005        6.8603        6.8608       6.079387       0.00585
  17     162.9        0.7815        0.0006        6.8418        6.8424       6.060964       0.00589
  16     196.4        0.7816        0.0007        6.8172        6.8180       6.036374       0.00619
  15     218.7        0.7817        0.0008        6.8003        6.8011       6.019393       0.00645
  14     243.0        0.7818        0.0009        6.7806        6.7815       5.999631       0.00685
  13     269.0        0.7821        0.0010        6.7564        6.7573       5.975248       0.00791
  12     297.5        0.7824        0.0011        6.7267        6.7277       5.945301       0.00888
  11     328.5        0.7829        0.0012        6.6900        6.6912       5.908252       0.01007
  10     361.9        0.7836        0.0013        6.6448        6.6461       5.862557       0.01156
   9     398.1        0.7845        0.0014        6.5889        6.5903       5.805806       0.01322
   8     437.6        0.7857        0.0015        6.5184        6.5200       5.734269       0.01530
   7     480.5        0.7873        0.0017        6.4291        6.4308       5.643419       0.01784
   6     533.0        0.7898        0.0018        6.3090        6.3109       5.521093       0.01968
   5     589.8        0.7930        0.0020        6.1767        6.1787       5.385660       0.02010
   4     651.6        0.7973        0.0022        6.0334        6.0355       5.238204       0.02016
   3     718.7        0.8030        0.0023        5.8803        5.8826       5.079634       0.01993
   2     792.3        0.8102        0.0025        5.7176        5.7201       4.909956       0.01946
   1     891.5        0.8221        0.0027        5.4978        5.5006       4.678440       0.01970
   0    1013.0        0.8425        0.0030        5.2286        5.2316       4.389089       0.02009



 Wavenumbers:  4650. -  5150. cm-1, ATM      1
 LEVEL PRESSURE   UPWARD FLUX   DIFDOWN FLUX  DIRDOWN FLUX  DOWNWARD FLUX   NET FLUX    HEATING RATE
          mb          W/m2          W/m2          W/m2        W/m2          W/m2       degree/day
  51    .06700        0.5437        0.0000        6.5710        6.5710       6.027250       0.00000
  50    .07753        0.5437        0.0000        6.5708        6.5708       6.027019       0.18523
  49    .09103        0.5437        0.0000        6.5705        6.5705       6.026731       0.18009
  48    0.1069        0.5437        0.0000        6.5701        6.5701       6.026403       0.17465
  47    0.1255        0.5437        0.0000        6.5698        6.5698       6.026030       0.16909
  46    0.1487        0.5437        0.0000        6.5693        6.5693       6.025565       0.16940
  45    0.1794        0.5437        0.0000        6.5687        6.5687       6.024941       0.17143
  44    0.2165        0.5437        0.0000        6.5680        6.5680       6.024217       0.16471
  43    0.2613        0.5437        0.0000        6.5671        6.5671       6.023380       0.15777
  42    0.3336        0.5437        0.0000        6.5658        6.5658       6.022042       0.15598
  41    0.4307        0.5437        0.0000        6.5641        6.5641       6.020352       0.14695
  40    0.5894        0.5437        0.0000        6.5615        6.5615       6.017783       0.13660
  39     1.339        0.5437        0.0000        6.5519        6.5519       6.008177       0.10815
  38     1.782        0.5437        0.0000        6.5478        6.5478       6.004031       0.07893
  37     2.292        0.5437        0.0000        6.5439        6.5439       6.000205       0.06336
  36     2.964        0.5437        0.0000        6.5400        6.5400       5.996308       0.04891
  35     3.853        0.5437        0.0000        6.5361        6.5361       5.992416       0.03694
  34     5.035        0.5437        0.0000        6.5321        6.5322       5.988456       0.02829
  33     6.613        0.5437        0.0000        6.5278        6.5278       5.984098       0.02330
  32     8.786        0.5437        0.0000        6.5223        6.5223       5.978638       0.02120
  31     11.80        0.5437        0.0001        6.5142        6.5143       5.970606       0.02249
  30     15.07        0.5437        0.0001        6.5049        6.5050       5.961289       0.02405
  29     18.79        0.5437        0.0001        6.4934        6.4935       5.949837       0.02597
  28     23.16        0.5436        0.0001        6.4788        6.4790       5.935324       0.02806
  27     28.12        0.5436        0.0002        6.4609        6.4611       5.917447       0.03039
  26     33.73        0.5436        0.0002        6.4396        6.4398       5.896132       0.03205
  25     40.54        0.5436        0.0002        6.4125        6.4128       5.869153       0.03347
  24     48.69        0.5436        0.0003        6.3790        6.3793       5.835697       0.03462
  23     57.69        0.5436        0.0003        6.3421        6.3424       5.798802       0.03458
  22     68.43        0.5436        0.0004        6.2990        6.2994       5.755838       0.03378
  21     81.20        0.5436        0.0004        6.2504        6.2509       5.707275       0.03209
  20     96.49        0.5436        0.0005        6.1973        6.1978       5.654171       0.02931
  19     114.6        0.5437        0.0006        6.1410        6.1416       5.597925       0.02626
  18     136.5        0.5437        0.0007        6.0822        6.0830       5.539227       0.02257
  17     162.9        0.5439        0.0009        6.0199        6.0207       5.476848       0.01994
  16     196.4        0.5441        0.0010        5.9449        5.9459       5.401796       0.01889
  15     218.7        0.5443        0.0011        5.8961        5.8972       5.352968       0.01854
  14     243.0        0.5445        0.0012        5.8419        5.8432       5.298636       0.01884
  13     269.0        0.5448        0.0014        5.7807        5.7820       5.237182       0.01994
  12     297.5        0.5453        0.0015        5.7106        5.7121       5.166790       0.02088
  11     328.5        0.5459        0.0016        5.6298        5.6315       5.085596       0.02208
  10     361.9        0.5467        0.0018        5.5365        5.5383       4.991590       0.02378
   9     398.1        0.5477        0.0019        5.4287        5.4307       4.882929       0.02532
   8     437.6        0.5491        0.0021        5.3065        5.3086       4.759497       0.02639
   7     480.5        0.5510        0.0023        5.1683        5.1706       4.619572       0.02748
   6     533.0        0.5538        0.0024        4.9922        4.9946       4.440813       0.02876
   5     589.8        0.5575        0.0026        4.8019        4.8045       4.246938       0.02878
   4     651.6        0.5625        0.0028        4.5997        4.6025       4.039963       0.02830
   3     718.7        0.5689        0.0030        4.3949        4.3979       3.828975       0.02652
   2     792.3        0.5771        0.0031        4.1936        4.1967       3.619656       0.02401
   1     891.5        0.5906        0.0033        3.9460        3.9493       3.358788       0.02220
   0    1013.0        0.6121        0.0036        3.6709        3.6745       3.062352       0.02058



 Wavenumbers:  5150. -  6150. cm-1, ATM      1
 LEVEL PRESSURE   UPWARD FLUX   DIFDOWN FLUX  DIRDOWN FLUX  DOWNWARD FLUX   NET FLUX    HEATING RATE
          mb          W/m2          W/m2          W/m2        W/m2          W/m2       degree/day
  51    .06700        1.4862        0.0000       16.4735       16.4735      14.987357       0.00000
  50    .07753        1.4861        0.0000       16.4735       16.4735      14.987350       0.00567
  49    .09103        1.4861        0.0000       16.4735       16.4735      14.987341       0.00577
  48    0.1069        1.4861        0.0000       16.4735       16.4735      14.987330       0.00586
  47    0.1255        1.4861        0.0000       16.4735       16.4735      14.987317       0.00595
  46    0.1487        1.4861        0.0000       16.4734       16.4734      14.987300       0.00627
  45    0.1794        1.4861        0.0000       16.4734       16.4734      14.987275       0.00669
  44    0.2165        1.4861        0.0000       16.4734       16.4734      14.987245       0.00682
  43    0.2613        1.4861        0.0000       16.4733       16.4734      14.987209       0.00691
  42    0.3336        1.4861        0.0000       16.4733       16.4733      14.987146       0.00730
  41    0.4307        1.4861        0.0000       16.4732       16.4732      14.987060       0.00748
  40    0.5894        1.4861        0.0000       16.4730       16.4731      14.986916       0.00767
  39     1.339        1.4861        0.0000       16.4723       16.4723      14.986205       0.00800
  38     1.782        1.4861        0.0000       16.4718       16.4719      14.985779       0.00810
  37     2.292        1.4861        0.0001       16.4713       16.4714      14.985284       0.00820
  36     2.964        1.4861        0.0001       16.4706       16.4707      14.984632       0.00819
  35     3.853        1.4861        0.0001       16.4697       16.4698      14.983766       0.00821
  34     5.035        1.4860        0.0001       16.4685       16.4687      14.982614       0.00823
  33     6.613        1.4860        0.0002       16.4669       16.4671      14.981074       0.00824
  32     8.786        1.4860        0.0002       16.4648       16.4650      14.979004       0.00804
  31     11.80        1.4859        0.0003       16.4617       16.4620      14.976062       0.00824
  30     15.07        1.4859        0.0004       16.4584       16.4588      14.972935       0.00807
  29     18.79        1.4858        0.0005       16.4547       16.4552      14.969448       0.00791
  28     23.16        1.4857        0.0006       16.4505       16.4511      14.965440       0.00775
  27     28.12        1.4856        0.0007       16.4458       16.4466      14.960935       0.00766
  26     33.73        1.4855        0.0009       16.4406       16.4415      14.955974       0.00746
  25     40.54        1.4854        0.0010       16.4345       16.4355      14.950109       0.00728
  24     48.69        1.4853        0.0013       16.4273       16.4285      14.943212       0.00714
  23     57.69        1.4852        0.0015       16.4196       16.4211      14.935918       0.00684
  22     68.43        1.4850        0.0018       16.4110       16.4127      14.927698       0.00646
  21     81.20        1.4848        0.0021       16.4010       16.4031      14.918274       0.00623
  20     96.49        1.4847        0.0025       16.3895       16.3919      14.907283       0.00607
  19     114.6        1.4844        0.0029       16.3756       16.3786      14.894154       0.00613
  18     136.5        1.4842        0.0035       16.3573       16.3608      14.876650       0.00673
  17     162.9        1.4839        0.0042       16.3262       16.3303      14.846467       0.00965
  16     196.4        1.4835        0.0050       16.2614       16.2664      14.782955       0.01599
  15     218.7        1.4832        0.0055       16.1975       16.2031      14.719826       0.02397
  14     243.0        1.4830        0.0061       16.0941       16.1002      14.617195       0.03560
  13     269.0        1.4828        0.0067       15.8895       15.8962      14.413461       0.06609
  12     297.5        1.4826        0.0073       15.5657       15.5730      14.090486       0.09579
  11     328.5        1.4824        0.0079       15.1588       15.1668      13.684377       0.11042
  10     361.9        1.4824        0.0085       14.7145       14.7230      13.240655       0.11227
   9     398.1        1.4824        0.0091       14.2072       14.2163      12.733884       0.11807
   8     437.6        1.4827        0.0097       13.6059       13.6156      12.132823       0.12851
   7     480.5        1.4834        0.0102       12.9211       12.9313      11.447910       0.13451
   6     533.0        1.4848        0.0107       12.1263       12.1370      10.652236       0.12800
   5     589.8        1.4871        0.0112       11.3759       11.3871       9.899918       0.11167
   4     651.6        1.4910        0.0117       10.7063       10.7179       9.226899       0.09204
   3     718.7        1.4969        0.0123       10.1648       10.1770       8.680151       0.06871
   2     792.3        1.5049        0.0129        9.7476        9.7605       8.255653       0.04869
   1     891.5        1.5194        0.0139        9.3370        9.3509       7.831471       0.03610
   0    1013.0        1.5472        0.0151        8.9379        8.9529       7.405775       0.02956



 Wavenumbers:  6150. -  7700. cm-1, ATM      1
 LEVEL PRESSURE   UPWARD FLUX   DIFDOWN FLUX  DIRDOWN FLUX  DOWNWARD FLUX   NET FLUX    HEATING RATE
          mb          W/m2          W/m2          W/m2        W/m2          W/m2       degree/day
  51    .06700        2.5786        0.0000       30.4684       30.4684      27.889786       0.00000
  50    .07753        2.5786        0.0000       30.4684       30.4684      27.889762       0.01871
  49    .09103        2.5786        0.0000       30.4683       30.4683      27.889732       0.01856
  48    0.1069        2.5786        0.0000       30.4683       30.4683      27.889698       0.01840
  47    0.1255        2.5786        0.0000       30.4682       30.4682      27.889658       0.01824
  46    0.1487        2.5786        0.0000       30.4682       30.4682      27.889606       0.01875
  45    0.1794        2.5786        0.0000       30.4681       30.4681      27.889535       0.01955
  44    0.2165        2.5786        0.0000       30.4680       30.4680      27.889450       0.01945
  43    0.2613        2.5786        0.0000       30.4679       30.4679      27.889347       0.01932
  42    0.3336        2.5786        0.0000       30.4677       30.4677      27.889175       0.02001
  41    0.4307        2.5786        0.0000       30.4675       30.4675      27.888945       0.02006
  40    0.5894        2.5785        0.0001       30.4670       30.4671      27.888564       0.02023
  39     1.339        2.5785        0.0001       30.4651       30.4652      27.886741       0.02052
  38     1.782        2.5784        0.0002       30.4639       30.4641      27.885669       0.02041
  37     2.292        2.5784        0.0002       30.4626       30.4628      27.884432       0.02050
  36     2.964        2.5783        0.0003       30.4608       30.4611      27.882812       0.02033
  35     3.853        2.5782        0.0004       30.4585       30.4589      27.880683       0.02021
  34     5.035        2.5781        0.0005       30.4554       30.4560      27.877871       0.02009
  33     6.613        2.5779        0.0007       30.4514       30.4521      27.874145       0.01992
  32     8.786        2.5777        0.0009       30.4460       30.4469      27.869183       0.01927
  31     11.80        2.5774        0.0013       30.4383       30.4396      27.862202       0.01955
  30     15.07        2.5771        0.0016       30.4303       30.4319      27.854855       0.01897
  29     18.79        2.5767        0.0020       30.4214       30.4234      27.846736       0.01841
  28     23.16        2.5763        0.0025       30.4112       30.4138      27.837482       0.01789
  27     28.12        2.5758        0.0031       30.3999       30.4030      27.827180       0.01751
  26     33.73        2.5752        0.0037       30.3876       30.3912      27.815997       0.01681
  25     40.54        2.5745        0.0044       30.3731       30.3775      27.802981       0.01615
  24     48.69        2.5737        0.0053       30.3564       30.3617      27.787935       0.01557
  23     57.69        2.5728        0.0062       30.3388       30.3450      27.772204       0.01475
  22     68.43        2.5717        0.0074       30.3189       30.3263      27.754522       0.01390
  21     81.20        2.5705        0.0088       30.2962       30.3050      27.734509       0.01322
  20     96.49        2.5689        0.0104       30.2702       30.2806      27.711668       0.01261
  19     114.6        2.5671        0.0124       30.2401       30.2525      27.685395       0.01227
  18     136.5        2.5650        0.0147       30.2035       30.2182      27.653221       0.01237
  17     162.9        2.5624        0.0175       30.1508       30.1683      27.605897       0.01513
  16     196.4        2.5591        0.0210       30.0536       30.0746      27.515511       0.02275
  15     218.7        2.5570        0.0234       29.9580       29.9814      27.424440       0.03458
  14     243.0        2.5547        0.0259       29.8027       29.8285      27.273856       0.05223
  13     269.0        2.5523        0.0285       29.5212       29.5497      26.997380       0.08969
  12     297.5        2.5498        0.0312       29.0754       29.1066      26.556761       0.13068
  11     328.5        2.5474        0.0339       28.4328       28.4667      25.919296       0.17332
  10     361.9        2.5451        0.0365       27.6520       27.6885      25.143372       0.19632
   9     398.1        2.5431        0.0391       26.7881       26.8272      24.284131       0.20018
   8     437.6        2.5417        0.0417       25.7945       25.8362      23.294505       0.21159
   7     480.5        2.5414        0.0440       24.6008       24.6448      22.103453       0.23392
   6     533.0        2.5430        0.0464       23.1374       23.1838      20.640830       0.23529
   5     589.8        2.5477        0.0486       21.6806       21.7292      19.181476       0.21662
   4     651.6        2.5573        0.0506       20.2656       20.3163      17.758951       0.19453
   3     718.7        2.5729        0.0527       18.9971       19.0498      16.476913       0.16112
   2     792.3        2.5954        0.0550       17.9051       17.9601      15.364726       0.12756
   1     891.5        2.6382        0.0580       16.7007       16.7587      14.120546       0.10587
   0    1013.0        2.7246        0.0613       15.4407       15.5020      12.777470       0.09326



 Wavenumbers:  7700. -  8050. cm-1, ATM      1
 LEVEL PRESSURE   UPWARD FLUX   DIFDOWN FLUX  DIRDOWN FLUX  DOWNWARD FLUX   NET FLUX    HEATING RATE
          mb          W/m2          W/m2          W/m2        W/m2          W/m2       degree/day
  51    .06700        1.0620        0.0000        7.2006        7.2006       6.138545       0.00000
  50    .07753        1.0620        0.0000        7.2006        7.2006       6.138527       0.01479
  49    .09103        1.0620        0.0000        7.2005        7.2005       6.138504       0.01450
  48    0.1069        1.0620        0.0000        7.2005        7.2005       6.138477       0.01419
  47    0.1255        1.0620        0.0000        7.2005        7.2005       6.138446       0.01389
  46    0.1487        1.0620        0.0000        7.2004        7.2005       6.138408       0.01409
  45    0.1794        1.0620        0.0000        7.2004        7.2004       6.138355       0.01450
  44    0.2165        1.0620        0.0000        7.2003        7.2003       6.138292       0.01422
  43    0.2613        1.0620        0.0000        7.2003        7.2003       6.138218       0.01396
  42    0.3336        1.0620        0.0000        7.2001        7.2001       6.138096       0.01428
  41    0.4307        1.0621        0.0000        7.2000        7.2000       6.137933       0.01412
  40    0.5894        1.0621        0.0000        7.1997        7.1997       6.137668       0.01411
  39     1.339        1.0621        0.0001        7.1984        7.1985       6.136414       0.01412
  38     1.782        1.0621        0.0001        7.1977        7.1978       6.135677       0.01402
  37     2.292        1.0621        0.0001        7.1968        7.1969       6.134825       0.01412
  36     2.964        1.0621        0.0001        7.1957        7.1958       6.133706       0.01404
  35     3.853        1.0621        0.0002        7.1942        7.1944       6.132229       0.01402
  34     5.035        1.0622        0.0002        7.1922        7.1924       6.130268       0.01401
  33     6.613        1.0622        0.0003        7.1896        7.1899       6.127652       0.01399
  32     8.786        1.0623        0.0004        7.1860        7.1864       6.124132       0.01367
  31     11.80        1.0623        0.0005        7.1809        7.1815       6.119108       0.01406
  30     15.07        1.0624        0.0006        7.1755        7.1762       6.113731       0.01388
  29     18.79        1.0625        0.0008        7.1694        7.1702       6.107676       0.01373
  28     23.16        1.0626        0.0010        7.1623        7.1633       6.100633       0.01362
  27     28.12        1.0628        0.0012        7.1542        7.1554       6.092615       0.01363
  26     33.73        1.0629        0.0014        7.1452        7.1466       6.083692       0.01342
  25     40.54        1.0631        0.0017        7.1343        7.1361       6.072979       0.01329
  24     48.69        1.0633        0.0021        7.1214        7.1235       6.060163       0.01326
  23     57.69        1.0636        0.0025        7.1073        7.1098       6.046211       0.01308
  22     68.43        1.0639        0.0029        7.0907        7.0936       6.029762       0.01293
  21     81.20        1.0642        0.0035        7.0712        7.0746       6.010403       0.01279
  20     96.49        1.0646        0.0041        7.0482        7.0523       5.987662       0.01255
  19     114.6        1.0652        0.0049        7.0214        7.0263       5.961111       0.01240
  18     136.5        1.0658        0.0058        6.9903        6.9960       5.930245       0.01187
  17     162.9        1.0666        0.0068        6.9541        6.9609       5.894299       0.01149
  16     196.4        1.0676        0.0082        6.9084        6.9165       5.848924       0.01142
  15     218.7        1.0683        0.0091        6.8790        6.8881       5.819795       0.01106
  14     243.0        1.0691        0.0101        6.8477        6.8578       5.788699       0.01079
  13     269.0        1.0700        0.0111        6.8145        6.8256       5.755607       0.01074
  12     297.5        1.0710        0.0122        6.7792        6.7915       5.720510       0.01041
  11     328.5        1.0721        0.0135        6.7418        6.7552       5.683150       0.01016
  10     361.9        1.0733        0.0148        6.7021        6.7169       5.643592       0.01001
   9     398.1        1.0747        0.0162        6.6602        6.6763       5.601659       0.00977
   8     437.6        1.0762        0.0176        6.6157        6.6334       5.557142       0.00952
   7     480.5        1.0780        0.0192        6.5685        6.5878       5.509733       0.00931
   6     533.0        1.0804        0.0212        6.5107        6.5319       5.451547       0.00936
   5     589.8        1.0831        0.0233        6.4486        6.4719       5.388746       0.00932
   4     651.6        1.0864        0.0255        6.3816        6.4071       5.320723       0.00930
   3     718.7        1.0902        0.0279        6.3095        6.3374       5.247253       0.00923
   2     792.3        1.0945        0.0304        6.2324        6.2629       5.168324       0.00905
   1     891.5        1.1010        0.0338        6.1281        6.1619       5.060873       0.00914
   0    1013.0        1.1098        0.0378        6.0002        6.0380       4.928263       0.00921



 Wavenumbers:  8050. - 12850. cm-1, ATM      1
 LEVEL PRESSURE   UPWARD FLUX   DIFDOWN FLUX  DIRDOWN FLUX  DOWNWARD FLUX   NET FLUX    HEATING RATE
          mb          W/m2          W/m2          W/m2        W/m2          W/m2       degree/day
  51    .06700       25.4947        0.0000      100.8135      100.8135      75.318807       0.00000
  50    .07753       25.4947        0.0000      100.8135      100.8135      75.318807       0.00000
  49    .09103       25.4947        0.0001      100.8134      100.8135      75.318807       0.00000
  48    0.1069       25.4946        0.0001      100.8134      100.8134      75.318807       0.00000
  47    0.1255       25.4946        0.0001      100.8133      100.8134      75.318807      -0.00000
  46    0.1487       25.4946        0.0002      100.8132      100.8134      75.318807       0.00000
  45    0.1794       25.4945        0.0002      100.8131      100.8133      75.318807      -0.00000
  44    0.2165       25.4944        0.0003      100.8129      100.8133      75.318807       0.00000
  43    0.2613       25.4944        0.0004      100.8127      100.8132      75.318807      -0.00000
  42    0.3336       25.4942        0.0006      100.8125      100.8130      75.318807      -0.00000
  41    0.4307       25.4941        0.0008      100.8121      100.8129      75.318807      -0.00000
  40    0.5894       25.4938        0.0012      100.8115      100.8126      75.318807       0.00000
  39     1.339       25.4925        0.0028      100.8085      100.8113      75.318807       0.00000
  38     1.782       25.4917        0.0038      100.8068      100.8105      75.318807      -0.00000
  37     2.292       25.4908        0.0049      100.8047      100.8096      75.318807      -0.00000
  36     2.964       25.4897        0.0064      100.8021      100.8085      75.318807       0.00000
  35     3.853       25.4881        0.0083      100.7986      100.8069      75.318807      -0.00000
  34     5.035       25.4861        0.0109      100.7940      100.8049      75.318807       0.00000
  33     6.613       25.4833        0.0144      100.7878      100.8021      75.318807       0.00000
  32     8.786       25.4796        0.0190      100.7794      100.7984      75.318807       0.00000
  31     11.80       25.4743        0.0257      100.7674      100.7931      75.318807      -0.00000
  30     15.07       25.4686        0.0329      100.7546      100.7875      75.318807       0.00000
  29     18.79       25.4622        0.0410      100.7400      100.7810      75.318807      -0.00000
  28     23.16       25.4547        0.0505      100.7230      100.7735      75.318807       0.00000
  27     28.12       25.4461        0.0614      100.7035      100.7649      75.318807      -0.00000
  26     33.73       25.4364        0.0736      100.6817      100.7552      75.318807       0.00000
  25     40.54       25.4247        0.0883      100.6552      100.7435      75.318807      -0.00000
  24     48.69       25.4106        0.1061      100.6234      100.7294      75.318807       0.00000
  23     57.69       25.3951        0.1256      100.5883      100.7139      75.318807      -0.00000
  22     68.43       25.3766        0.1490      100.5464      100.6954      75.318807       0.00000
  21     81.20       25.3545        0.1768      100.4965      100.6733      75.318807      -0.00000
  20     96.49       25.3282        0.2100      100.4370      100.6470      75.318807       0.00000
  19     114.6       25.2968        0.2495      100.3646      100.6141      75.317259       0.00072
  18     136.5       25.2596        0.2964      100.2782      100.5746      75.315012       0.00086
  17     162.9       25.2151        0.3523      100.1732      100.5255      75.310390       0.00148
  16     196.4       25.1574        0.4250      100.0300      100.4550      75.297638       0.00321
  15     218.7       25.1194        0.4728       99.9271      100.3999      75.280552       0.00649
  14     243.0       25.0781        0.5249       99.7972      100.3220      75.243939       0.01270
  13     269.0       25.0336        0.5812       99.6083      100.1895      75.155963       0.02854
  12     297.5       24.9859        0.6421       99.3424       99.9844      74.998509       0.04670
  11     328.5       24.9353        0.7076       98.9847       99.6924      74.757084       0.06564
  10     361.9       24.8821        0.7780       98.5369       99.3149      74.432745       0.08206
   9     398.1       24.8270        0.8534       97.9951       98.8484      74.021385       0.09584
   8     437.6       24.7712        0.9338       97.3199       98.2537      73.482458       0.11523
   7     480.5       24.7174        1.0190       96.4368       97.4558      72.738411       0.14613
   6     533.0       24.6612        1.1223       95.1797       96.3020      71.640803       0.17657
   5     589.8       24.6151        1.2315       93.6703       94.9018      70.286673       0.20100
   4     651.6       24.5868        1.3461       91.8963       93.2424      68.655618       0.22305
   3     718.7       24.5802        1.4666       89.9707       91.4373      66.857134       0.22602
   2     792.3       24.5978        1.5934       88.0075       89.6009      65.003144       0.21263
   1     891.5       24.6720        1.7609       85.4652       87.2261      62.554158       0.20840
   0    1013.0       24.8875        1.9543       82.3644       84.3187      59.431215       0.21684



 Wavenumbers: 12850. - 16000. cm-1, ATM      1
 LEVEL PRESSURE   UPWARD FLUX   DIFDOWN FLUX  DIRDOWN FLUX  DOWNWARD FLUX   NET FLUX    HEATING RATE
          mb          W/m2          W/m2          W/m2        W/m2          W/m2       degree/day
  51    .06700       33.6991        0.0000       63.1686       63.1686      29.469444       0.00000
  50    .07753       33.6991        0.0001       63.1677       63.1678      29.468664       0.62499
  49    .09103       33.6991        0.0001       63.1666       63.1668      29.467692       0.60742
  48    0.1069       33.6990        0.0002       63.1654       63.1656      29.466585       0.58905
  47    0.1255       33.6990        0.0003       63.1640       63.1643      29.465327       0.57062
  46    0.1487       33.6990        0.0004       63.1623       63.1627      29.463757       0.57223
  45    0.1794       33.6989        0.0006       63.1600       63.1606      29.461652       0.57795
  44    0.2165       33.6989        0.0008       63.1573       63.1581      29.459217       0.55386
  43    0.2613       33.6988        0.0010       63.1542       63.1552      29.456408       0.52941
  42    0.3336       33.6987        0.0014       63.1493       63.1507      29.451933       0.52178
  41    0.4307       33.6987        0.0019       63.1431       63.1450      29.446335       0.48671
  40    0.5894       33.6987        0.0027       63.1338       63.1365      29.437855       0.45099
  39     1.339       33.6999        0.0065       63.0956       63.1021      29.402219       0.40119
  38     1.782       33.7016        0.0088       63.0740       63.0828      29.381240       0.39941
  37     2.292       33.7045        0.0114       63.0477       63.0591      29.354632       0.44070
  36     2.964       33.7096        0.0149       63.0095       63.0244      29.314787       0.50017
  35     3.853       33.7184        0.0194       62.9533       62.9727      29.254313       0.57391
  34     5.035       33.7319        0.0254       62.8725       62.8979      29.166052       0.63050
  33     6.613       33.7509        0.0335       62.7621       62.7955      29.044591       0.64933
  32     8.786       33.7756        0.0443       62.6183       62.6625      28.886928       0.61231
  31     11.80       33.8071        0.0597       62.4284       62.4880      28.680978       0.57660
  30     15.07       33.8364        0.0762       62.2426       62.3188      28.482349       0.51282
  29     18.79       33.8657        0.0948       62.0493       62.1441      28.278410       0.46239
  28     23.16       33.8953        0.1165       61.8425       61.9589      28.063662       0.41525
  27     28.12       33.9237        0.1412       61.6278       61.7690      27.845271       0.37125
  26     33.73       33.9480        0.1688       61.4177       61.5865      27.638496       0.31089
  25     40.54       33.9685        0.2021       61.1983       61.4005      27.431963       0.25623
  24     48.69       33.9846        0.2422       60.9680       61.2102      27.225626       0.21353
  23     57.69       33.9941        0.2862       60.7478       61.0341      27.040002       0.17399
  22     68.43       33.9963        0.3386       60.5202       60.8588      26.862454       0.13958
  21     81.20       33.9868        0.4009       60.2939       60.6948      26.707987       0.10207
  20     96.49       33.9640        0.4751       60.0643       60.5394      26.575405       0.07318
  19     114.6       33.9355        0.5637       59.8079       60.3715      26.436039       0.06507
  18     136.5       33.8970        0.6684       59.5159       60.1843      26.287300       0.05719
  17     162.9       33.8469        0.7927       59.1775       59.9703      26.123396       0.05239
  16     196.4       33.7728        0.9536       58.7616       59.7152      25.942393       0.04556
  15     218.7       33.7209        1.0589       58.4970       59.5559      25.835032       0.04076
  14     243.0       33.6631        1.1732       58.2134       59.3865      25.723443       0.03870
  13     269.0       33.5990        1.2967       57.9107       59.2074      25.608338       0.03734
  12     297.5       33.5286        1.4298       57.5881       59.0179      25.489230       0.03533
  11     328.5       33.4523        1.5733       57.2417       58.8150      25.362660       0.03441
  10     361.9       33.3701        1.7274       56.8700       58.5974      25.227247       0.03426
   9     398.1       33.2820        1.8927       56.4708       58.3635      25.081423       0.03397
   8     437.6       33.1884        2.0696       56.0399       58.1095      24.921056       0.03429
   7     480.5       33.0900        2.2584       55.5727       57.8312      24.741160       0.03533
   6     533.0       32.9722        2.4898       54.9882       57.4780      24.505784       0.03786
   5     589.8       32.8505        2.7377       54.3462       57.0840      24.233504       0.04042
   4     651.6       32.7270        3.0025       53.6423       56.6448      23.917826       0.04317
   3     718.7       32.6028        3.2843       52.8819       56.1662      23.563382       0.04454
   2     792.3       32.4793        3.5832       52.0734       55.6566      23.177300       0.04428
   1     891.5       32.3315        3.9818       50.9929       54.9748      22.643274       0.04544
   0    1013.0       32.1935        4.4527       49.7006       54.1533      21.959784       0.04746



 Wavenumbers: 16000. - 22650. cm-1, ATM      1
 LEVEL PRESSURE   UPWARD FLUX   DIFDOWN FLUX  DIRDOWN FLUX  DOWNWARD FLUX   NET FLUX    HEATING RATE
          mb          W/m2          W/m2          W/m2        W/m2          W/m2       degree/day
  51    .06700       75.8054        0.0000      100.7153      100.7153      24.909927       0.00000
  50    .07753       75.8052        0.0003      100.7147      100.7151      24.909810       0.09420
  49    .09103       75.8051        0.0007      100.7140      100.7147      24.909639       0.10684
  48    0.1069       75.8049        0.0012      100.7131      100.7143      24.909410       0.12184
  47    0.1255       75.8048        0.0017      100.7121      100.7139      24.909104       0.13888
  46    0.1487       75.8045        0.0024      100.7108      100.7132      24.908652       0.16456
  45    0.1794       75.8043        0.0034      100.7089      100.7122      24.907946       0.19376
  44    0.2165       75.8040        0.0045      100.7066      100.7110      24.906989       0.21776
  43    0.2613       75.8038        0.0058      100.7037      100.7095      24.905690       0.24482
  42    0.3336       75.8034        0.0079      100.6987      100.7066      24.903221       0.28789
  41    0.4307       75.8031        0.0108      100.6918      100.7026      24.899499       0.32362
  40    0.5894       75.8028        0.0155      100.6797      100.6953      24.892401       0.37747
  39     1.339       75.8072        0.0377      100.6095      100.6472      24.839970       0.59028
  38     1.782       75.8139        0.0507      100.5585      100.6092      24.795318       0.85009
  37     2.292       75.8254        0.0658      100.4903      100.5561      24.730705       1.07016
  36     2.964       75.8463        0.0856      100.3868      100.4724      24.626080       1.31336
  35     3.853       75.8821        0.1117      100.2306      100.3423      24.460185       1.57437
  34     5.035       75.9378        0.1463      100.0045      100.1508      24.212951       1.76614
  33     6.613       76.0164        0.1925       99.6939       99.8863      23.869893       1.83398
  32     8.786       76.1181        0.2545       99.2881       99.5425      23.424413       1.73009
  31     11.80       76.2478        0.3429       98.7496       99.0925      22.844737       1.62291
  30     15.07       76.3686        0.4376       98.2198       98.6574      22.288791       1.43535
  29     18.79       76.4885        0.5441       97.6651       98.2092      21.720727       1.28798
  28     23.16       76.6095        0.6681       97.0671       97.7352      21.125746       1.15050
  27     28.12       76.7255        0.8093       96.4406       97.2499      20.524363       1.02231
  26     33.73       76.8233        0.9668       95.8179       96.7847      19.961387       0.84645
  25     40.54       76.9045        1.1565       95.1548       96.3113      19.406847       0.68797
  24     48.69       76.9664        1.3842       94.4420       95.8262      18.859775       0.56613
  23     57.69       76.9999        1.6333       93.7416       95.3750      18.375078       0.45433
  22     68.43       77.0025        1.9288       92.9954       94.9242      17.921652       0.35645
  21     81.20       76.9548        2.2795       92.2232       94.5026      17.547862       0.24700
  20     96.49       76.8509        2.6954       91.4110       94.1064      17.255526       0.16135
  19     114.6       76.7041        3.1858       90.5070       93.6929      16.988764       0.12456
  18     136.5       76.5152        3.7622       89.4803       93.2425      16.727338       0.10052
  17     162.9       76.2774        4.4417       88.3023       92.7440      16.466594       0.08334
  16     196.4       75.9402        5.3127       86.8609       92.1735      16.233298       0.05872
  15     218.7       75.7090        5.8784       85.9496       91.8280      16.118982       0.04340
  14     243.0       75.4540        6.4877       84.9797       91.4674      16.013405       0.03662
  13     269.0       75.1741        7.1415       83.9510       91.0925      15.918483       0.03079
  12     297.5       74.8684        7.8406       82.8626       90.7032      15.834755       0.02483
  11     328.5       74.5383        8.5874       81.7053       90.2927      15.754336       0.02187
  10     361.9       74.1836        9.3815       80.4796       89.8611      15.677506       0.01944
   9     398.1       73.8032       10.2248       79.1823       89.4072      15.604015       0.01712
   8     437.6       73.3972       11.1177       77.8117       88.9294      15.532181       0.01536
   7     480.5       72.9652       12.0602       76.3670       88.4272      15.461960       0.01379
   6     533.0       72.4388       13.2002       74.6208       87.8211      15.382271       0.01282
   5     589.8       71.8789       14.4047       72.7751       87.1798      15.300884       0.01208
   4     651.6       71.2863       15.6716       70.8305       86.5022      15.215881       0.01162
   3     718.7       70.6611       16.9993       68.7893       85.7886      15.127532       0.01110
   2     792.3       70.0047       18.3833       66.6574       85.0407      15.035963       0.01050
   1     891.5       69.1407       20.1911       63.8630       84.0541      14.913332       0.01044
   0    1013.0       68.1378       22.2722       60.6277       82.8999      14.762135       0.01050



 Wavenumbers: 22650. - 29000. cm-1, ATM      1
 LEVEL PRESSURE   UPWARD FLUX   DIFDOWN FLUX  DIRDOWN FLUX  DOWNWARD FLUX   NET FLUX    HEATING RATE
          mb          W/m2          W/m2          W/m2        W/m2          W/m2       degree/day
  51    .06700       34.3498        0.0000       38.0063       38.0063       3.656532       0.00000
  50    .07753       34.3496        0.0004       38.0057       38.0061       3.656532       0.00000
  49    .09103       34.3494        0.0009       38.0050       38.0059       3.656532       0.00000
  48    0.1069       34.3491        0.0014       38.0042       38.0057       3.656532      -0.00000
  47    0.1255       34.3489        0.0021       38.0033       38.0054       3.656532       0.00000
  46    0.1487       34.3485        0.0029       38.0022       38.0050       3.656532       0.00000
  45    0.1794       34.3480        0.0040       38.0006       38.0046       3.656532      -0.00000
  44    0.2165       34.3475        0.0053       37.9987       38.0040       3.656532       0.00000
  43    0.2613       34.3468        0.0068       37.9965       38.0033       3.656532      -0.00000
  42    0.3336       34.3457        0.0094       37.9928       38.0022       3.656532       0.00000
  41    0.4307       34.3442        0.0128       37.9880       38.0008       3.656532      -0.00000
  40    0.5894       34.3418        0.0183       37.9800       37.9984       3.656532       0.00000
  39     1.339       34.3305        0.0446       37.9425       37.9870       3.656532       0.00000
  38     1.782       34.3239        0.0600       37.9204       37.9804       3.656532       0.00000
  37     2.292       34.3162        0.0778       37.8949       37.9727       3.656532      -0.00000
  36     2.964       34.3061        0.1012       37.8614       37.9626       3.656532       0.00000
  35     3.853       34.2927        0.1320       37.8172       37.9493       3.656532       0.00000
  34     5.035       34.2750        0.1730       37.7586       37.9316       3.656532       0.00000
  33     6.613       34.2514        0.2276       37.6803       37.9079       3.656532       0.00000
  32     8.786       34.2196        0.3011       37.5750       37.8762       3.656532       0.00000
  31     11.80       34.1743        0.4059       37.4249       37.8308       3.656532       0.00000
  30     15.07       34.1257        0.5181       37.2642       37.7823       3.656532      -0.00000
  29     18.79       34.0711        0.6443       37.0833       37.7276       3.656532       0.00000
  28     23.16       34.0075        0.7911       36.8730       37.6641       3.656532      -0.00000
  27     28.12       33.9352        0.9579       36.6338       37.5917       3.656532      -0.00000
  26     33.73       33.8547        1.1435       36.3677       37.5112       3.656532       0.00000
  25     40.54       33.7581        1.3660       36.0486       37.4146       3.656532       0.00000
  24     48.69       33.6425        1.6318       35.6672       37.2991       3.656532      -0.00000
  23     57.69       33.5168        1.9206       35.2527       37.1733       3.656532       0.00000
  22     68.43       33.3687        2.2603       34.7649       37.0253       3.656532      -0.00000
  21     81.20       33.1947        2.6589       34.1922       36.8512       3.656532       0.00000
  20     96.49       32.9905        3.1253       33.5218       36.6471       3.656532      -0.00000
  19     114.6       32.7528        3.6670       32.7424       36.4094       3.656532       0.00000
  18     136.5       32.4775        4.2924       31.8416       36.1340       3.656532       0.00000
  17     162.9       32.1584        5.0142       30.8008       35.8150       3.656532       0.00000
  16     196.4       31.7585        5.9143       29.5007       35.4150       3.656532       0.00000
  15     218.7       31.5042        6.4839       28.6768       35.1607       3.656532      -0.00000
  14     243.0       31.2349        7.0845       27.8069       34.8914       3.656532       0.00000
  13     269.0       30.9512        7.7141       26.8936       34.6077       3.656532       0.00000
  12     297.5       30.6538        8.3705       25.9398       34.3103       3.656532       0.00000
  11     328.5       30.3427        9.0532       24.9460       33.9992       3.656532      -0.00000
  10     361.9       30.0192        9.7583       23.9174       33.6757       3.656532       0.00000
   9     398.1       29.6837       10.4840       22.8562       33.3402       3.656532       0.00000
   8     437.6       29.3376       11.2261       21.7681       32.9942       3.656532      -0.00000
   7     480.5       28.9820       11.9814       20.6571       32.6385       3.656532       0.00000
   6     533.0       28.5650       12.8566       19.3649       32.2215       3.656532       0.00000
   5     589.8       28.1395       13.7368       18.0593       31.7960       3.656532       0.00000
   4     651.6       27.7079       14.6147       16.7497       31.3644       3.656532       0.00000
   3     718.7       27.2722       15.4840       15.4448       30.9288       3.656532      -0.00000
   2     792.3       26.8358       16.3354       14.1569       30.4923       3.656532       0.00000
   1     891.5       26.2913       17.3659       12.5820       29.9479       3.656532       0.00000
   0    1013.0       25.6984       18.4412       10.9137       29.3549       3.656532      -0.00000



 Wavenumbers: 29000. - 38000. cm-1, ATM      1
 LEVEL PRESSURE   UPWARD FLUX   DIFDOWN FLUX  DIRDOWN FLUX  DOWNWARD FLUX   NET FLUX    HEATING RATE
          mb          W/m2          W/m2          W/m2        W/m2          W/m2       degree/day
  51    .06700        4.8871        0.0000       13.4026       13.4026       8.515542       0.00000
  50    .07753        4.8868        0.0003       13.3983       13.3986       8.511743       3.04438
  49    .09103        4.8866        0.0007       13.3921       13.3928       8.506224       3.44966
  48    0.1069        4.8863        0.0011       13.3840       13.3851       8.498847       3.92676
  47    0.1255        4.8859        0.0016       13.3733       13.3749       8.489002       4.46317
  46    0.1487        4.8855        0.0022       13.3579       13.3600       8.474560       5.26437
  45    0.1794        4.8849        0.0030       13.3340       13.3371       8.452160       6.14925
  44    0.2165        4.8842        0.0040       13.3024       13.3064       8.422142       6.82875
  43    0.2613        4.8835        0.0052       13.2604       13.2656       8.382087       7.55009
  42    0.3336        4.8823        0.0070       13.1833       13.1903       8.308081       8.62840
  41    0.4307        4.8807        0.0095       13.0729       13.0824       8.201709       9.24878
  40    0.5894        4.8783        0.0134       12.8796       12.8930       8.014667       9.94668
  39     1.339        4.8698        0.0296       11.9165       11.9462       7.076334      10.56392
  38     1.782        4.8665        0.0379       11.4399       11.4779       6.611358       8.85239
  37     2.292        4.8640        0.0468       10.9796       11.0264       6.162432       7.43539
  36     2.964        4.8626        0.0577       10.4786       10.5364       5.673809       6.13369
  35     3.853        4.8632        0.0712        9.9429       10.0141       5.150961       4.96192
  34     5.035        4.8665        0.0880        9.4007        9.4887       4.622238       3.77698
  33     6.613        4.8727        0.1094        8.8752        8.9846       4.111854       2.72851
  32     8.786        4.8813        0.1369        8.3786        8.5155       3.634127       1.85532
  31     11.80        4.8918        0.1746        7.8897        8.0643       3.172474       1.29248
  30     15.07        4.9008        0.2136        7.5108        7.7244       2.823558       0.90083
  29     18.79        4.9092        0.2560        7.1776        7.4336       2.524472       0.67812
  28     23.16        4.9168        0.3038        6.8664        7.1703       2.253495       0.52398
  27     28.12        4.9228        0.3567        6.5780        6.9347       2.011853       0.41077
  26     33.73        4.9250        0.4142        6.3195        6.7337       1.808732       0.30540
  25     40.54        4.9220        0.4821        6.0663        6.5484       1.626421       0.22618
  24     48.69        4.9133        0.5617        5.8128        6.3746       1.461230       0.17095
  23     57.69        4.8989        0.6466        5.5777        6.2243       1.325380       0.12734
  22     68.43        4.8766        0.7449        5.3379        6.0828       1.206202       0.09369
  21     81.20        4.8420        0.8589        5.0965        5.9554       1.113421       0.06131
  20     96.49        4.7939        0.9905        4.8476        5.8382       1.044318       0.03814
  19     114.6        4.7354        1.1397        4.5799        5.7196       0.984157       0.02809
  18     136.5        4.6677        1.3064        4.2891        5.5954       0.927757       0.02169
  17     162.9        4.5903        1.4911        3.9732        5.4643       0.873978       0.01719
  16     196.4        4.4923        1.7123        3.6080        5.3203       0.827995       0.01157
  15     218.7        4.4305        1.8469        3.3898        5.2366       0.806099       0.00831
  14     243.0        4.3663        1.9840        3.1686        5.1525       0.786234       0.00689
  13     269.0        4.2999        2.1225        2.9461        5.0686       0.768709       0.00569
  12     297.5        4.2317        2.2613        2.7239        4.9853       0.753543       0.00450
  11     328.5        4.1626        2.3990        2.5029        4.9019       0.739295       0.00387
  10     361.9        4.0930        2.5342        2.2848        4.8190       0.725995       0.00336
   9     398.1        4.0233        2.6659        2.0710        4.7369       0.713619       0.00288
   8     437.6        3.9540        2.7926        1.8633        4.6559       0.701912       0.00250
   7     480.5        3.8855        2.9133        1.6632        4.5765       0.691001       0.00214
   6     533.0        3.8085        3.0426        1.4452        4.4878       0.679337       0.00188
   5     589.8        3.7337        3.1608        1.2412        4.4019       0.668268       0.00164
   4     651.6        3.6616        3.2664        1.0528        4.3192       0.657646       0.00145
   3     718.7        3.5924        3.3586        0.8812        4.2398       0.647433       0.00128
   2     792.3        3.5263        3.4368        0.7272        4.1639       0.637608       0.00113
   1     891.5        3.4483        3.5141        0.5599        4.0740       0.625704       0.00101
   0    1013.0        3.3678        3.5730        0.4076        3.9806       0.612834       0.00089



 Wavenumbers: 38000. - 50000. cm-1, ATM      1
 LEVEL PRESSURE   UPWARD FLUX   DIFDOWN FLUX  DIRDOWN FLUX  DOWNWARD FLUX   NET FLUX    HEATING RATE
          mb          W/m2          W/m2          W/m2        W/m2          W/m2       degree/day
  51    .06700        0.0051        0.0000        0.8267        0.8267       0.821528       0.00000
  50    .07753        0.0051        0.0001        0.8242        0.8243       0.819196       1.86936
  49    .09103        0.0050        0.0002        0.8207        0.8209       0.815873       2.07705
  48    0.1069        0.0049        0.0002        0.8162        0.8164       0.811514       2.31984
  47    0.1255        0.0048        0.0004        0.8103        0.8106       0.805801       2.59006
  46    0.1487        0.0047        0.0005        0.8018        0.8023       0.797567       3.00143
  45    0.1794        0.0045        0.0007        0.7889        0.7896       0.785013       3.44648
  44    0.2165        0.0044        0.0009        0.7720        0.7729       0.768507       3.75474
  43    0.2613        0.0042        0.0011        0.7500        0.7511       0.746955       4.06246
  42    0.3336        0.0039        0.0015        0.7106        0.7121       0.708267       4.51071
  41    0.4307        0.0035        0.0019        0.6566        0.6584       0.654972       4.63387
  40    0.5894        0.0029        0.0024        0.5680        0.5704       0.567464       4.65357
  39     1.339        0.0015        0.0030        0.2422        0.2452       0.243720       3.64476
  38     1.782        0.0010        0.0026        0.1493        0.1519       0.150889       1.76735
  37     2.292        0.0007        0.0022        0.0924        0.0946       0.093932       0.94336
  36     2.964        0.0005        0.0018        0.0539        0.0557       0.055224       0.48589
  35     3.853        0.0003        0.0013        0.0295        0.0308       0.030502       0.23462
  34     5.035        0.0002        0.0010        0.0154        0.0164       0.016181       0.10230
  33     6.613        0.0001        0.0007        0.0073        0.0080       0.007912       0.04420
  32     8.786        0.0000        0.0004        0.0030        0.0034       0.003390       0.01756
  31     11.80        0.0000        0.0003        0.0010        0.0012       0.001199       0.00613
  30     15.07        0.0000        0.0001        0.0003        0.0005       0.000463       0.00190
  29     18.79        0.0000        0.0001        0.0001        0.0002       0.000182       0.00064
  28     23.16        0.0000        0.0000        0.0000        0.0001       0.000071       0.00022
  27     28.12        0.0000        0.0000        0.0000        0.0000       0.000028       0.00007
  26     33.73        0.0000        0.0000        0.0000        0.0000       0.000011       0.00002
  25     40.54        0.0000        0.0000        0.0000        0.0000       0.000005       0.00001
  24     48.69        0.0000        0.0000        0.0000        0.0000       0.000002       0.00000
  23     57.69        0.0000        0.0000        0.0000        0.0000       0.000001       0.00000
  22     68.43        0.0000        0.0000        0.0000        0.0000       0.000000       0.00000
  21     81.20        0.0000        0.0000        0.0000        0.0000       0.000000       0.00000
  20     96.49        0.0000        0.0000        0.0000        0.0000       0.000000       0.00000
  19     114.6        0.0000        0.0000        0.0000        0.0000       0.000000       0.00000
  18     136.5        0.0000        0.0000        0.0000        0.0000       0.000000       0.00000
  17     162.9        0.0000        0.0000        0.0000        0.0000       0.000000       0.00000
  16     196.4        0.0000        0.0000        0.0000        0.0000       0.000000       0.00000
  15     218.7        0.0000        0.0000        0.0000        0.0000       0.000000       0.00000
  14     243.0        0.0000        0.0000        0.0000        0.0000       0.000000       0.00000
  13     269.0        0.0000        0.0000        0.0000        0.0000       0.000000       0.00000
  12     297.5        0.0000        0.0000        0.0000        0.0000       0.000000       0.00000
  11     328.5        0.0000        0.0000        0.0000        0.0000       0.000000       0.00000
  10     361.9        0.0000        0.0000        0.0000        0.0000       0.000000       0.00000
   9     398.1        0.0000        0.0000        0.0000        0.0000       0.000000       0.00000
   8     437.6        0.0000        0.0000        0.0000        0.0000       0.000000       0.00000
   7     480.5        0.0000        0.0000        0.0000        0.0000       0.000000       0.00000
   6     533.0        0.0000        0.0000        0.0000        0.0000       0.000000       0.00000
   5     589.8        0.0000        0.0000        0.0000        0.0000       0.000000       0.00000
   4     651.6        0.0000        0.0000        0.0000        0.0000       0.000000       0.00000
   3     718.7        0.0000        0.0000        0.0000        0.0000       0.000000       0.00000
   2     792.3        0.0000        0.0000        0.0000        0.0000       0.000000       0.00000
   1     891.5        0.0000        0.0000        0.0000        0.0000       0.000000       0.00000
   0    1013.0        0.0000        0.0000        0.0000        0.0000       0.000000       0.00000



 Wavenumbers:   820. -  2600. cm-1, ATM      1
 LEVEL PRESSURE   UPWARD FLUX   DIFDOWN FLUX  DIRDOWN FLUX  DOWNWARD FLUX   NET FLUX    HEATING RATE
          mb          W/m2          W/m2          W/m2        W/m2          W/m2       degree/day
  51    .06700        0.2739        0.0000        3.8670        3.8670       3.593165       0.00000
  50    .07753        0.2739        0.0000        3.8644        3.8644       3.590499       2.13657
  49    .09103        0.2739        0.0000        3.8636        3.8636       3.589756       0.46448
  48    0.1069        0.2739        0.0000        3.8628        3.8628       3.588945       0.43148
  47    0.1255        0.2739        0.0000        3.8619        3.8619       3.588080       0.39222
  46    0.1487        0.2739        0.0000        3.8610        3.8610       3.587096       0.35865
  45    0.1794        0.2739        0.0000        3.8598        3.8598       3.585939       0.31760
  44    0.2165        0.2739        0.0000        3.8586        3.8586       3.584780       0.26364
  43    0.2613        0.2739        0.0000        3.8574        3.8574       3.583588       0.22475
  42    0.3336        0.2739        0.0000        3.8557        3.8557       3.581814       0.20687
  41    0.4307        0.2739        0.0000        3.8534        3.8534       3.579556       0.19626
  40    0.5894        0.2739        0.0000        3.8497        3.8497       3.575871       0.19597
  39     1.339        0.2739        0.0000        3.8333        3.8333       3.559414       0.18528
  38     1.782        0.2739        0.0000        3.8242        3.8242       3.550335       0.17284
  37     2.292        0.2739        0.0000        3.8141        3.8141       3.540249       0.16706
  36     2.964        0.2739        0.0000        3.8015        3.8015       3.527672       0.15788
  35     3.853        0.2739        0.0000        3.7857        3.7857       3.511851       0.15014
  34     5.035        0.2739        0.0000        3.7653        3.7653       3.491480       0.14552
  33     6.613        0.2739        0.0000        3.7387        3.7387       3.464890       0.14215
  32     8.786        0.2739        0.0000        3.7051        3.7051       3.431253       0.13063
  31     11.80        0.2739        0.0000        3.6659        3.6659       3.392001       0.10989
  30     15.07        0.2739        0.0000        3.6365        3.6365       3.362648       0.07578
  29     18.79        0.2739        0.0000        3.6152        3.6152       3.341379       0.04822
  28     23.16        0.2739        0.0000        3.5989        3.5989       3.325031       0.03161
  27     28.12        0.2739        0.0000        3.5842        3.5842       3.310304       0.02503
  26     33.73        0.2739        0.0000        3.5688        3.5688       3.294898       0.02316
  25     40.54        0.2739        0.0000        3.5503        3.5503       3.276459       0.02288
  24     48.69        0.2739        0.0000        3.5281        3.5281       3.254207       0.02303
  23     57.69        0.2739        0.0000        3.5037        3.5037       3.229825       0.02285
  22     68.43        0.2739        0.0000        3.4750        3.4750       3.201131       0.02256
  21     81.20        0.2739        0.0000        3.4422        3.4422       3.168255       0.02172
  20     96.49        0.2739        0.0000        3.4047        3.4047       3.130801       0.02067
  19     114.6        0.2740        0.0000        3.3631        3.3632       3.089197       0.01943
  18     136.5        0.2740        0.0000        3.3173        3.3173       3.043299       0.01765
  17     162.9        0.2740        0.0000        3.2641        3.2641       2.990044       0.01702
  16     196.4        0.2741        0.0000        3.1944        3.1944       2.920295       0.01756
  15     218.7        0.2742        0.0000        3.1497        3.1498       2.875604       0.01697
  14     243.0        0.2742        0.0000        3.0959        3.0959       2.821699       0.01870
  13     269.0        0.2743        0.0000        3.0233        3.0234       2.749037       0.02357
  12     297.5        0.2745        0.0000        2.9378        2.9378       2.663345       0.02542
  11     328.5        0.2747        0.0000        2.8404        2.8404       2.565711       0.02655
  10     361.9        0.2750        0.0000        2.7197        2.7198       2.444758       0.03060
   9     398.1        0.2754        0.0000        2.5703        2.5704       2.294919       0.03491
   8     437.6        0.2760        0.0000        2.4001        2.4002       2.124192       0.03650
   7     480.5        0.2767        0.0000        2.2326        2.2326       1.955957       0.03304
   6     533.0        0.2778        0.0000        2.0909        2.0909       1.813137       0.02298
   5     589.8        0.2792        0.0000        1.9972        1.9973       1.718030       0.01412
   4     651.6        0.2812        0.0000        1.9150        1.9151       1.633825       0.01152
   3     718.7        0.2838        0.0000        1.8315        1.8315       1.547719       0.01082
   2     792.3        0.2870        0.0001        1.7510        1.7511       1.464095       0.00959
   1     891.5        0.2922        0.0001        1.6560        1.6560       1.363850       0.00853
   0    1013.0        0.3014        0.0001        1.5496        1.5496       1.248243       0.00803

  Modules and versions used in this calculation:

       rrtmg_sw.1col.f90:  $Revision$                    rrtmg_sw_init.f90:  $Revision$        
     rrtmgsw_cldprop.f90:  $Revision$                  rrtmgsw_cldprmc.f90:  NOT USED          
     rrtmg_sw_reftra.f90:  $Revision$                  rrtmg_sw_spcvrt.f90:  NOT USED          
     rrtmg_sw_spcvmc.f90:  NOT USED                    rrtmgsw_setcoef.f90:  NOT USED          
     rrtmg_sw_taumol.f90:  $Revision$                  rrtmg_sw_vrtqdr.f90:  NOT USED          
                rrtatm.f:  NOT USED                             util_xxx.f:  NOT USED          
                 extra.f:  NOT USED                       rrtmg_sw_k_g.f90:  $Revision$        

