

 Wavenumbers:   820. - 50000. cm-1, ATM      1
 LEVEL PRESSURE   UPWARD FLUX   DIFDOWN FLUX  DIRDOWN FLUX  DOWNWARD FLUX   NET FLUX    HEATING RATE
          mb          W/m2          W/m2          W/m2        W/m2          W/m2       degree/day
  51    .06700      192.0965        0.0000      397.8738      397.8738     205.777252       0.00000
  50    .07753      192.0959        0.0012      397.8577      397.8589     205.762966      11.45039
  49    .09103      192.0952        0.0026      397.8418      397.8445     205.749284       8.55116
  48    0.1069      192.0943        0.0043      397.8230      397.8273     205.732946       8.69717
  47    0.1255      192.0934        0.0063      397.7997      397.8059     205.712515       9.26235
  46    0.1487      192.0922        0.0087      397.7676      397.7763     205.684074      10.36690
  45    0.1794      192.0907        0.0120      397.7205      397.7325     205.641808      11.60309
  44    0.2165      192.0890        0.0159      397.6602      397.6762     205.587194      12.42374
  43    0.2613      192.0870        0.0206      397.5829      397.6035     205.516443      13.33635
  42    0.3336      192.0840        0.0282      397.4449      397.4731     205.389089      14.84820
  41    0.4307      192.0802        0.0381      397.2524      397.2905     205.210346      15.54128
  40    0.5894      192.0746        0.0542      396.9253      396.9795     204.904866      16.24507
  39     1.339      192.0594        0.1259      395.4254      395.5513     203.491810      15.90844
  38     1.782      192.0579        0.1661      394.7288      394.8949     202.836958      12.46733
  37     2.292      192.0626        0.2119      394.0572      394.2690     202.206381      10.44399
  36     2.964      192.0785        0.2713      393.3007      393.5720     201.493487       8.94898
  35     3.853      192.1127        0.3489      392.4318      392.7807     200.668000       7.83402
  34     5.035      192.1715        0.4511      391.4441      391.8952     199.723712       6.74560
  33     6.613      192.2572        0.5865      390.3268      390.9132     198.655982       5.70809
  32     8.786      192.3676        0.7675      389.0624      389.8299     197.462311       4.63579
  31     11.80      192.5031        1.0244      387.5500      388.5744     196.071287       3.89443
  30     15.07      192.6225        1.2980      386.1556      387.4536     194.831134       3.20183
  29     18.79      192.7340        1.6047      384.7502      386.3548     193.620785       2.74423
  28     23.16      192.8375        1.9599      383.2686      385.2286     192.391006       2.37799
  27     28.12      192.9246        2.3629      381.7329      384.0958     191.171248       2.07351
  26     33.73      192.9759        2.8106      380.1982      383.0088     190.032852       1.71161
  25     40.54      192.9847        3.3475      378.5384      381.8859     188.901191       1.40395
  24     48.69      192.9443        3.9891      376.7214      380.7106     187.766221       1.17452
  23     57.69      192.8511        4.6872      374.8959      379.5831     186.732010       0.96942
  22     68.43      192.6878        5.5103      372.8999      378.4102     185.722460       0.79364
  21     81.20      192.4208        6.4804      370.7496      377.2301     184.809259       0.60343
  20     96.49      192.0375        7.6218      368.4056      376.0274     183.989857       0.45225
  19     114.6      191.5624        8.9550      365.7513      374.7063     183.143858       0.39502
  18     136.5      190.9858       10.5035      362.7231      373.2267     182.240823       0.34724
  17     162.9      190.2927       12.3038      359.1748      371.4786     181.185929       0.33719
  16     196.4      189.3685       14.5738      354.5718      369.1457     179.777140       0.35461
  15     218.7      188.7583       16.0259      351.4437      367.4696     178.711281       0.40467
  14     243.0      188.0998       17.5705      347.7111      365.2816     177.181859       0.53045
  13     269.0      187.3931       19.2059      342.9441      362.1500     174.756929       0.78664
  12     297.5      186.6393       20.9298      337.4137      358.3435     171.704228       0.90540
  11     328.5      185.8426       22.7441      331.1302      353.8743     168.031725       0.99854
  10     361.9      185.0067       24.6431      324.1219      348.7650     163.758280       1.08122
   9     398.1      184.1340       26.6264      316.6066      343.2329     159.098897       1.08553
   8     437.6      183.2316       28.6893      308.5895      337.2788     154.047219       1.08008
   7     480.5      182.3104       30.8261      299.9349      330.7610     148.450613       1.09915
   6     533.0      181.2459       33.3576      289.7021      323.0598     141.813870       1.06764
   5     589.8      180.1884       35.9711      279.3388      315.3099     135.121524       0.99336
   4     651.6      179.1672       38.6544      268.7786      307.4330     128.265771       0.93754
   3     718.7      178.1996       41.3986      258.2837      299.6823     121.482621       0.85245
   2     792.3      177.3055       44.1895      248.0774      292.2669     114.961395       0.74791
   1     891.5      176.3664       47.7306      235.5216      283.2522     106.885765       0.68720
   0    1013.0      175.8070       51.6622      221.4731      273.1354      97.328357       0.66362



 Wavenumbers:  2600. -  3250. cm-1, ATM      1
 LEVEL PRESSURE   UPWARD FLUX   DIFDOWN FLUX  DIRDOWN FLUX  DOWNWARD FLUX   NET FLUX    HEATING RATE
          mb          W/m2          W/m2          W/m2        W/m2          W/m2       degree/day
  51    .06700        0.2237        0.0000        3.5066        3.5066       3.282877       0.00000
  50    .07753        0.2237        0.0000        3.5066        3.5066       3.282869       0.00640
  49    .09103        0.2237        0.0000        3.5066        3.5066       3.282859       0.00627
  48    0.1069        0.2237        0.0000        3.5066        3.5066       3.282847       0.00613
  47    0.1255        0.2237        0.0000        3.5066        3.5066       3.282834       0.00599
  46    0.1487        0.2237        0.0000        3.5066        3.5066       3.282818       0.00607
  45    0.1794        0.2237        0.0000        3.5065        3.5065       3.282795       0.00624
  44    0.2165        0.2237        0.0000        3.5065        3.5065       3.282768       0.00611
  43    0.2613        0.2237        0.0000        3.5065        3.5065       3.282736       0.00598
  42    0.3336        0.2237        0.0000        3.5064        3.5064       3.282683       0.00615
  41    0.4307        0.2237        0.0000        3.5064        3.5064       3.282612       0.00618
  40    0.5894        0.2237        0.0000        3.5062        3.5062       3.282493       0.00633
  39     1.339        0.2237        0.0000        3.5055        3.5055       3.281795       0.00787
  38     1.782        0.2237        0.0000        3.5050        3.5050       3.281264       0.01011
  37     2.292        0.2237        0.0000        3.5043        3.5043       3.280571       0.01147
  36     2.964        0.2237        0.0000        3.5033        3.5033       3.279580       0.01245
  35     3.853        0.2237        0.0000        3.5019        3.5019       3.278203       0.01307
  34     5.035        0.2237        0.0000        3.5001        3.5001       3.276342       0.01329
  33     6.613        0.2237        0.0000        3.4977        3.4977       3.273932       0.01288
  32     8.786        0.2237        0.0000        3.4947        3.4947       3.270961       0.01154
  31     11.80        0.2237        0.0000        3.4911        3.4911       3.267326       0.01018
  30     15.07        0.2237        0.0000        3.4878        3.4878       3.264105       0.00832
  29     18.79        0.2237        0.0000        3.4848        3.4848       3.261042       0.00695
  28     23.16        0.2237        0.0000        3.4816        3.4816       3.257822       0.00623
  27     28.12        0.2237        0.0000        3.4779        3.4779       3.254204       0.00615
  26     33.73        0.2237        0.0000        3.4735        3.4735       3.249738       0.00671
  25     40.54        0.2237        0.0000        3.4671        3.4671       3.243413       0.00785
  24     48.69        0.2237        0.0000        3.4582        3.4583       3.234518       0.00920
  23     57.69        0.2237        0.0000        3.4472        3.4472       3.223471       0.01036
  22     68.43        0.2237        0.0000        3.4329        3.4329       3.209212       0.01121
  21     81.20        0.2237        0.0000        3.4152        3.4152       3.191485       0.01171
  20     96.49        0.2237        0.0000        3.3940        3.3941       3.170343       0.01167
  19     114.6        0.2237        0.0000        3.3692        3.3692       3.145456       0.01162
  18     136.5        0.2238        0.0001        3.3419        3.3420       3.118242       0.01046
  17     162.9        0.2238        0.0001        3.3129        3.3129       3.089171       0.00929
  16     196.4        0.2238        0.0001        3.2793        3.2794       3.055606       0.00845
  15     218.7        0.2238        0.0001        3.2578        3.2578       3.033995       0.00820
  14     243.0        0.2239        0.0001        3.2320        3.2320       3.008132       0.00897
  13     269.0        0.2240        0.0001        3.1968        3.1969       2.972897       0.01143
  12     297.5        0.2242        0.0001        3.1489        3.1490       2.924835       0.01425
  11     328.5        0.2245        0.0001        3.0821        3.0822       2.857683       0.01826
  10     361.9        0.2249        0.0001        2.9902        2.9904       2.765463       0.02333
   9     398.1        0.2255        0.0001        2.8715        2.8716       2.646147       0.02780
   8     437.6        0.2263        0.0001        2.7276        2.7278       2.501501       0.03093
   7     480.5        0.2275        0.0001        2.5595        2.5597       2.332175       0.03326
   6     533.0        0.2295        0.0001        2.3617        2.3619       2.132414       0.03214
   5     589.8        0.2323        0.0002        2.1649        2.1651       1.932744       0.02964
   4     651.6        0.2365        0.0002        1.9608        1.9609       1.724465       0.02848
   3     718.7        0.2421        0.0002        1.7593        1.7595       1.517416       0.02602
   2     792.3        0.2494        0.0002        1.5761        1.5762       1.326822       0.02186
   1     891.5        0.2620        0.0002        1.3714        1.3716       1.109607       0.01848
   0    1013.0        0.2847        0.0002        1.1584        1.1586       0.873817       0.01637



 Wavenumbers:  3250. -  4000. cm-1, ATM      1
 LEVEL PRESSURE   UPWARD FLUX   DIFDOWN FLUX  DIRDOWN FLUX  DOWNWARD FLUX   NET FLUX    HEATING RATE
          mb          W/m2          W/m2          W/m2        W/m2          W/m2       degree/day
  51    .06700        0.0004        0.0000        5.9117        5.9117       5.911216       0.00000
  50    .07753        0.0004        0.0000        5.9075        5.9075       5.907026       3.35808
  49    .09103        0.0004        0.0000        5.9050        5.9050       5.904584       1.52677
  48    0.1069        0.0004        0.0000        5.9032        5.9032       5.902717       0.99346
  47    0.1255        0.0004        0.0000        5.9014        5.9014       5.900959       0.79708
  46    0.1487        0.0004        0.0000        5.8995        5.8995       5.899070       0.68848
  45    0.1794        0.0004        0.0000        5.8974        5.8974       5.896922       0.58983
  44    0.2165        0.0004        0.0000        5.8952        5.8952       5.894805       0.48155
  43    0.2613        0.0004        0.0000        5.8931        5.8931       5.892646       0.40696
  42    0.3336        0.0004        0.0000        5.8899        5.8899       5.889488       0.36820
  41    0.4307        0.0004        0.0000        5.8861        5.8861       5.885651       0.33365
  40    0.5894        0.0004        0.0000        5.8803        5.8803       5.879848       0.30857
  39     1.339        0.0004        0.0000        5.8597        5.8597       5.859251       0.23189
  38     1.782        0.0004        0.0000        5.8513        5.8513       5.850826       0.16039
  37     2.292        0.0004        0.0000        5.8431        5.8431       5.842655       0.13533
  36     2.964        0.0004        0.0000        5.8334        5.8334       5.833015       0.12100
  35     3.853        0.0004        0.0000        5.8213        5.8213       5.820840       0.11555
  34     5.035        0.0004        0.0000        5.8052        5.8052       5.804745       0.11498
  33     6.613        0.0004        0.0000        5.7833        5.7834       5.782923       0.11666
  32     8.786        0.0004        0.0000        5.7531        5.7531       5.752722       0.11729
  31     11.80        0.0004        0.0000        5.7090        5.7090       5.708553       0.12366
  30     15.07        0.0004        0.0000        5.6615        5.6615       5.661088       0.12254
  29     18.79        0.0004        0.0000        5.6093        5.6094       5.608953       0.11821
  28     23.16        0.0004        0.0000        5.5524        5.5524       5.552027       0.11008
  27     28.12        0.0004        0.0000        5.4935        5.4935       5.493148       0.10009
  26     33.73        0.0004        0.0000        5.4348        5.4349       5.434459       0.08824
  25     40.54        0.0004        0.0001        5.3707        5.3708       5.370398       0.07948
  24     48.69        0.0004        0.0001        5.2985        5.2985       5.298165       0.07475
  23     57.69        0.0004        0.0001        5.2215        5.2216       5.221226       0.07212
  22     68.43        0.0003        0.0001        5.1318        5.1319       5.131566       0.07048
  21     81.20        0.0003        0.0001        5.0284        5.0285       5.028136       0.06834
  20     96.49        0.0003        0.0001        4.9122        4.9123       4.912002       0.06410
  19     114.6        0.0003        0.0001        4.7780        4.7782       4.777891       0.06262
  18     136.5        0.0003        0.0002        4.6285        4.6287       4.628413       0.05748
  17     162.9        0.0002        0.0002        4.4406        4.4407       4.440500       0.06006
  16     196.4        0.0002        0.0002        4.1548        4.1550       4.154827       0.07191
  15     218.7        0.0002        0.0002        3.9564        3.9566       3.956446       0.07532
  14     243.0        0.0002        0.0002        3.7055        3.7058       3.705612       0.08700
  13     269.0        0.0001        0.0002        3.3399        3.3401       3.339973       0.11861
  12     297.5        0.0001        0.0002        2.8954        2.8956       2.895483       0.13183
  11     328.5        0.0001        0.0002        2.4388        2.4390       2.438942       0.12413
  10     361.9        0.0001        0.0002        2.0269        2.0271       2.027003       0.10422
   9     398.1        0.0001        0.0002        1.6753        1.6755       1.675415       0.08191
   8     437.6        0.0001        0.0002        1.3592        1.3594       1.359296       0.06759
   7     480.5        0.0001        0.0002        1.0616        1.0618       1.061713       0.05844
   6     533.0        0.0001        0.0001        0.7543        0.7544       0.754377       0.04944
   5     589.8        0.0001        0.0001        0.4951        0.4952       0.495181       0.03847
   4     651.6        0.0001        0.0001        0.2943        0.2943       0.294278       0.02747
   3     718.7        0.0001        0.0001        0.1528        0.1529       0.152770       0.01778
   2     792.3        0.0001        0.0000        0.0658        0.0658       0.065710       0.00998
   1     891.5        0.0003        0.0000        0.0157        0.0157       0.015360       0.00428
   0    1013.0        0.0013        0.0000        0.0013        0.0013       0.000051       0.00106



 Wavenumbers:  4000. -  4650. cm-1, ATM      1
 LEVEL PRESSURE   UPWARD FLUX   DIFDOWN FLUX  DIRDOWN FLUX  DOWNWARD FLUX   NET FLUX    HEATING RATE
          mb          W/m2          W/m2          W/m2        W/m2          W/m2       degree/day
  51    .06700        0.6368        0.0000        6.9421        6.9421       6.305314       0.00000
  50    .07753        0.6368        0.0000        6.9421        6.9421       6.305313       0.00079
  49    .09103        0.6368        0.0000        6.9421        6.9421       6.305312       0.00078
  48    0.1069        0.6368        0.0000        6.9421        6.9421       6.305310       0.00076
  47    0.1255        0.6368        0.0000        6.9421        6.9421       6.305309       0.00074
  46    0.1487        0.6368        0.0000        6.9421        6.9421       6.305307       0.00075
  45    0.1794        0.6368        0.0000        6.9421        6.9421       6.305304       0.00077
  44    0.2165        0.6368        0.0000        6.9421        6.9421       6.305300       0.00076
  43    0.2613        0.6368        0.0000        6.9420        6.9420       6.305297       0.00074
  42    0.3336        0.6368        0.0000        6.9420        6.9420       6.305290       0.00076
  41    0.4307        0.6368        0.0000        6.9420        6.9420       6.305281       0.00077
  40    0.5894        0.6368        0.0000        6.9420        6.9420       6.305266       0.00079
  39     1.339        0.6367        0.0000        6.9419        6.9419       6.305178       0.00100
  38     1.782        0.6367        0.0000        6.9418        6.9419       6.305108       0.00132
  37     2.292        0.6367        0.0000        6.9418        6.9418       6.305015       0.00155
  36     2.964        0.6367        0.0000        6.9416        6.9416       6.304875       0.00175
  35     3.853        0.6367        0.0000        6.9414        6.9414       6.304669       0.00196
  34     5.035        0.6367        0.0000        6.9411        6.9411       6.304364       0.00218
  33     6.613        0.6367        0.0000        6.9406        6.9406       6.303917       0.00239
  32     8.786        0.6367        0.0000        6.9399        6.9400       6.303257       0.00256
  31     11.80        0.6367        0.0000        6.9389        6.9389       6.302223       0.00290
  30     15.07        0.6367        0.0001        6.9377        6.9377       6.301013       0.00312
  29     18.79        0.6367        0.0001        6.9362        6.9362       6.299556       0.00330
  28     23.16        0.6367        0.0001        6.9343        6.9344       6.297754       0.00348
  27     28.12        0.6367        0.0001        6.9321        6.9322       6.295582       0.00369
  26     33.73        0.6366        0.0001        6.9294        6.9296       6.292919       0.00400
  25     40.54        0.6366        0.0001        6.9258        6.9260       6.289328       0.00445
  24     48.69        0.6366        0.0002        6.9210        6.9212       6.284576       0.00492
  23     57.69        0.6366        0.0002        6.9154        6.9156       6.278988       0.00524
  22     68.43        0.6365        0.0002        6.9083        6.9086       6.272045       0.00546
  21     81.20        0.6365        0.0003        6.8998        6.9001       6.263558       0.00561
  20     96.49        0.6365        0.0004        6.8894        6.8898       6.253314       0.00565
  19     114.6        0.6365        0.0004        6.8765        6.8770       6.240500       0.00598
  18     136.5        0.6364        0.0005        6.8610        6.8615       6.225056       0.00594
  17     162.9        0.6364        0.0006        6.8417        6.8423       6.205868       0.00613
  16     196.4        0.6364        0.0007        6.8147        6.8154       6.178990       0.00677
  15     218.7        0.6364        0.0008        6.7948        6.7956       6.159221       0.00751
  14     243.0        0.6365        0.0009        6.7698        6.7707       6.134179       0.00869
  13     269.0        0.6366        0.0010        6.7349        6.7358       6.099200       0.01135
  12     297.5        0.6369        0.0011        6.6869        6.6879       6.051051       0.01428
  11     328.5        0.6372        0.0012        6.6194        6.6205       5.983285       0.01843
  10     361.9        0.6378        0.0013        6.5295        6.5307       5.892960       0.02285
   9     398.1        0.6385        0.0014        6.4202        6.4216       5.783117       0.02559
   8     437.6        0.6394        0.0015        6.2962        6.2977       5.658246       0.02670
   7     480.5        0.6407        0.0016        6.1555        6.1571       5.516381       0.02786
   6     533.0        0.6428        0.0017        5.9675        5.9693       5.326441       0.03056
   5     589.8        0.6459        0.0019        5.7368        5.7386       5.092715       0.03469
   4     651.6        0.6504        0.0020        5.4662        5.4682       4.817826       0.03759
   3     718.7        0.6565        0.0021        5.1912        5.1933       4.536749       0.03532
   2     792.3        0.6645        0.0022        4.9395        4.9417       4.277204       0.02977
   1     891.5        0.6781        0.0024        4.6486        4.6510       3.972856       0.02590
   0    1013.0        0.7027        0.0025        4.3179        4.3204       3.617743       0.02466



 Wavenumbers:  4650. -  5150. cm-1, ATM      1
 LEVEL PRESSURE   UPWARD FLUX   DIFDOWN FLUX  DIRDOWN FLUX  DOWNWARD FLUX   NET FLUX    HEATING RATE
          mb          W/m2          W/m2          W/m2        W/m2          W/m2       degree/day
  51    .06700        0.4425        0.0000        6.5710        6.5710       6.128459       0.00000
  50    .07753        0.4425        0.0000        6.5708        6.5708       6.128224       0.18887
  49    .09103        0.4425        0.0000        6.5705        6.5705       6.127930       0.18362
  48    0.1069        0.4425        0.0000        6.5701        6.5701       6.127595       0.17806
  47    0.1255        0.4425        0.0000        6.5697        6.5697       6.127215       0.17238
  46    0.1487        0.4425        0.0000        6.5693        6.5693       6.126741       0.17268
  45    0.1794        0.4425        0.0000        6.5686        6.5686       6.126105       0.17473
  44    0.2165        0.4425        0.0000        6.5679        6.5679       6.125367       0.16788
  43    0.2613        0.4425        0.0000        6.5670        6.5670       6.124514       0.16078
  42    0.3336        0.4425        0.0000        6.5657        6.5657       6.123151       0.15894
  41    0.4307        0.4425        0.0000        6.5640        6.5640       6.121429       0.14971
  40    0.5894        0.4425        0.0000        6.5613        6.5613       6.118813       0.13913
  39     1.339        0.4425        0.0000        6.5516        6.5516       6.109035       0.11008
  38     1.782        0.4425        0.0000        6.5473        6.5473       6.104819       0.08026
  37     2.292        0.4425        0.0000        6.5434        6.5435       6.100932       0.06438
  36     2.964        0.4425        0.0000        6.5395        6.5395       6.096978       0.04964
  35     3.853        0.4425        0.0000        6.5355        6.5356       6.093036       0.03742
  34     5.035        0.4425        0.0000        6.5315        6.5315       6.089034       0.02859
  33     6.613        0.4425        0.0000        6.5271        6.5271       6.084640       0.02349
  32     8.786        0.4425        0.0000        6.5216        6.5216       6.079146       0.02134
  31     11.80        0.4425        0.0001        6.5135        6.5135       6.071069       0.02261
  30     15.07        0.4425        0.0001        6.5041        6.5042       6.061702       0.02418
  29     18.79        0.4424        0.0001        6.4925        6.4926       6.050189       0.02610
  28     23.16        0.4424        0.0001        6.4779        6.4780       6.035601       0.02821
  27     28.12        0.4424        0.0002        6.4599        6.4600       6.017631       0.03055
  26     33.73        0.4424        0.0002        6.4384        6.4386       5.996207       0.03221
  25     40.54        0.4424        0.0002        6.4112        6.4114       5.969093       0.03364
  24     48.69        0.4423        0.0003        6.3775        6.3778       5.935471       0.03479
  23     57.69        0.4423        0.0003        6.3404        6.3407       5.898400       0.03475
  22     68.43        0.4423        0.0004        6.2971        6.2975       5.855239       0.03393
  21     81.20        0.4422        0.0004        6.2483        6.2487       5.806464       0.03223
  20     96.49        0.4422        0.0005        6.1948        6.1953       5.753149       0.02943
  19     114.6        0.4422        0.0006        6.1381        6.1388       5.696591       0.02641
  18     136.5        0.4421        0.0007        6.0790        6.0797       5.637589       0.02269
  17     162.9        0.4421        0.0009        6.0160        6.0169       5.574777       0.02008
  16     196.4        0.4421        0.0010        5.9399        5.9409       5.498760       0.01913
  15     218.7        0.4422        0.0011        5.8896        5.8908       5.448601       0.01904
  14     243.0        0.4422        0.0012        5.8322        5.8334       5.391199       0.01991
  13     269.0        0.4424        0.0014        5.7624        5.7638       5.321402       0.02264
  12     297.5        0.4426        0.0015        5.6767        5.6782       5.235624       0.02544
  11     328.5        0.4430        0.0016        5.5726        5.5742       5.131258       0.02838
  10     361.9        0.4435        0.0018        5.4473        5.4491       5.005603       0.03179
   9     398.1        0.4442        0.0019        5.2995        5.3014       4.857155       0.03459
   8     437.6        0.4452        0.0020        5.1275        5.1295       4.684245       0.03697
   7     480.5        0.4467        0.0022        4.9290        4.9311       4.484447       0.03924
   6     533.0        0.4490        0.0023        4.6794        4.6817       4.232695       0.04050
   5     589.8        0.4522        0.0024        4.4188        4.4212       3.968989       0.03914
   4     651.6        0.4568        0.0025        4.1521        4.1546       3.697834       0.03708
   3     718.7        0.4629        0.0027        3.8929        3.8956       3.432671       0.03332
   2     792.3        0.4709        0.0028        3.6469        3.6496       3.178749       0.02912
   1     891.5        0.4845        0.0029        3.3535        3.3564       2.871870       0.02611
   0    1013.0        0.5079        0.0030        3.0383        3.0414       2.533487       0.02350



 Wavenumbers:  5150. -  6150. cm-1, ATM      1
 LEVEL PRESSURE   UPWARD FLUX   DIFDOWN FLUX  DIRDOWN FLUX  DOWNWARD FLUX   NET FLUX    HEATING RATE
          mb          W/m2          W/m2          W/m2        W/m2          W/m2       degree/day
  51    .06700        1.2517        0.0000       16.4735       16.4735      15.221852       0.00000
  50    .07753        1.2517        0.0000       16.4735       16.4735      15.221818       0.02761
  49    .09103        1.2517        0.0000       16.4734       16.4734      15.221773       0.02810
  48    0.1069        1.2517        0.0000       16.4734       16.4734      15.221719       0.02859
  47    0.1255        1.2517        0.0000       16.4733       16.4733      15.221655       0.02904
  46    0.1487        1.2517        0.0000       16.4732       16.4732      15.221571       0.03059
  45    0.1794        1.2517        0.0000       16.4731       16.4731      15.221452       0.03269
  44    0.2165        1.2517        0.0000       16.4730       16.4730      15.221305       0.03331
  43    0.2613        1.2517        0.0000       16.4728       16.4728      15.221126       0.03376
  42    0.3336        1.2516        0.0000       16.4725       16.4725      15.220821       0.03564
  41    0.4307        1.2516        0.0000       16.4720       16.4720      15.220401       0.03645
  40    0.5894        1.2516        0.0000       16.4713       16.4713      15.219700       0.03728
  39     1.339        1.2516        0.0000       16.4679       16.4679      15.216292       0.03837
  38     1.782        1.2516        0.0000       16.4659       16.4659      15.214293       0.03806
  37     2.292        1.2516        0.0001       16.4635       16.4636      15.212001       0.03795
  36     2.964        1.2516        0.0001       16.4605       16.4606      15.209032       0.03727
  35     3.853        1.2516        0.0001       16.4567       16.4567      15.205180       0.03656
  34     5.035        1.2515        0.0001       16.4516       16.4517      15.200183       0.03569
  33     6.613        1.2515        0.0002       16.4451       16.4452      15.193724       0.03453
  32     8.786        1.2515        0.0002       16.4367       16.4369      15.185414       0.03227
  31     11.80        1.2514        0.0003       16.4254       16.4257      15.174265       0.03121
  30     15.07        1.2513        0.0004       16.4141       16.4145      15.163181       0.02862
  29     18.79        1.2512        0.0005       16.4024       16.4029      15.151664       0.02611
  28     23.16        1.2512        0.0006       16.3900       16.3906      15.139407       0.02370
  27     28.12        1.2511        0.0007       16.3771       16.3778      15.126749       0.02152
  26     33.73        1.2509        0.0009       16.3641       16.3650      15.114029       0.01912
  25     40.54        1.2508        0.0010       16.3502       16.3512      15.100399       0.01691
  24     48.69        1.2507        0.0012       16.3354       16.3366      15.085939       0.01496
  23     57.69        1.2505        0.0015       16.3211       16.3225      15.072056       0.01301
  22     68.43        1.2503        0.0017       16.3062       16.3080      15.057689       0.01129
  21     81.20        1.2501        0.0021       16.2903       16.2924      15.042324       0.01015
  20     96.49        1.2498        0.0024       16.2726       16.2751      15.025285       0.00940
  19     114.6        1.2495        0.0029       16.2521       16.2550      15.005513       0.00923
  18     136.5        1.2491        0.0034       16.2245       16.2280      14.978904       0.01023
  17     162.9        1.2486        0.0041       16.1747       16.1788      14.930184       0.01557
  16     196.4        1.2481        0.0049       16.0518       16.0568      14.808667       0.03059
  15     218.7        1.2477        0.0054       15.8984       15.9038      14.656078       0.05793
  14     243.0        1.2474        0.0060       15.6153       15.6212      14.373843       0.09789
  13     269.0        1.2470        0.0064       15.1390       15.1454      13.898415       0.15423
  12     297.5        1.2467        0.0069       14.5779       14.5848      13.338096       0.16618
  11     328.5        1.2465        0.0074       13.8780       13.8854      12.638907       0.19011
  10     361.9        1.2463        0.0077       13.0814       13.0892      11.842852       0.20141
   9     398.1        1.2463        0.0080       12.2728       12.2809      11.034592       0.18831
   8     437.6        1.2465        0.0083       11.4776       11.4859      10.239406       0.17002
   7     480.5        1.2470        0.0086       10.7300       10.7385       9.491534       0.14688
   6     533.0        1.2482        0.0089       10.0326       10.0415       8.793324       0.11232
   5     589.8        1.2502        0.0093        9.5050        9.5143       8.264121       0.07855
   4     651.6        1.2536        0.0098        9.0814        9.0912       7.837613       0.05833
   3     718.7        1.2586        0.0104        8.7024        8.7128       7.454246       0.04818
   2     792.3        1.2655        0.0110        8.3379        8.3490       7.083449       0.04253
   1     891.5        1.2786        0.0119        7.9064        7.9182       6.639649       0.03777
   0    1013.0        1.3058        0.0128        7.4741        7.4869       6.181110       0.03184



 Wavenumbers:  6150. -  7700. cm-1, ATM      1
 LEVEL PRESSURE   UPWARD FLUX   DIFDOWN FLUX  DIRDOWN FLUX  DOWNWARD FLUX   NET FLUX    HEATING RATE
          mb          W/m2          W/m2          W/m2        W/m2          W/m2       degree/day
  51    .06700        1.9157        0.0000       30.4684       30.4684      28.552726       0.00000
  50    .07753        1.9157        0.0000       30.4683       30.4683      28.552674       0.04144
  49    .09103        1.9157        0.0000       30.4683       30.4683      28.552607       0.04174
  48    0.1069        1.9157        0.0000       30.4682       30.4682      28.552528       0.04202
  47    0.1255        1.9157        0.0000       30.4681       30.4681      28.552435       0.04227
  46    0.1487        1.9156        0.0000       30.4680       30.4680      28.552314       0.04411
  45    0.1794        1.9156        0.0000       30.4678       30.4678      28.552144       0.04669
  44    0.2165        1.9156        0.0000       30.4676       30.4676      28.551937       0.04715
  43    0.2613        1.9156        0.0000       30.4673       30.4673      28.551685       0.04744
  42    0.3336        1.9156        0.0000       30.4669       30.4669      28.551258       0.04974
  41    0.4307        1.9156        0.0000       30.4663       30.4663      28.550677       0.05052
  40    0.5894        1.9156        0.0001       30.4653       30.4653      28.549710       0.05146
  39     1.339        1.9155        0.0001       30.4604       30.4606      28.545026       0.05273
  38     1.782        1.9155        0.0002       30.4576       30.4578      28.542276       0.05235
  37     2.292        1.9154        0.0002       30.4543       30.4545      28.539118       0.05231
  36     2.964        1.9154        0.0003       30.4501       30.4504      28.535010       0.05156
  35     3.853        1.9153        0.0004       30.4445       30.4449      28.529653       0.05084
  34     5.035        1.9152        0.0005       30.4373       30.4378      28.522654       0.05000
  33     6.613        1.9150        0.0007       30.4278       30.4285      28.513506       0.04890
  32     8.786        1.9148        0.0009       30.4154       30.4163      28.501553       0.04642
  31     11.80        1.9145        0.0013       30.3984       30.3996      28.485168       0.04587
  30     15.07        1.9141        0.0016       30.3810       30.3826      28.468455       0.04315
  29     18.79        1.9138        0.0020       30.3623       30.3643      28.450554       0.04059
  28     23.16        1.9133        0.0025       30.3417       30.3442      28.430871       0.03806
  27     28.12        1.9128        0.0030       30.3196       30.3226      28.409772       0.03587
  26     33.73        1.9123        0.0036       30.2965       30.3001      28.387853       0.03295
  25     40.54        1.9116        0.0043       30.2708       30.2751      28.363516       0.03019
  24     48.69        1.9108        0.0052       30.2423       30.2475      28.336741       0.02771
  23     57.69        1.9098        0.0062       30.2139       30.2200      28.310176       0.02490
  22     68.43        1.9088        0.0073       30.1834       30.1907      28.281902       0.02223
  21     81.20        1.9075        0.0087       30.1500       30.1587      28.251174       0.02030
  20     96.49        1.9060        0.0103       30.1126       30.1229      28.216958       0.01888
  19     114.6        1.9041        0.0122       30.0695       30.0817      28.177576       0.01839
  18     136.5        1.9020        0.0145       30.0139       30.0284      28.126425       0.01967
  17     162.9        1.8994        0.0172       29.9225       29.9397      28.040256       0.02754
  16     196.4        1.8961        0.0207       29.7333       29.7540      27.857888       0.04590
  15     218.7        1.8940        0.0229       29.5259       29.5487      27.654778       0.07711
  14     243.0        1.8917        0.0252       29.1375       29.1627      27.270986       0.13311
  13     269.0        1.8893        0.0274       28.3800       28.4074      26.518082       0.24424
  12     297.5        1.8870        0.0295       27.3895       27.4190      25.532045       0.29245
  11     328.5        1.8847        0.0314       26.2257       26.2571      24.372449       0.31529
  10     361.9        1.8825        0.0332       24.8453       24.8785      22.995952       0.34827
   9     398.1        1.8807        0.0347       23.3471       23.3817      21.500989       0.34829
   8     437.6        1.8794        0.0359       21.7966       21.8325      19.953086       0.33095
   7     480.5        1.8791        0.0368       20.1977       20.2345      18.355452       0.31377
   6     533.0        1.8804        0.0377       18.4969       18.5347      16.654288       0.27366
   5     589.8        1.8843        0.0386       16.9754       17.0140      15.129721       0.22630
   4     651.6        1.8922        0.0395       15.6022       15.6417      13.749426       0.18876
   3     718.7        1.9052        0.0405       14.4232       14.4637      12.558566       0.14966
   2     792.3        1.9239        0.0418       13.4386       13.4804      11.556541       0.11492
   1     891.5        1.9596        0.0436       12.3736       12.4171      10.457519       0.09352
   0    1013.0        2.0333        0.0454       11.2911       11.3366       9.303266       0.08015



 Wavenumbers:  7700. -  8050. cm-1, ATM      1
 LEVEL PRESSURE   UPWARD FLUX   DIFDOWN FLUX  DIRDOWN FLUX  DOWNWARD FLUX   NET FLUX    HEATING RATE
          mb          W/m2          W/m2          W/m2        W/m2          W/m2       degree/day
  51    .06700        1.1034        0.0000        7.2006        7.2006       6.097169       0.00000
  50    .07753        1.1034        0.0000        7.2006        7.2006       6.097151       0.01477
  49    .09103        1.1034        0.0000        7.2005        7.2005       6.097128       0.01448
  48    0.1069        1.1034        0.0000        7.2005        7.2005       6.097101       0.01418
  47    0.1255        1.1034        0.0000        7.2005        7.2005       6.097071       0.01387
  46    0.1487        1.1034        0.0000        7.2004        7.2005       6.097032       0.01408
  45    0.1794        1.1034        0.0000        7.2004        7.2004       6.096979       0.01448
  44    0.2165        1.1034        0.0000        7.2003        7.2003       6.096917       0.01421
  43    0.2613        1.1034        0.0000        7.2003        7.2003       6.096843       0.01394
  42    0.3336        1.1034        0.0000        7.2001        7.2001       6.096720       0.01426
  41    0.4307        1.1034        0.0000        7.2000        7.2000       6.096558       0.01411
  40    0.5894        1.1034        0.0000        7.1997        7.1997       6.096293       0.01409
  39     1.339        1.1034        0.0001        7.1984        7.1985       6.095040       0.01411
  38     1.782        1.1035        0.0001        7.1977        7.1978       6.094304       0.01401
  37     2.292        1.1035        0.0001        7.1968        7.1969       6.093453       0.01410
  36     2.964        1.1035        0.0001        7.1957        7.1958       6.092336       0.01403
  35     3.853        1.1035        0.0002        7.1942        7.1944       6.090860       0.01400
  34     5.035        1.1035        0.0002        7.1922        7.1924       6.088902       0.01399
  33     6.613        1.1036        0.0003        7.1896        7.1899       6.086289       0.01397
  32     8.786        1.1036        0.0004        7.1860        7.1864       6.082773       0.01365
  31     11.80        1.1037        0.0005        7.1810        7.1815       6.077755       0.01405
  30     15.07        1.1038        0.0007        7.1755        7.1762       6.072384       0.01387
  29     18.79        1.1039        0.0008        7.1694        7.1703       6.066337       0.01371
  28     23.16        1.1040        0.0010        7.1623        7.1633       6.059301       0.01360
  27     28.12        1.1042        0.0012        7.1542        7.1555       6.051293       0.01361
  26     33.73        1.1043        0.0015        7.1452        7.1467       6.042380       0.01340
  25     40.54        1.1045        0.0017        7.1344        7.1362       6.031679       0.01328
  24     48.69        1.1047        0.0021        7.1215        7.1236       6.018877       0.01325
  23     57.69        1.1050        0.0025        7.1074        7.1099       6.004940       0.01306
  22     68.43        1.1053        0.0029        7.0909        7.0938       5.988509       0.01292
  21     81.20        1.1056        0.0035        7.0713        7.0748       5.969170       0.01278
  20     96.49        1.1061        0.0041        7.0484        7.0525       5.946452       0.01254
  19     114.6        1.1066        0.0049        7.0217        7.0265       5.919925       0.01239
  18     136.5        1.1073        0.0058        6.9906        6.9964       5.889086       0.01186
  17     162.9        1.1081        0.0068        6.9544        6.9612       5.853165       0.01148
  16     196.4        1.1091        0.0082        6.9087        6.9169       5.807817       0.01141
  15     218.7        1.1098        0.0091        6.8794        6.8885       5.778683       0.01106
  14     243.0        1.1107        0.0101        6.8481        6.8582       5.747544       0.01080
  13     269.0        1.1116        0.0111        6.8147        6.8258       5.714292       0.01079
  12     297.5        1.1126        0.0123        6.7791        6.7913       5.678761       0.01054
  11     328.5        1.1137        0.0135        6.7409        6.7544       5.640684       0.01035
  10     361.9        1.1151        0.0148        6.7002        6.7149       5.599858       0.01033
   9     398.1        1.1167        0.0162        6.6563        6.6725       5.555812       0.01026
   8     437.6        1.1185        0.0177        6.6089        6.6265       5.508062       0.01021
   7     480.5        1.1207        0.0193        6.5570        6.5763       5.455605       0.01030
   6     533.0        1.1237        0.0212        6.4915        6.5127       5.388980       0.01072
   5     589.8        1.1275        0.0233        6.4182        6.4415       5.314033       0.01112
   4     651.6        1.1322        0.0255        6.3359        6.3614       5.229158       0.01161
   3     718.7        1.1380        0.0278        6.2441        6.2720       5.133949       0.01197
   2     792.3        1.1450        0.0303        6.1437        6.1740       5.029032       0.01203
   1     891.5        1.1557        0.0335        6.0042        6.0377       4.882008       0.01251
   0    1013.0        1.1713        0.0373        5.8249        5.8621       4.690836       0.01327



 Wavenumbers:  8050. - 12850. cm-1, ATM      1
 LEVEL PRESSURE   UPWARD FLUX   DIFDOWN FLUX  DIRDOWN FLUX  DOWNWARD FLUX   NET FLUX    HEATING RATE
          mb          W/m2          W/m2          W/m2        W/m2          W/m2       degree/day
  51    .06700       27.3814        0.0000      100.8135      100.8135      73.432099       0.00000
  50    .07753       27.3814        0.0000      100.8135      100.8135      73.432099       0.00000
  49    .09103       27.3814        0.0001      100.8134      100.8135      73.432099      -0.00000
  48    0.1069       27.3813        0.0001      100.8134      100.8134      73.432099       0.00000
  47    0.1255       27.3813        0.0001      100.8133      100.8134      73.432099       0.00000
  46    0.1487       27.3813        0.0002      100.8132      100.8134      73.432099       0.00000
  45    0.1794       27.3812        0.0003      100.8131      100.8133      73.432099       0.00000
  44    0.2165       27.3812        0.0003      100.8129      100.8133      73.432099       0.00000
  43    0.2613       27.3811        0.0004      100.8127      100.8132      73.432099       0.00000
  42    0.3336       27.3810        0.0006      100.8125      100.8131      73.432099      -0.00000
  41    0.4307       27.3808        0.0008      100.8121      100.8129      73.432099       0.00000
  40    0.5894       27.3805        0.0012      100.8115      100.8126      73.432099       0.00000
  39     1.339       27.3792        0.0028      100.8085      100.8113      73.432099      -0.00000
  38     1.782       27.3785        0.0038      100.8068      100.8106      73.432099       0.00000
  37     2.292       27.3776        0.0049      100.8047      100.8097      73.432099       0.00000
  36     2.964       27.3764        0.0064      100.8021      100.8085      73.432099       0.00000
  35     3.853       27.3749        0.0084      100.7986      100.8070      73.432099       0.00000
  34     5.035       27.3729        0.0110      100.7940      100.8050      73.432099      -0.00000
  33     6.613       27.3702        0.0145      100.7878      100.8023      73.432099       0.00000
  32     8.786       27.3666        0.0192      100.7794      100.7987      73.432099       0.00000
  31     11.80       27.3613        0.0260      100.7674      100.7934      73.432099       0.00000
  30     15.07       27.3557        0.0333      100.7546      100.7878      73.432099       0.00000
  29     18.79       27.3494        0.0415      100.7400      100.7815      73.432099      -0.00000
  28     23.16       27.3420        0.0511      100.7230      100.7741      73.432099       0.00000
  27     28.12       27.3335        0.0621      100.7035      100.7656      73.432099      -0.00000
  26     33.73       27.3239        0.0744      100.6817      100.7560      73.432099       0.00000
  25     40.54       27.3124        0.0893      100.6552      100.7445      73.432099       0.00000
  24     48.69       27.2985        0.1073      100.6234      100.7306      73.432099      -0.00000
  23     57.69       27.2832        0.1270      100.5883      100.7153      73.432099       0.00000
  22     68.43       27.2650        0.1506      100.5464      100.6971      73.432099       0.00000
  21     81.20       27.2432        0.1788      100.4965      100.6753      73.432099       0.00000
  20     96.49       27.2172        0.2124      100.4370      100.6493      73.432099      -0.00000
  19     114.6       27.1864        0.2523      100.3585      100.6108      73.424403       0.00359
  18     136.5       27.1497        0.2997      100.2634      100.5631      73.413328       0.00426
  17     162.9       27.1061        0.3562      100.1407      100.4969      73.390856       0.00718
  16     196.4       27.0493        0.4297       99.9505      100.3802      73.330822       0.01511
  15     218.7       27.0121        0.4779       99.7889      100.2668      73.254783       0.02887
  14     243.0       26.9716        0.5302       99.5472      100.0774      73.105821       0.05167
  13     269.0       26.9282        0.5866       99.1452       99.7319      72.803619       0.09803
  12     297.5       26.8823        0.6471       98.5975       99.2446      72.362308       0.13089
  11     328.5       26.8341        0.7118       97.8659       98.5777      71.743562       0.16824
  10     361.9       26.7848        0.7805       96.8848       97.6653      70.880555       0.21835
   9     398.1       26.7353        0.8530       95.6330       96.4860      69.750699       0.26323
   8     437.6       26.6880        0.9288       94.0655       94.9943      68.306294       0.30882
   7     480.5       26.6472        1.0069       92.0807       93.0877      66.440435       0.36645
   6     533.0       26.6138        1.0990       89.4449       90.5438      63.930016       0.40385
   5     589.8       26.6025        1.1938       86.5544       87.7482      61.145739       0.41328
   4     651.6       26.6266        1.2909       83.4174       84.7083      58.081761       0.41901
   3     718.7       26.6942        1.3910       80.2037       81.5947      54.900568       0.39979
   2     792.3       26.8126        1.4948       77.0811       78.5758      51.763281       0.35981
   1     891.5       27.0698        1.6284       73.2645       74.8930      47.823163       0.33529
   0    1013.0       27.6330        1.7767       68.9425       70.7192      43.086257       0.32891



 Wavenumbers: 12850. - 16000. cm-1, ATM      1
 LEVEL PRESSURE   UPWARD FLUX   DIFDOWN FLUX  DIRDOWN FLUX  DOWNWARD FLUX   NET FLUX    HEATING RATE
          mb          W/m2          W/m2          W/m2        W/m2          W/m2       degree/day
  51    .06700       37.7626        0.0000       63.1686       63.1686      25.405931       0.00000
  50    .07753       37.7626        0.0001       63.1677       63.1678      25.405151       0.62522
  49    .09103       37.7626        0.0001       63.1666       63.1668      25.404178       0.60768
  48    0.1069       37.7626        0.0002       63.1654       63.1656      25.403071       0.58934
  47    0.1255       37.7625        0.0003       63.1640       63.1643      25.401812       0.57095
  46    0.1487       37.7625        0.0004       63.1623       63.1627      25.400241       0.57262
  45    0.1794       37.7624        0.0006       63.1600       63.1606      25.398134       0.57841
  44    0.2165       37.7624        0.0008       63.1573       63.1581      25.395697       0.55438
  43    0.2613       37.7623        0.0010       63.1542       63.1552      25.392885       0.52999
  42    0.3336       37.7623        0.0014       63.1493       63.1507      25.388404       0.52247
  41    0.4307       37.7623        0.0019       63.1431       63.1451      25.382798       0.48748
  40    0.5894       37.7623        0.0027       63.1338       63.1366      25.374300       0.45189
  39     1.339       37.7637        0.0067       63.0956       63.1022      25.338539       0.40260
  38     1.782       37.7656        0.0090       63.0740       63.0830      25.317453       0.40145
  37     2.292       37.7686        0.0116       63.0477       63.0593      25.290689       0.44327
  36     2.964       37.7741        0.0151       63.0095       63.0247      25.250594       0.50333
  35     3.853       37.7833        0.0198       62.9533       62.9730      25.189720       0.57770
  34     5.035       37.7975        0.0259       62.8725       62.8984      25.100864       0.63475
  33     6.613       37.8176        0.0341       62.7621       62.7961      24.978576       0.65375
  32     8.786       37.8435        0.0451       62.6182       62.6633      24.819834       0.61650
  31     11.80       37.8767        0.0608       62.4284       62.4891      24.612473       0.58055
  30     15.07       37.9077        0.0776       62.2426       62.3202      24.412483       0.51634
  29     18.79       37.9387        0.0965       62.0493       62.1458      24.207145       0.46557
  28     23.16       37.9702        0.1186       61.8424       61.9611      23.990923       0.41810
  27     28.12       38.0006        0.1438       61.6278       61.7716      23.771033       0.37380
  26     33.73       38.0268        0.1720       61.4177       61.5897      23.562845       0.31302
  25     40.54       38.0493        0.2059       61.1983       61.4042      23.354916       0.25796
  24     48.69       38.0676        0.2468       60.9680       61.2148      23.147207       0.21495
  23     57.69       38.0790        0.2916       60.7478       61.0394      22.960397       0.17511
  22     68.43       38.0834        0.3450       60.5202       60.8652      22.781794       0.14041
  21     81.20       38.0758        0.4085       60.2938       60.7023      22.626538       0.10259
  20     96.49       38.0550        0.4842       60.0643       60.5485      22.493468       0.07345
  19     114.6       38.0314        0.5746       59.8078       60.3824      22.350947       0.06655
  18     136.5       37.9981        0.6816       59.5157       60.1973      22.199236       0.05834
  17     162.9       37.9533        0.8086       59.1770       59.9857      22.032374       0.05334
  16     196.4       37.8846        0.9730       58.7604       59.7334      21.848794       0.04621
  15     218.7       37.8357        1.0806       58.4948       59.5754      21.739739       0.04140
  14     243.0       37.7809        1.1974       58.2089       59.4063      21.625465       0.03963
  13     269.0       37.7200        1.3237       57.9006       59.2243      21.504322       0.03930
  12     297.5       37.6531        1.4599       57.5668       59.0267      21.373564       0.03878
  11     328.5       37.5813        1.6067       57.2005       58.8072      21.225917       0.04014
  10     361.9       37.5051        1.7643       56.7963       58.5606      21.055570       0.04310
   9     398.1       37.4252        1.9333       56.3475       58.2808      20.855646       0.04658
   8     437.6       37.3434        2.1140       55.8422       57.9562      20.612791       0.05192
   7     480.5       37.2632        2.3065       55.2625       57.5690      20.305876       0.06028
   6     533.0       37.1768        2.5415       54.4972       57.0387      19.861874       0.07143
   5     589.8       37.0992        2.7915       53.6307       56.4222      19.323020       0.07998
   4     651.6       37.0370        3.0557       52.6606       55.7163      18.679283       0.08803
   3     718.7       36.9935        3.3344       51.6100       54.9444      17.950904       0.09154
   2     792.3       36.9732        3.6274       50.5019       54.1293      17.156113       0.09115
   1     891.5       36.9987        4.0137       49.0197       53.0334      16.034695       0.09543
   0    1013.0       37.1371        4.4618       47.2289       51.6907      14.553633       0.10284



 Wavenumbers: 16000. - 22650. cm-1, ATM      1
 LEVEL PRESSURE   UPWARD FLUX   DIFDOWN FLUX  DIRDOWN FLUX  DOWNWARD FLUX   NET FLUX    HEATING RATE
          mb          W/m2          W/m2          W/m2        W/m2          W/m2       degree/day
  51    .06700       80.3806        0.0000      100.7153      100.7153      20.334713       0.00000
  50    .07753       80.3805        0.0003      100.7147      100.7151      20.334594       0.09560
  49    .09103       80.3803        0.0007      100.7140      100.7147      20.334421       0.10843
  48    0.1069       80.3802        0.0012      100.7131      100.7144      20.334188       0.12364
  47    0.1255       80.3800        0.0018      100.7121      100.7139      20.333877       0.14093
  46    0.1487       80.3798        0.0025      100.7108      100.7132      20.333419       0.16700
  45    0.1794       80.3796        0.0034      100.7089      100.7123      20.332703       0.19663
  44    0.2165       80.3794        0.0045      100.7066      100.7111      20.331732       0.22099
  43    0.2613       80.3791        0.0059      100.7037      100.7095      20.330414       0.24844
  42    0.3336       80.3789        0.0081      100.6987      100.7068      20.327908       0.29216
  41    0.4307       80.3786        0.0110      100.6918      100.7028      20.324131       0.32841
  40    0.5894       80.3786        0.0158      100.6797      100.6955      20.316927       0.38306
  39     1.339       80.3841        0.0383      100.6095      100.6478      20.263719       0.59903
  38     1.782       80.3916        0.0515      100.5585      100.6100      20.218404       0.86271
  37     2.292       80.4043        0.0669      100.4903      100.5571      20.152832       1.08606
  36     2.964       80.4271        0.0870      100.3868      100.4737      20.046651       1.33289
  35     3.853       80.4658        0.1135      100.2306      100.3441      19.878285       1.59782
  34     5.035       80.5257        0.1486      100.0045      100.1531      19.627359       1.79251
  33     6.613       80.6102        0.1955       99.6939       99.8894      19.279160       1.86147
  32     8.786       80.7196        0.2586       99.2881       99.5466      18.826969       1.75615
  31     11.80       80.8595        0.3484       98.7496       99.0981      18.238506       1.64751
  30     15.07       80.9904        0.4446       98.2198       98.6644      17.674069       1.45727
  29     18.79       81.1208        0.5529       97.6651       98.2180      17.097266       1.30779
  28     23.16       81.2530        0.6789       97.0671       97.7460      16.493062       1.16834
  27     28.12       81.3807        0.8225       96.4406       97.2630      15.882280       1.03829
  26     33.73       81.4900        0.9826       95.8179       96.8005      15.310434       0.85979
  25     40.54       81.5832        1.1754       95.1548       96.3303      14.747084       0.69890
  24     48.69       81.6577        1.4070       94.4420       95.8490      14.191246       0.57520
  23     57.69       81.7033        1.6604       93.7416       95.4020      13.698718       0.46167
  22     68.43       81.7184        1.9609       92.9954       94.9563      13.237903       0.36226
  21     81.20       81.6828        2.3177       92.2231       94.5408      12.857969       0.25105
  20     96.49       81.5910        2.7408       91.4110       94.1518      12.560788       0.16402
  19     114.6       81.4577        3.2399       90.5070       93.7469      12.289189       0.12682
  18     136.5       81.2838        3.8265       89.4803       93.3068      12.022966       0.10237
  17     162.9       81.0632        4.5183       88.3022       92.8205      11.757355       0.08490
  16     196.4       80.7464        5.4053       86.8606       92.2659      11.519538       0.05986
  15     218.7       80.5279        5.9816       85.9492       91.9308      11.402850       0.04430
  14     243.0       80.2866        6.6024       84.9789       91.5814      11.294807       0.03747
  13     269.0       80.0212        7.2689       83.9493       91.2181      11.196942       0.03175
  12     297.5       79.7312        7.9817       82.8589       90.8406      11.109389       0.02597
  11     328.5       79.4182        8.7434       81.6982       90.4416      11.023443       0.02337
  10     361.9       79.0822        9.5538       80.4669       90.0208      10.938583       0.02147
   9     398.1       78.7225       10.4150       79.1611       89.5761      10.853591       0.01980
   8     437.6       78.3397       11.3271       77.7777       89.1048      10.765122       0.01892
   7     480.5       77.9342       12.2906       76.3136       88.6042      10.670030       0.01868
   6     533.0       77.4429       13.4567       74.5359       87.9926      10.549694       0.01936
   5     589.8       76.9244       14.6895       72.6469       87.3364      10.411977       0.02044
   4     651.6       76.3814       15.9869       70.6456       86.6325      10.251137       0.02200
   3     718.7       75.8144       17.3470       68.5367       85.8837      10.069262       0.02286
   2     792.3       75.2267       18.7644       66.3287       85.0931       9.866408       0.02327
   1     891.5       74.4683       20.6144       63.4246       84.0390       9.570715       0.02516
   0    1013.0       73.6145       22.7407       60.0483       82.7890       9.174524       0.02751



 Wavenumbers: 22650. - 29000. cm-1, ATM      1
 LEVEL PRESSURE   UPWARD FLUX   DIFDOWN FLUX  DIRDOWN FLUX  DOWNWARD FLUX   NET FLUX    HEATING RATE
          mb          W/m2          W/m2          W/m2        W/m2          W/m2       degree/day
  51    .06700       35.7802        0.0000       38.0063       38.0063       2.226093       0.00000
  50    .07753       35.7800        0.0004       38.0057       38.0061       2.226093       0.00000
  49    .09103       35.7798        0.0009       38.0050       38.0059       2.226093       0.00000
  48    0.1069       35.7796        0.0014       38.0042       38.0057       2.226093       0.00000
  47    0.1255       35.7793        0.0021       38.0033       38.0054       2.226093       0.00000
  46    0.1487       35.7790        0.0029       38.0022       38.0051       2.226093       0.00000
  45    0.1794       35.7785        0.0040       38.0006       38.0046       2.226093      -0.00000
  44    0.2165       35.7780        0.0053       37.9987       38.0041       2.226093       0.00000
  43    0.2613       35.7773        0.0069       37.9965       38.0034       2.226093       0.00000
  42    0.3336       35.7762        0.0095       37.9928       38.0023       2.226093       0.00000
  41    0.4307       35.7748        0.0129       37.9880       38.0009       2.226093       0.00000
  40    0.5894       35.7725        0.0185       37.9800       37.9986       2.226093      -0.00000
  39     1.339       35.7615        0.0451       37.9425       37.9876       2.226093       0.00000
  38     1.782       35.7550        0.0607       37.9204       37.9811       2.226093       0.00000
  37     2.292       35.7475        0.0787       37.8949       37.9736       2.226093       0.00000
  36     2.964       35.7377        0.1023       37.8614       37.9638       2.226093       0.00000
  35     3.853       35.7247        0.1336       37.8172       37.9508       2.226093       0.00000
  34     5.035       35.7075        0.1750       37.7586       37.9336       2.226093       0.00000
  33     6.613       35.6845        0.2303       37.6803       37.9106       2.226093       0.00000
  32     8.786       35.6536        0.3047       37.5750       37.8797       2.226093       0.00000
  31     11.80       35.6095        0.4107       37.4249       37.8356       2.226093       0.00000
  30     15.07       35.5623        0.5242       37.2642       37.7884       2.226093      -0.00000
  29     18.79       35.5092        0.6520       37.0833       37.7353       2.226093       0.00000
  28     23.16       35.4474        0.8005       36.8730       37.6735       2.226093       0.00000
  27     28.12       35.3771        0.9694       36.6338       37.6032       2.226093      -0.00000
  26     33.73       35.2988        1.1572       36.3677       37.5249       2.226093       0.00000
  25     40.54       35.2049        1.3825       36.0486       37.4310       2.226093       0.00000
  24     48.69       35.0927        1.6516       35.6672       37.3188       2.226093      -0.00000
  23     57.69       34.9707        1.9441       35.2527       37.1968       2.226093       0.00000
  22     68.43       34.8269        2.2881       34.7649       37.0530       2.226093       0.00000
  21     81.20       34.6581        2.6919       34.1922       36.8841       2.226093       0.00000
  20     96.49       34.4601        3.1645       33.5217       36.6862       2.226093       0.00000
  19     114.6       34.2298        3.7136       32.7424       36.4559       2.226093       0.00000
  18     136.5       33.9632        4.3477       31.8416       36.1893       2.226093       0.00000
  17     162.9       33.6547        5.0800       30.8008       35.8808       2.226093       0.00000
  16     196.4       33.2684        5.9938       29.5007       35.4945       2.226093       0.00000
  15     218.7       33.0231        6.5725       28.6767       35.2492       2.226093       0.00000
  14     243.0       32.7635        7.1829       27.8068       34.9896       2.226093      -0.00000
  13     269.0       32.4905        7.8232       26.8933       34.7166       2.226093       0.00000
  12     297.5       32.2046        8.4914       25.9393       34.4307       2.226093       0.00000
  11     328.5       31.9059        9.1869       24.9451       34.1320       2.226093      -0.00000
  10     361.9       31.5958        9.9059       23.9160       33.8219       2.226093      -0.00000
   9     398.1       31.2748       10.6467       22.8541       33.5009       2.226093       0.00000
   8     437.6       30.9441       11.4057       21.7645       33.1702       2.226093       0.00000
   7     480.5       30.6051       12.1791       20.6521       32.8312       2.226093      -0.00000
   6     533.0       30.2084       13.0775       19.3569       32.4345       2.226093       0.00000
   5     589.8       29.8045       13.9839       18.0467       32.0306       2.226093       0.00000
   4     651.6       29.3961       14.8906       16.7316       31.6222       2.226093      -0.00000
   3     718.7       28.9858       15.7905       15.4214       31.2119       2.226093       0.00000
   2     792.3       28.5766       16.6751       14.1276       30.8027       2.226093       0.00000
   1     891.5       28.0699       17.7500       12.5459       30.2959       2.226093      -0.00000
   0    1013.0       27.5233       18.8776       10.8717       29.7494       2.226093       0.00000



 Wavenumbers: 29000. - 38000. cm-1, ATM      1
 LEVEL PRESSURE   UPWARD FLUX   DIFDOWN FLUX  DIRDOWN FLUX  DOWNWARD FLUX   NET FLUX    HEATING RATE
          mb          W/m2          W/m2          W/m2        W/m2          W/m2       degree/day
  51    .06700        5.0849        0.0000       13.4026       13.4026       8.317682       0.00000
  50    .07753        5.0847        0.0003       13.3983       13.3986       8.313883       3.04457
  49    .09103        5.0844        0.0007       13.3921       13.3928       8.308364       3.44987
  48    0.1069        5.0841        0.0011       13.3840       13.3851       8.300986       3.92700
  47    0.1255        5.0838        0.0016       13.3733       13.3749       8.291141       4.46345
  46    0.1487        5.0834        0.0022       13.3579       13.3601       8.276698       5.26471
  45    0.1794        5.0828        0.0030       13.3340       13.3371       8.254297       6.14966
  44    0.2165        5.0821        0.0040       13.3024       13.3064       8.224276       6.82922
  43    0.2613        5.0814        0.0052       13.2604       13.2656       8.184218       7.55063
  42    0.3336        5.0802        0.0071       13.1833       13.1904       8.110207       8.62905
  41    0.4307        5.0786        0.0095       13.0729       13.0824       8.003826       9.24952
  40    0.5894        5.0763        0.0134       12.8796       12.8930       7.816767       9.94757
  39     1.339        5.0680        0.0298       11.9165       11.9463       6.878308      10.56535
  38     1.782        5.0649        0.0381       11.4399       11.4781       6.413225       8.85443
  37     2.292        5.0625        0.0471       10.9796       11.0267       5.964148       7.43789
  36     2.964        5.0614        0.0581       10.4786       10.5367       5.475285       6.13671
  35     3.853        5.0625        0.0717        9.9429       10.0146       4.952061       4.96549
  34     5.035        5.0665        0.0886        9.4007        9.4893       4.422784       3.78093
  33     6.613        5.0737        0.1101        8.8752        8.9853       3.911637       2.73259
  32     8.786        5.0835        0.1379        8.3786        8.5165       3.432919       1.85917
  31     11.80        5.0957        0.1760        7.8897        8.0656       2.969969       1.29611
  30     15.07        5.1063        0.2153        7.5108        7.7261       2.619792       0.90409
  29     18.79        5.1164        0.2582        7.1776        7.4358       2.319397       0.68109
  28     23.16        5.1259        0.3065        6.8664        7.1729       2.047018       0.52669
  27     28.12        5.1340        0.3599        6.5780        6.9379       1.803923       0.41325
  26     33.73        5.1382        0.4181        6.3195        6.7376       1.599403       0.30750
  25     40.54        5.1374        0.4868        6.0663        6.5531       1.415675       0.22794
  24     48.69        5.1312        0.5674        5.8128        6.3802       1.249040       0.17244
  23     57.69        5.1192        0.6534        5.5777        6.2311       1.111871       0.12858
  22     68.43        5.0994        0.7529        5.3379        6.0908       0.991418       0.09469
  21     81.20        5.0674        0.8685        5.0965        5.9650       0.897552       0.06203
  20     96.49        5.0221        1.0021        4.8476        5.8497       0.827572       0.03862
  19     114.6        4.9668        1.1535        4.5799        5.7334       0.766583       0.02848
  18     136.5        4.9026        1.3228        4.2891        5.6119       0.709341       0.02201
  17     162.9        4.8293        1.5108        3.9732        5.4840       0.654684       0.01747
  16     196.4        4.7364        1.7363        3.6080        5.3443       0.607873       0.01178
  15     218.7        4.6779        1.8736        3.3898        5.2634       0.585549       0.00848
  14     243.0        4.6171        2.0138        3.1686        5.1824       0.565269       0.00703
  13     269.0        4.5545        2.1557        2.9461        5.1018       0.547355       0.00581
  12     297.5        4.4903        2.2982        2.7239        5.0221       0.531830       0.00460
  11     328.5        4.4255        2.4398        2.5029        4.9427       0.517222       0.00397
  10     361.9        4.3605        2.5795        2.2846        4.8641       0.503553       0.00346
   9     398.1        4.2958        2.7158        2.0708        4.7866       0.490819       0.00297
   8     437.6        4.2318        2.8479        1.8626        4.7105       0.478748       0.00258
   7     480.5        4.1690        2.9743        1.6621        4.6364       0.467473       0.00221
   6     533.0        4.0990        3.1107        1.4437        4.5544       0.455387       0.00194
   5     589.8        4.0317        3.2366        1.2390        4.4756       0.443884       0.00171
   4     651.6        3.9679        3.3507        1.0500        4.4007       0.432807       0.00151
   3     718.7        3.9076        3.4519        0.8778        4.3297       0.422121       0.00134
   2     792.3        3.8513        3.5394        0.7237        4.2632       0.411803       0.00118
   1     891.5        3.7866        3.6296        0.5563        4.1859       0.399243       0.00107
   0    1013.0        3.7225        3.7041        0.4039        4.1080       0.385578       0.00095



 Wavenumbers: 38000. - 50000. cm-1, ATM      1
 LEVEL PRESSURE   UPWARD FLUX   DIFDOWN FLUX  DIRDOWN FLUX  DOWNWARD FLUX   NET FLUX    HEATING RATE
          mb          W/m2          W/m2          W/m2        W/m2          W/m2       degree/day
  51    .06700        0.0051        0.0000        0.8267        0.8267       0.821528       0.00000
  50    .07753        0.0051        0.0001        0.8242        0.8243       0.819196       1.86936
  49    .09103        0.0050        0.0002        0.8207        0.8209       0.815872       2.07705
  48    0.1069        0.0049        0.0002        0.8162        0.8164       0.811514       2.31984
  47    0.1255        0.0048        0.0004        0.8103        0.8106       0.805801       2.59006
  46    0.1487        0.0047        0.0005        0.8018        0.8023       0.797567       3.00143
  45    0.1794        0.0045        0.0007        0.7889        0.7896       0.785013       3.44648
  44    0.2165        0.0044        0.0009        0.7720        0.7729       0.768507       3.75474
  43    0.2613        0.0042        0.0011        0.7500        0.7511       0.746955       4.06246
  42    0.3336        0.0039        0.0015        0.7106        0.7121       0.708267       4.51071
  41    0.4307        0.0035        0.0019        0.6566        0.6584       0.654972       4.63387
  40    0.5894        0.0029        0.0024        0.5680        0.5704       0.567464       4.65357
  39     1.339        0.0015        0.0030        0.2422        0.2452       0.243720       3.64476
  38     1.782        0.0010        0.0026        0.1493        0.1519       0.150889       1.76735
  37     2.292        0.0007        0.0022        0.0924        0.0946       0.093932       0.94336
  36     2.964        0.0005        0.0018        0.0539        0.0557       0.055224       0.48589
  35     3.853        0.0003        0.0013        0.0295        0.0308       0.030502       0.23462
  34     5.035        0.0002        0.0010        0.0154        0.0164       0.016181       0.10230
  33     6.613        0.0001        0.0007        0.0073        0.0080       0.007912       0.04420
  32     8.786        0.0000        0.0004        0.0030        0.0034       0.003390       0.01756
  31     11.80        0.0000        0.0003        0.0010        0.0012       0.001199       0.00613
  30     15.07        0.0000        0.0001        0.0003        0.0005       0.000463       0.00190
  29     18.79        0.0000        0.0001        0.0001        0.0002       0.000182       0.00064
  28     23.16        0.0000        0.0000        0.0000        0.0001       0.000071       0.00022
  27     28.12        0.0000        0.0000        0.0000        0.0000       0.000028       0.00007
  26     33.73        0.0000        0.0000        0.0000        0.0000       0.000011       0.00002
  25     40.54        0.0000        0.0000        0.0000        0.0000       0.000005       0.00001
  24     48.69        0.0000        0.0000        0.0000        0.0000       0.000002       0.00000
  23     57.69        0.0000        0.0000        0.0000        0.0000       0.000001       0.00000
  22     68.43        0.0000        0.0000        0.0000        0.0000       0.000000       0.00000
  21     81.20        0.0000        0.0000        0.0000        0.0000       0.000000       0.00000
  20     96.49        0.0000        0.0000        0.0000        0.0000       0.000000       0.00000
  19     114.6        0.0000        0.0000        0.0000        0.0000       0.000000       0.00000
  18     136.5        0.0000        0.0000        0.0000        0.0000       0.000000       0.00000
  17     162.9        0.0000        0.0000        0.0000        0.0000       0.000000       0.00000
  16     196.4        0.0000        0.0000        0.0000        0.0000       0.000000       0.00000
  15     218.7        0.0000        0.0000        0.0000        0.0000       0.000000       0.00000
  14     243.0        0.0000        0.0000        0.0000        0.0000       0.000000       0.00000
  13     269.0        0.0000        0.0000        0.0000        0.0000       0.000000       0.00000
  12     297.5        0.0000        0.0000        0.0000        0.0000       0.000000       0.00000
  11     328.5        0.0000        0.0000        0.0000        0.0000       0.000000       0.00000
  10     361.9        0.0000        0.0000        0.0000        0.0000       0.000000       0.00000
   9     398.1        0.0000        0.0000        0.0000        0.0000       0.000000       0.00000
   8     437.6        0.0000        0.0000        0.0000        0.0000       0.000000       0.00000
   7     480.5        0.0000        0.0000        0.0000        0.0000       0.000000       0.00000
   6     533.0        0.0000        0.0000        0.0000        0.0000       0.000000       0.00000
   5     589.8        0.0000        0.0000        0.0000        0.0000       0.000000       0.00000
   4     651.6        0.0000        0.0000        0.0000        0.0000       0.000000       0.00000
   3     718.7        0.0000        0.0000        0.0000        0.0000       0.000000       0.00000
   2     792.3        0.0000        0.0000        0.0000        0.0000       0.000000       0.00000
   1     891.5        0.0000        0.0000        0.0000        0.0000       0.000000       0.00000
   0    1013.0        0.0000        0.0000        0.0000        0.0000       0.000000       0.00000



 Wavenumbers:   820. -  2600. cm-1, ATM      1
 LEVEL PRESSURE   UPWARD FLUX   DIFDOWN FLUX  DIRDOWN FLUX  DOWNWARD FLUX   NET FLUX    HEATING RATE
          mb          W/m2          W/m2          W/m2        W/m2          W/m2       degree/day
  51    .06700        0.1274        0.0000        3.8670        3.8670       3.739592       0.00000
  50    .07753        0.1274        0.0000        3.8643        3.8643       3.736875       2.17769
  49    .09103        0.1274        0.0000        3.8635        3.8635       3.736065       0.50638
  48    0.1069        0.1274        0.0000        3.8626        3.8626       3.735175       0.47415
  47    0.1255        0.1274        0.0000        3.8616        3.8616       3.734214       0.43559
  46    0.1487        0.1274        0.0000        3.8605        3.8605       3.733104       0.40437
  45    0.1794        0.1274        0.0000        3.8592        3.8592       3.731769       0.36647
  44    0.2165        0.1274        0.0000        3.8578        3.8578       3.730391       0.31346
  43    0.2613        0.1274        0.0000        3.8564        3.8564       3.728931       0.27522
  42    0.3336        0.1274        0.0000        3.8541        3.8541       3.726700       0.26012
  41    0.4307        0.1274        0.0000        3.8512        3.8512       3.723818       0.25063
  40    0.5894        0.1274        0.0000        3.8465        3.8465       3.719092       0.25133
  39     1.339        0.1274        0.0000        3.8251        3.8251       3.697717       0.24064
  38     1.782        0.1274        0.0000        3.8133        3.8133       3.685904       0.22489
  37     2.292        0.1274        0.0000        3.8003        3.8003       3.672843       0.21632
  36     2.964        0.1274        0.0000        3.7841        3.7841       3.656714       0.20246
  35     3.853        0.1274        0.0000        3.7642        3.7642       3.636800       0.18899
  34     5.035        0.1274        0.0000        3.7395        3.7395       3.612109       0.17638
  33     6.613        0.1274        0.0000        3.7090        3.7090       3.581574       0.16324
  32     8.786        0.1274        0.0000        3.6726        3.6726       3.545182       0.14133
  31     11.80        0.1274        0.0000        3.6320        3.6320       3.504588       0.11365
  30     15.07        0.1274        0.0000        3.6016        3.6016       3.474205       0.07844
  29     18.79        0.1274        0.0000        3.5777        3.5777       3.450309       0.05418
  28     23.16        0.1274        0.0000        3.5564        3.5564       3.428957       0.04129
  27     28.12        0.1274        0.0000        3.5348        3.5348       3.407412       0.03662
  26     33.73        0.1274        0.0000        3.5118        3.5118       3.384381       0.03463
  25     40.54        0.1274        0.0000        3.4849        3.4849       3.357495       0.03335
  24     48.69        0.1274        0.0000        3.4537        3.4537       3.326245       0.03234
  23     57.69        0.1274        0.0000        3.4210        3.4210       3.293574       0.03062
  22     68.43        0.1274        0.0000        3.3844        3.3844       3.256991       0.02876
  21     81.20        0.1274        0.0000        3.3441        3.3441       3.216696       0.02663
  20     96.49        0.1275        0.0000        3.2998        3.2998       3.172334       0.02448
  19     114.6        0.1275        0.0000        3.2506        3.2506       3.123190       0.02295
  18     136.5        0.1275        0.0000        3.1936        3.1936       3.066144       0.02194
  17     162.9        0.1275        0.0000        3.1181        3.1181       2.990645       0.02413
  16     196.4        0.1275        0.0000        3.0090        3.0090       2.881465       0.02748
  15     218.7        0.1275        0.0000        2.9420        2.9420       2.814465       0.02544
  14     243.0        0.1276        0.0000        2.8605        2.8605       2.732910       0.02829
  13     269.0        0.1276        0.0000        2.7419        2.7420       2.614339       0.03846
  12     297.5        0.1277        0.0000        2.5729        2.5729       2.445148       0.05018
  11     328.5        0.1279        0.0000        2.3602        2.3602       2.232280       0.05788
  10     361.9        0.1282        0.0000        2.1524        2.1524       2.024234       0.05264
   9     398.1        0.1286        0.0000        1.9974        1.9974       1.868821       0.03621
   8     437.6        0.1292        0.0000        1.8835        1.8835       1.754329       0.02448
   7     480.5        0.1300        0.0000        1.7734        1.7734       1.643399       0.02179
   6     533.0        0.1315        0.0000        1.6397        1.6398       1.508287       0.02174
   5     589.8        0.1335        0.0000        1.5068        1.5069       1.373306       0.02004
   4     651.6        0.1366        0.0000        1.3807        1.3807       1.244089       0.01767
   3     718.7        0.1407        0.0000        1.2680        1.2680       1.127304       0.01468
   2     792.3        0.1458        0.0000        1.1659        1.1660       1.020189       0.01228
   1     891.5        0.1543        0.0000        1.0372        1.0373       0.882986       0.01168
   0    1013.0        0.1697        0.0000        0.8716        0.8717       0.701962       0.01257

  Modules and versions used in this calculation:

       rrtmg_sw.1col.f90:  $Revision$                    rrtmg_sw_init.f90:  $Revision$        
     rrtmgsw_cldprop.f90:  $Revision$                  rrtmgsw_cldprmc.f90:  NOT USED          
     rrtmg_sw_reftra.f90:  $Revision$                  rrtmg_sw_spcvrt.f90:  NOT USED          
     rrtmg_sw_spcvmc.f90:  NOT USED                    rrtmgsw_setcoef.f90:  NOT USED          
     rrtmg_sw_taumol.f90:  $Revision$                  rrtmg_sw_vrtqdr.f90:  NOT USED          
                rrtatm.f:  NOT USED                             util_xxx.f:  NOT USED          
                 extra.f:  NOT USED                       rrtmg_sw_k_g.f90:  $Revision$        

