

 Wavenumbers:   820. - 50000. cm-1, ATM      1
 LEVEL PRESSURE   UPWARD FLUX   DIFDOWN FLUX  DIRDOWN FLUX  DOWNWARD FLUX   NET FLUX    HEATING RATE
          mb          W/m2          W/m2          W/m2        W/m2          W/m2       degree/day
  51    .06700      156.8381        0.0000      397.8738      397.8738     241.035649       0.00000
  50    .07753      156.8375        0.0011      397.8577      397.8589     241.021371      11.44403
  49    .09103      156.8367        0.0026      397.8418      397.8444     241.007701       8.54394
  48    0.1069      156.8358        0.0042      397.8230      397.8272     240.991378       8.68894
  47    0.1255      156.8348        0.0061      397.7997      397.8058     240.970968       9.25297
  46    0.1487      156.8336        0.0085      397.7676      397.7761     240.942558      10.35578
  45    0.1794      156.8319        0.0117      397.7205      397.7322     240.900339      11.59000
  44    0.2165      156.8300        0.0155      397.6602      397.6758     240.845790      12.40901
  43    0.2613      156.8278        0.0201      397.5829      397.6030     240.775127      13.31977
  42    0.3336      156.8244        0.0275      397.4449      397.4724     240.647940      14.82869
  41    0.4307      156.8201        0.0372      397.2524      397.2896     240.469450      15.51932
  40    0.5894      156.8137        0.0528      396.9253      396.9781     240.164452      16.21941
  39     1.339      156.7930        0.1226      395.4254      395.5479     238.754967      15.86824
  38     1.782      156.7873        0.1617      394.7288      394.8904     238.103155      12.40946
  37     2.292      156.7863        0.2061      394.0572      394.2632     237.476972      10.37121
  36     2.964      156.7932        0.2637      393.3007      393.5644     236.771190       8.85970
  35     3.853      156.8139        0.3391      392.4318      392.7709     235.956986       7.72695
  34     5.035      156.8527        0.4382      391.4441      391.8823     235.029539       6.62529
  33     6.613      156.9110        0.5695      390.3268      390.8962     233.985249       5.58278
  32     8.786      156.9852        0.7450      389.0624      389.8074     232.822163       4.51701
  31     11.80      157.0728        0.9940      387.5500      388.5440     231.471207       3.78225
  30     15.07      157.1449        1.2591      386.1556      387.4147     230.269794       3.10181
  29     18.79      157.2070        1.5562      384.7502      386.3063     229.099363       2.65373
  28     23.16      157.2570        1.9002      383.2686      385.1688     227.911776       2.29641
  27     28.12      157.2881        2.2903      381.7329      384.0232     226.735086       2.00029
  26     33.73      157.2842        2.7235      380.1982      382.9217     225.637424       1.65037
  25     40.54      157.2349        3.2428      378.5384      381.7812     224.546310       1.35365
  24     48.69      157.1329        3.8632      376.7214      380.5847     223.451784       1.13266
  23     57.69      156.9800        4.5379      374.8959      379.4338     222.453804       0.93546
  22     68.43      156.7544        5.3330      372.8999      378.2329     221.478515       0.76671
  21     81.20      156.4254        6.2697      370.7496      377.0193     220.593877       0.58456
  20     96.49      155.9794        7.3709      368.4056      375.7765     219.797089       0.43977
  19     114.6      155.4334        8.6563      365.7513      374.4075     218.974192       0.38423
  18     136.5      154.7768       10.1478      362.7231      372.8709     218.094090       0.33842
  17     162.9      153.9923       11.8799      359.1748      371.0547     217.062408       0.32977
  16     196.4      152.9580       14.0611      354.5718      368.6329     215.674870       0.34926
  15     218.7      152.2785       15.4545      351.4437      366.8982     214.619684       0.40061
  14     243.0      151.5459       16.9352      347.7111      364.6463     213.100390       0.52694
  13     269.0      150.7600       18.5010      342.9441      361.4451     210.685066       0.78352
  12     297.5      149.9215       20.1494      337.4137      357.5631     207.641642       0.90265
  11     328.5      149.0326       21.8816      331.1302      353.0119     203.979249       0.99579
  10     361.9      148.0965       23.6919      324.1219      347.8138     199.717338       1.07831
   9     398.1      147.1139       25.5790      316.6066      342.1856     195.071769       1.08231
   8     437.6      146.0898       27.5381      308.5895      336.1276     190.037817       1.07629
   7     480.5      145.0320       29.5628      299.9349      329.4977     184.465698       1.09434
   6     533.0      143.7885       31.9551      289.7021      321.6572     177.868681       1.06125
   5     589.8      142.5229       34.4171      279.3388      313.7558     171.232937       0.98496
   4     651.6      141.2563       36.9360      268.7786      305.7146     164.458332       0.92645
   3     718.7      140.0003       39.5020      258.2837      297.7857     157.785333       0.83861
   2     792.3      138.7699       42.1004      248.0774      290.1778     151.407860       0.73142
   1     891.5      137.3192       45.3787      235.5216      280.9003     143.581154       0.66602
   0    1013.0      136.0065       48.9904      221.4731      270.4635     134.456971       0.63354



 Wavenumbers:  2600. -  3250. cm-1, ATM      1
 LEVEL PRESSURE   UPWARD FLUX   DIFDOWN FLUX  DIRDOWN FLUX  DOWNWARD FLUX   NET FLUX    HEATING RATE
          mb          W/m2          W/m2          W/m2        W/m2          W/m2       degree/day
  51    .06700        0.2237        0.0000        3.5066        3.5066       3.282877       0.00000
  50    .07753        0.2237        0.0000        3.5066        3.5066       3.282869       0.00640
  49    .09103        0.2237        0.0000        3.5066        3.5066       3.282859       0.00627
  48    0.1069        0.2237        0.0000        3.5066        3.5066       3.282847       0.00613
  47    0.1255        0.2237        0.0000        3.5066        3.5066       3.282834       0.00599
  46    0.1487        0.2237        0.0000        3.5066        3.5066       3.282818       0.00607
  45    0.1794        0.2237        0.0000        3.5065        3.5065       3.282795       0.00624
  44    0.2165        0.2237        0.0000        3.5065        3.5065       3.282768       0.00611
  43    0.2613        0.2237        0.0000        3.5065        3.5065       3.282736       0.00598
  42    0.3336        0.2237        0.0000        3.5064        3.5064       3.282683       0.00615
  41    0.4307        0.2237        0.0000        3.5064        3.5064       3.282612       0.00618
  40    0.5894        0.2237        0.0000        3.5062        3.5062       3.282493       0.00633
  39     1.339        0.2237        0.0000        3.5055        3.5055       3.281795       0.00787
  38     1.782        0.2237        0.0000        3.5050        3.5050       3.281264       0.01011
  37     2.292        0.2237        0.0000        3.5043        3.5043       3.280571       0.01147
  36     2.964        0.2237        0.0000        3.5033        3.5033       3.279580       0.01245
  35     3.853        0.2237        0.0000        3.5019        3.5019       3.278203       0.01307
  34     5.035        0.2237        0.0000        3.5001        3.5001       3.276342       0.01329
  33     6.613        0.2237        0.0000        3.4977        3.4977       3.273932       0.01288
  32     8.786        0.2237        0.0000        3.4947        3.4947       3.270961       0.01154
  31     11.80        0.2237        0.0000        3.4911        3.4911       3.267326       0.01018
  30     15.07        0.2237        0.0000        3.4878        3.4878       3.264105       0.00832
  29     18.79        0.2237        0.0000        3.4848        3.4848       3.261042       0.00695
  28     23.16        0.2237        0.0000        3.4816        3.4816       3.257822       0.00623
  27     28.12        0.2237        0.0000        3.4779        3.4779       3.254204       0.00615
  26     33.73        0.2237        0.0000        3.4735        3.4735       3.249738       0.00671
  25     40.54        0.2237        0.0000        3.4671        3.4671       3.243413       0.00785
  24     48.69        0.2237        0.0000        3.4582        3.4583       3.234518       0.00920
  23     57.69        0.2237        0.0000        3.4472        3.4472       3.223471       0.01036
  22     68.43        0.2237        0.0000        3.4329        3.4329       3.209212       0.01121
  21     81.20        0.2237        0.0000        3.4152        3.4152       3.191485       0.01171
  20     96.49        0.2237        0.0000        3.3940        3.3941       3.170343       0.01167
  19     114.6        0.2237        0.0000        3.3692        3.3692       3.145456       0.01162
  18     136.5        0.2238        0.0001        3.3419        3.3420       3.118242       0.01046
  17     162.9        0.2238        0.0001        3.3129        3.3129       3.089172       0.00929
  16     196.4        0.2238        0.0001        3.2793        3.2794       3.055606       0.00845
  15     218.7        0.2238        0.0001        3.2578        3.2578       3.033995       0.00820
  14     243.0        0.2239        0.0001        3.2320        3.2320       3.008132       0.00897
  13     269.0        0.2240        0.0001        3.1968        3.1969       2.972897       0.01143
  12     297.5        0.2242        0.0001        3.1489        3.1490       2.924835       0.01425
  11     328.5        0.2245        0.0001        3.0821        3.0822       2.857683       0.01826
  10     361.9        0.2249        0.0001        2.9902        2.9904       2.765463       0.02333
   9     398.1        0.2255        0.0001        2.8715        2.8716       2.646147       0.02780
   8     437.6        0.2263        0.0001        2.7276        2.7278       2.501501       0.03093
   7     480.5        0.2275        0.0001        2.5595        2.5597       2.332175       0.03326
   6     533.0        0.2295        0.0001        2.3617        2.3619       2.132414       0.03214
   5     589.8        0.2323        0.0002        2.1649        2.1651       1.932744       0.02964
   4     651.6        0.2365        0.0002        1.9608        1.9609       1.724465       0.02848
   3     718.7        0.2421        0.0002        1.7593        1.7595       1.517416       0.02602
   2     792.3        0.2494        0.0002        1.5761        1.5762       1.326822       0.02186
   1     891.5        0.2620        0.0002        1.3714        1.3716       1.109607       0.01848
   0    1013.0        0.2847        0.0002        1.1584        1.1586       0.873817       0.01637



 Wavenumbers:  3250. -  4000. cm-1, ATM      1
 LEVEL PRESSURE   UPWARD FLUX   DIFDOWN FLUX  DIRDOWN FLUX  DOWNWARD FLUX   NET FLUX    HEATING RATE
          mb          W/m2          W/m2          W/m2        W/m2          W/m2       degree/day
  51    .06700        0.0004        0.0000        5.9117        5.9117       5.911216       0.00000
  50    .07753        0.0004        0.0000        5.9075        5.9075       5.907026       3.35808
  49    .09103        0.0004        0.0000        5.9050        5.9050       5.904584       1.52677
  48    0.1069        0.0004        0.0000        5.9032        5.9032       5.902717       0.99346
  47    0.1255        0.0004        0.0000        5.9014        5.9014       5.900959       0.79708
  46    0.1487        0.0004        0.0000        5.8995        5.8995       5.899070       0.68848
  45    0.1794        0.0004        0.0000        5.8974        5.8974       5.896922       0.58983
  44    0.2165        0.0004        0.0000        5.8952        5.8952       5.894805       0.48155
  43    0.2613        0.0004        0.0000        5.8931        5.8931       5.892646       0.40696
  42    0.3336        0.0004        0.0000        5.8899        5.8899       5.889488       0.36820
  41    0.4307        0.0004        0.0000        5.8861        5.8861       5.885651       0.33365
  40    0.5894        0.0004        0.0000        5.8803        5.8803       5.879848       0.30857
  39     1.339        0.0004        0.0000        5.8597        5.8597       5.859251       0.23189
  38     1.782        0.0004        0.0000        5.8513        5.8513       5.850826       0.16039
  37     2.292        0.0004        0.0000        5.8431        5.8431       5.842655       0.13533
  36     2.964        0.0004        0.0000        5.8334        5.8334       5.833015       0.12100
  35     3.853        0.0004        0.0000        5.8213        5.8213       5.820840       0.11555
  34     5.035        0.0004        0.0000        5.8052        5.8052       5.804745       0.11498
  33     6.613        0.0004        0.0000        5.7833        5.7834       5.782923       0.11666
  32     8.786        0.0004        0.0000        5.7531        5.7531       5.752722       0.11729
  31     11.80        0.0004        0.0000        5.7090        5.7090       5.708553       0.12366
  30     15.07        0.0004        0.0000        5.6615        5.6615       5.661088       0.12254
  29     18.79        0.0004        0.0000        5.6093        5.6094       5.608953       0.11821
  28     23.16        0.0004        0.0000        5.5524        5.5524       5.552027       0.11008
  27     28.12        0.0004        0.0000        5.4935        5.4935       5.493148       0.10009
  26     33.73        0.0004        0.0000        5.4348        5.4349       5.434459       0.08824
  25     40.54        0.0004        0.0001        5.3707        5.3708       5.370398       0.07948
  24     48.69        0.0004        0.0001        5.2985        5.2985       5.298165       0.07475
  23     57.69        0.0004        0.0001        5.2215        5.2216       5.221226       0.07212
  22     68.43        0.0003        0.0001        5.1318        5.1319       5.131566       0.07048
  21     81.20        0.0003        0.0001        5.0284        5.0285       5.028136       0.06834
  20     96.49        0.0003        0.0001        4.9122        4.9123       4.912002       0.06410
  19     114.6        0.0003        0.0001        4.7780        4.7782       4.777891       0.06262
  18     136.5        0.0003        0.0002        4.6285        4.6287       4.628413       0.05748
  17     162.9        0.0002        0.0002        4.4406        4.4407       4.440500       0.06006
  16     196.4        0.0002        0.0002        4.1548        4.1550       4.154827       0.07191
  15     218.7        0.0002        0.0002        3.9564        3.9566       3.956446       0.07532
  14     243.0        0.0002        0.0002        3.7055        3.7058       3.705612       0.08700
  13     269.0        0.0001        0.0002        3.3399        3.3401       3.339973       0.11861
  12     297.5        0.0001        0.0002        2.8954        2.8956       2.895483       0.13183
  11     328.5        0.0001        0.0002        2.4388        2.4390       2.438942       0.12413
  10     361.9        0.0001        0.0002        2.0269        2.0271       2.027003       0.10422
   9     398.1        0.0001        0.0002        1.6753        1.6755       1.675415       0.08191
   8     437.6        0.0001        0.0002        1.3592        1.3594       1.359296       0.06759
   7     480.5        0.0001        0.0002        1.0616        1.0618       1.061713       0.05844
   6     533.0        0.0001        0.0001        0.7543        0.7544       0.754377       0.04944
   5     589.8        0.0001        0.0001        0.4951        0.4952       0.495181       0.03847
   4     651.6        0.0001        0.0001        0.2943        0.2943       0.294278       0.02747
   3     718.7        0.0001        0.0001        0.1528        0.1529       0.152770       0.01778
   2     792.3        0.0001        0.0000        0.0658        0.0658       0.065710       0.00998
   1     891.5        0.0003        0.0000        0.0157        0.0157       0.015360       0.00428
   0    1013.0        0.0013        0.0000        0.0013        0.0013       0.000051       0.00106



 Wavenumbers:  4000. -  4650. cm-1, ATM      1
 LEVEL PRESSURE   UPWARD FLUX   DIFDOWN FLUX  DIRDOWN FLUX  DOWNWARD FLUX   NET FLUX    HEATING RATE
          mb          W/m2          W/m2          W/m2        W/m2          W/m2       degree/day
  51    .06700        0.6297        0.0000        6.9421        6.9421       6.312330       0.00000
  50    .07753        0.6297        0.0000        6.9421        6.9421       6.312329       0.00079
  49    .09103        0.6297        0.0000        6.9421        6.9421       6.312328       0.00078
  48    0.1069        0.6297        0.0000        6.9421        6.9421       6.312326       0.00076
  47    0.1255        0.6297        0.0000        6.9421        6.9421       6.312325       0.00074
  46    0.1487        0.6297        0.0000        6.9421        6.9421       6.312323       0.00075
  45    0.1794        0.6297        0.0000        6.9421        6.9421       6.312320       0.00077
  44    0.2165        0.6297        0.0000        6.9421        6.9421       6.312317       0.00076
  43    0.2613        0.6297        0.0000        6.9420        6.9420       6.312313       0.00074
  42    0.3336        0.6297        0.0000        6.9420        6.9420       6.312306       0.00076
  41    0.4307        0.6297        0.0000        6.9420        6.9420       6.312297       0.00077
  40    0.5894        0.6297        0.0000        6.9420        6.9420       6.312282       0.00079
  39     1.339        0.6297        0.0000        6.9419        6.9419       6.312194       0.00100
  38     1.782        0.6297        0.0000        6.9418        6.9419       6.312124       0.00132
  37     2.292        0.6297        0.0000        6.9418        6.9418       6.312031       0.00155
  36     2.964        0.6297        0.0000        6.9416        6.9416       6.311891       0.00175
  35     3.853        0.6297        0.0000        6.9414        6.9414       6.311685       0.00196
  34     5.035        0.6297        0.0000        6.9411        6.9411       6.311380       0.00218
  33     6.613        0.6297        0.0000        6.9406        6.9406       6.310933       0.00239
  32     8.786        0.6297        0.0000        6.9399        6.9400       6.310273       0.00256
  31     11.80        0.6297        0.0000        6.9389        6.9389       6.309239       0.00290
  30     15.07        0.6297        0.0001        6.9377        6.9377       6.308029       0.00312
  29     18.79        0.6297        0.0001        6.9362        6.9362       6.306572       0.00330
  28     23.16        0.6297        0.0001        6.9343        6.9344       6.304770       0.00348
  27     28.12        0.6296        0.0001        6.9321        6.9322       6.302599       0.00369
  26     33.73        0.6296        0.0001        6.9294        6.9296       6.299935       0.00400
  25     40.54        0.6296        0.0001        6.9258        6.9260       6.296344       0.00445
  24     48.69        0.6296        0.0002        6.9210        6.9212       6.291593       0.00492
  23     57.69        0.6296        0.0002        6.9154        6.9156       6.286005       0.00524
  22     68.43        0.6295        0.0002        6.9083        6.9086       6.279061       0.00546
  21     81.20        0.6295        0.0003        6.8998        6.9001       6.270575       0.00561
  20     96.49        0.6295        0.0004        6.8894        6.8898       6.260331       0.00565
  19     114.6        0.6294        0.0004        6.8765        6.8770       6.247518       0.00598
  18     136.5        0.6294        0.0005        6.8610        6.8615       6.232074       0.00594
  17     162.9        0.6294        0.0006        6.8417        6.8423       6.212886       0.00613
  16     196.4        0.6294        0.0007        6.8147        6.8154       6.186009       0.00677
  15     218.7        0.6294        0.0008        6.7948        6.7956       6.166242       0.00751
  14     243.0        0.6295        0.0009        6.7698        6.7707       6.141201       0.00868
  13     269.0        0.6296        0.0010        6.7349        6.7358       6.106224       0.01135
  12     297.5        0.6298        0.0011        6.6869        6.6879       6.058079       0.01428
  11     328.5        0.6302        0.0012        6.6194        6.6205       5.990319       0.01842
  10     361.9        0.6307        0.0013        6.5295        6.5307       5.900000       0.02285
   9     398.1        0.6314        0.0014        6.4202        6.4216       5.790167       0.02559
   8     437.6        0.6323        0.0015        6.2962        6.2977       5.665307       0.02670
   7     480.5        0.6336        0.0016        6.1555        6.1571       5.523458       0.02786
   6     533.0        0.6357        0.0017        5.9675        5.9693       5.333543       0.03055
   5     589.8        0.6388        0.0019        5.7368        5.7386       5.099852       0.03469
   4     651.6        0.6432        0.0020        5.4662        5.4682       4.825015       0.03758
   3     718.7        0.6493        0.0021        5.1912        5.1933       4.544007       0.03531
   2     792.3        0.6571        0.0022        4.9395        4.9417       4.284553       0.02976
   1     891.5        0.6706        0.0024        4.6486        4.6510       3.980358       0.02589
   0    1013.0        0.6949        0.0025        4.3179        4.3204       3.625519       0.02464



 Wavenumbers:  4650. -  5150. cm-1, ATM      1
 LEVEL PRESSURE   UPWARD FLUX   DIFDOWN FLUX  DIRDOWN FLUX  DOWNWARD FLUX   NET FLUX    HEATING RATE
          mb          W/m2          W/m2          W/m2        W/m2          W/m2       degree/day
  51    .06700        0.4412        0.0000        6.5710        6.5710       6.129774       0.00000
  50    .07753        0.4412        0.0000        6.5708        6.5708       6.129538       0.18887
  49    .09103        0.4412        0.0000        6.5705        6.5705       6.129244       0.18362
  48    0.1069        0.4412        0.0000        6.5701        6.5701       6.128910       0.17806
  47    0.1255        0.4412        0.0000        6.5697        6.5697       6.128530       0.17238
  46    0.1487        0.4412        0.0000        6.5693        6.5693       6.128056       0.17268
  45    0.1794        0.4412        0.0000        6.5686        6.5686       6.127419       0.17473
  44    0.2165        0.4412        0.0000        6.5679        6.5679       6.126681       0.16788
  43    0.2613        0.4412        0.0000        6.5670        6.5670       6.125828       0.16078
  42    0.3336        0.4412        0.0000        6.5657        6.5657       6.124465       0.15894
  41    0.4307        0.4412        0.0000        6.5640        6.5640       6.122743       0.14971
  40    0.5894        0.4412        0.0000        6.5613        6.5613       6.120127       0.13913
  39     1.339        0.4412        0.0000        6.5516        6.5516       6.110350       0.11008
  38     1.782        0.4412        0.0000        6.5473        6.5473       6.106134       0.08026
  37     2.292        0.4412        0.0000        6.5434        6.5435       6.102247       0.06438
  36     2.964        0.4412        0.0000        6.5395        6.5395       6.098293       0.04964
  35     3.853        0.4412        0.0000        6.5355        6.5356       6.094350       0.03742
  34     5.035        0.4412        0.0000        6.5315        6.5315       6.090348       0.02859
  33     6.613        0.4412        0.0000        6.5271        6.5271       6.085954       0.02349
  32     8.786        0.4412        0.0000        6.5216        6.5216       6.080460       0.02134
  31     11.80        0.4412        0.0001        6.5135        6.5135       6.072383       0.02261
  30     15.07        0.4411        0.0001        6.5041        6.5042       6.063016       0.02418
  29     18.79        0.4411        0.0001        6.4925        6.4926       6.051503       0.02610
  28     23.16        0.4411        0.0001        6.4779        6.4780       6.036915       0.02821
  27     28.12        0.4411        0.0002        6.4599        6.4600       6.018946       0.03055
  26     33.73        0.4411        0.0002        6.4384        6.4386       5.997522       0.03221
  25     40.54        0.4410        0.0002        6.4112        6.4114       5.970407       0.03364
  24     48.69        0.4410        0.0003        6.3775        6.3778       5.936786       0.03479
  23     57.69        0.4410        0.0003        6.3404        6.3407       5.899715       0.03475
  22     68.43        0.4409        0.0004        6.2971        6.2975       5.856554       0.03393
  21     81.20        0.4409        0.0004        6.2483        6.2487       5.807779       0.03223
  20     96.49        0.4409        0.0005        6.1948        6.1953       5.754464       0.02943
  19     114.6        0.4408        0.0006        6.1381        6.1388       5.697907       0.02641
  18     136.5        0.4408        0.0007        6.0790        6.0797       5.638904       0.02269
  17     162.9        0.4408        0.0009        6.0160        6.0169       5.576092       0.02008
  16     196.4        0.4408        0.0010        5.9399        5.9409       5.500076       0.01913
  15     218.7        0.4408        0.0011        5.8896        5.8908       5.449917       0.01904
  14     243.0        0.4409        0.0012        5.8322        5.8334       5.392516       0.01991
  13     269.0        0.4410        0.0014        5.7624        5.7638       5.322719       0.02264
  12     297.5        0.4413        0.0015        5.6767        5.6782       5.236943       0.02544
  11     328.5        0.4416        0.0016        5.5726        5.5742       5.132579       0.02838
  10     361.9        0.4422        0.0018        5.4473        5.4491       5.006926       0.03179
   9     398.1        0.4429        0.0019        5.2995        5.3014       4.858480       0.03458
   8     437.6        0.4439        0.0020        5.1275        5.1295       4.685573       0.03697
   7     480.5        0.4453        0.0022        4.9290        4.9311       4.485780       0.03924
   6     533.0        0.4476        0.0023        4.6794        4.6817       4.234036       0.04050
   5     589.8        0.4509        0.0024        4.4188        4.4212       3.970340       0.03914
   4     651.6        0.4554        0.0025        4.1521        4.1546       3.699200       0.03708
   3     718.7        0.4615        0.0027        3.8929        3.8956       3.434055       0.03332
   2     792.3        0.4695        0.0028        3.6469        3.6496       3.180157       0.02912
   1     891.5        0.4830        0.0029        3.3535        3.3564       2.873320       0.02611
   0    1013.0        0.5064        0.0030        3.0383        3.0414       2.535008       0.02349



 Wavenumbers:  5150. -  6150. cm-1, ATM      1
 LEVEL PRESSURE   UPWARD FLUX   DIFDOWN FLUX  DIRDOWN FLUX  DOWNWARD FLUX   NET FLUX    HEATING RATE
          mb          W/m2          W/m2          W/m2        W/m2          W/m2       degree/day
  51    .06700        1.2375        0.0000       16.4735       16.4735      15.236018       0.00000
  50    .07753        1.2375        0.0000       16.4735       16.4735      15.235984       0.02761
  49    .09103        1.2375        0.0000       16.4734       16.4734      15.235939       0.02810
  48    0.1069        1.2375        0.0000       16.4734       16.4734      15.235885       0.02859
  47    0.1255        1.2375        0.0000       16.4733       16.4733      15.235821       0.02904
  46    0.1487        1.2375        0.0000       16.4732       16.4732      15.235737       0.03059
  45    0.1794        1.2375        0.0000       16.4731       16.4731      15.235618       0.03269
  44    0.2165        1.2375        0.0000       16.4730       16.4730      15.235472       0.03331
  43    0.2613        1.2375        0.0000       16.4728       16.4728      15.235293       0.03376
  42    0.3336        1.2375        0.0000       16.4725       16.4725      15.234987       0.03564
  41    0.4307        1.2375        0.0000       16.4720       16.4720      15.234568       0.03645
  40    0.5894        1.2375        0.0000       16.4713       16.4713      15.233867       0.03728
  39     1.339        1.2375        0.0000       16.4679       16.4679      15.230458       0.03837
  38     1.782        1.2374        0.0000       16.4659       16.4659      15.228459       0.03806
  37     2.292        1.2374        0.0001       16.4635       16.4636      15.226168       0.03795
  36     2.964        1.2374        0.0001       16.4605       16.4606      15.223199       0.03727
  35     3.853        1.2374        0.0001       16.4567       16.4567      15.219346       0.03656
  34     5.035        1.2374        0.0001       16.4516       16.4517      15.214350       0.03569
  33     6.613        1.2373        0.0002       16.4451       16.4452      15.207891       0.03453
  32     8.786        1.2373        0.0002       16.4367       16.4369      15.199580       0.03227
  31     11.80        1.2372        0.0003       16.4254       16.4257      15.188432       0.03121
  30     15.07        1.2372        0.0004       16.4141       16.4145      15.177348       0.02862
  29     18.79        1.2371        0.0005       16.4024       16.4029      15.165831       0.02611
  28     23.16        1.2370        0.0006       16.3900       16.3906      15.153574       0.02370
  27     28.12        1.2369        0.0007       16.3771       16.3778      15.140916       0.02152
  26     33.73        1.2368        0.0009       16.3641       16.3650      15.128197       0.01912
  25     40.54        1.2366        0.0010       16.3502       16.3512      15.114567       0.01691
  24     48.69        1.2365        0.0012       16.3354       16.3366      15.100107       0.01496
  23     57.69        1.2363        0.0015       16.3211       16.3225      15.086225       0.01301
  22     68.43        1.2361        0.0017       16.3062       16.3080      15.071859       0.01129
  21     81.20        1.2359        0.0021       16.2903       16.2924      15.056494       0.01015
  20     96.49        1.2356        0.0024       16.2726       16.2751      15.039456       0.00940
  19     114.6        1.2353        0.0029       16.2521       16.2550      15.019686       0.00923
  18     136.5        1.2349        0.0034       16.2245       16.2280      14.993078       0.01023
  17     162.9        1.2345        0.0041       16.1747       16.1788      14.944359       0.01557
  16     196.4        1.2339        0.0049       16.0518       16.0568      14.822845       0.03059
  15     218.7        1.2336        0.0054       15.8984       15.9038      14.670258       0.05793
  14     243.0        1.2332        0.0060       15.6153       15.6212      14.388025       0.09789
  13     269.0        1.2328        0.0064       15.1390       15.1454      13.912599       0.15423
  12     297.5        1.2325        0.0069       14.5779       14.5848      13.352284       0.16618
  11     328.5        1.2323        0.0073       13.8780       13.8854      12.653099       0.19011
  10     361.9        1.2321        0.0077       13.0814       13.0892      11.857049       0.20141
   9     398.1        1.2321        0.0080       12.2728       12.2809      11.048796       0.18830
   8     437.6        1.2323        0.0083       11.4776       11.4859      10.253619       0.17001
   7     480.5        1.2328        0.0086       10.7300       10.7385       9.505760       0.14688
   6     533.0        1.2339        0.0089       10.0326       10.0415       8.807572       0.11232
   5     589.8        1.2359        0.0093        9.5050        9.5143       8.278401       0.07855
   4     651.6        1.2392        0.0098        9.0814        9.0912       7.851940       0.05832
   3     718.7        1.2442        0.0104        8.7024        8.7128       7.468640       0.04817
   2     792.3        1.2511        0.0110        8.3379        8.3490       7.097933       0.04252
   1     891.5        1.2639        0.0119        7.9064        7.9182       6.654295       0.03775
   0    1013.0        1.2908        0.0128        7.4741        7.4869       6.196082       0.03182



 Wavenumbers:  6150. -  7700. cm-1, ATM      1
 LEVEL PRESSURE   UPWARD FLUX   DIFDOWN FLUX  DIRDOWN FLUX  DOWNWARD FLUX   NET FLUX    HEATING RATE
          mb          W/m2          W/m2          W/m2        W/m2          W/m2       degree/day
  51    .06700        1.8651        0.0000       30.4684       30.4684      28.603332       0.00000
  50    .07753        1.8651        0.0000       30.4683       30.4683      28.603280       0.04144
  49    .09103        1.8650        0.0000       30.4683       30.4683      28.603214       0.04174
  48    0.1069        1.8650        0.0000       30.4682       30.4682      28.603135       0.04202
  47    0.1255        1.8650        0.0000       30.4681       30.4681      28.603041       0.04227
  46    0.1487        1.8650        0.0000       30.4680       30.4680      28.602920       0.04411
  45    0.1794        1.8650        0.0000       30.4678       30.4678      28.602750       0.04669
  44    0.2165        1.8650        0.0000       30.4676       30.4676      28.602543       0.04715
  43    0.2613        1.8650        0.0000       30.4673       30.4673      28.602291       0.04744
  42    0.3336        1.8650        0.0000       30.4669       30.4669      28.601865       0.04974
  41    0.4307        1.8650        0.0000       30.4663       30.4663      28.601284       0.05052
  40    0.5894        1.8650        0.0001       30.4653       30.4653      28.600316       0.05146
  39     1.339        1.8649        0.0001       30.4604       30.4606      28.595632       0.05273
  38     1.782        1.8649        0.0002       30.4576       30.4578      28.592883       0.05235
  37     2.292        1.8648        0.0002       30.4543       30.4545      28.589724       0.05231
  36     2.964        1.8648        0.0003       30.4501       30.4504      28.585617       0.05156
  35     3.853        1.8647        0.0004       30.4445       30.4449      28.580260       0.05084
  34     5.035        1.8645        0.0005       30.4373       30.4378      28.573260       0.05000
  33     6.613        1.8644        0.0007       30.4278       30.4285      28.564112       0.04890
  32     8.786        1.8642        0.0009       30.4154       30.4163      28.552160       0.04642
  31     11.80        1.8639        0.0013       30.3984       30.3996      28.535774       0.04587
  30     15.07        1.8635        0.0016       30.3810       30.3826      28.519061       0.04315
  29     18.79        1.8631        0.0020       30.3623       30.3643      28.501161       0.04059
  28     23.16        1.8627        0.0025       30.3417       30.3442      28.481478       0.03806
  27     28.12        1.8622        0.0030       30.3196       30.3226      28.460378       0.03587
  26     33.73        1.8616        0.0036       30.2965       30.3001      28.438460       0.03295
  25     40.54        1.8610        0.0043       30.2708       30.2751      28.414123       0.03019
  24     48.69        1.8601        0.0052       30.2423       30.2475      28.387347       0.02771
  23     57.69        1.8592        0.0062       30.2139       30.2200      28.360782       0.02490
  22     68.43        1.8582        0.0073       30.1834       30.1907      28.332508       0.02223
  21     81.20        1.8569        0.0087       30.1500       30.1587      28.301781       0.02030
  20     96.49        1.8553        0.0103       30.1126       30.1229      28.267565       0.01888
  19     114.6        1.8535        0.0122       30.0695       30.0817      28.228182       0.01839
  18     136.5        1.8514        0.0145       30.0139       30.0284      28.177032       0.01967
  17     162.9        1.8488        0.0172       29.9225       29.9397      28.090864       0.02754
  16     196.4        1.8455        0.0206       29.7333       29.7540      27.908496       0.04590
  15     218.7        1.8433        0.0229       29.5259       29.5487      27.705386       0.07711
  14     243.0        1.8411        0.0252       29.1375       29.1626      27.321595       0.13311
  13     269.0        1.8387        0.0274       28.3800       28.4074      26.568693       0.24424
  12     297.5        1.8363        0.0294       27.3895       27.4190      25.582662       0.29245
  11     328.5        1.8340        0.0314       26.2257       26.2571      24.423074       0.31529
  10     361.9        1.8319        0.0331       24.8453       24.8785      23.046592       0.34826
   9     398.1        1.8300        0.0346       23.3471       23.3817      21.551652       0.34829
   8     437.6        1.8287        0.0359       21.7966       21.8325      20.003788       0.33094
   7     480.5        1.8283        0.0368       20.1977       20.2345      18.406218       0.31376
   6     533.0        1.8295        0.0377       18.4969       18.5346      16.705172       0.27364
   5     589.8        1.8332        0.0386       16.9754       17.0140      15.180795       0.22627
   4     651.6        1.8408        0.0395       15.6022       15.6416      13.800800       0.18872
   3     718.7        1.8533        0.0405       14.4232       14.4637      12.610377       0.14960
   2     792.3        1.8714        0.0417       13.4386       13.4803      11.608948       0.11485
   1     891.5        1.9060        0.0435       12.3736       12.4171      10.511014       0.09343
   0    1013.0        1.9776        0.0454       11.2911       11.3365       9.358909       0.08000



 Wavenumbers:  7700. -  8050. cm-1, ATM      1
 LEVEL PRESSURE   UPWARD FLUX   DIFDOWN FLUX  DIRDOWN FLUX  DOWNWARD FLUX   NET FLUX    HEATING RATE
          mb          W/m2          W/m2          W/m2        W/m2          W/m2       degree/day
  51    .06700        0.9915        0.0000        7.2006        7.2006       6.209072       0.00000
  50    .07753        0.9915        0.0000        7.2006        7.2006       6.209054       0.01472
  49    .09103        0.9915        0.0000        7.2005        7.2005       6.209031       0.01442
  48    0.1069        0.9915        0.0000        7.2005        7.2005       6.209004       0.01412
  47    0.1255        0.9915        0.0000        7.2005        7.2005       6.208974       0.01382
  46    0.1487        0.9915        0.0000        7.2004        7.2005       6.208935       0.01402
  45    0.1794        0.9915        0.0000        7.2004        7.2004       6.208883       0.01443
  44    0.2165        0.9915        0.0000        7.2003        7.2003       6.208821       0.01415
  43    0.2613        0.9915        0.0000        7.2003        7.2003       6.208747       0.01389
  42    0.3336        0.9915        0.0000        7.2001        7.2001       6.208625       0.01421
  41    0.4307        0.9915        0.0000        7.2000        7.2000       6.208463       0.01405
  40    0.5894        0.9915        0.0000        7.1997        7.1997       6.208200       0.01404
  39     1.339        0.9915        0.0001        7.1984        7.1985       6.206951       0.01405
  38     1.782        0.9915        0.0001        7.1977        7.1978       6.206218       0.01395
  37     2.292        0.9916        0.0001        7.1968        7.1969       6.205370       0.01405
  36     2.964        0.9916        0.0001        7.1957        7.1958       6.204257       0.01397
  35     3.853        0.9916        0.0002        7.1942        7.1944       6.202788       0.01395
  34     5.035        0.9916        0.0002        7.1922        7.1924       6.200837       0.01394
  33     6.613        0.9916        0.0003        7.1896        7.1899       6.198234       0.01392
  32     8.786        0.9917        0.0004        7.1860        7.1864       6.194732       0.01360
  31     11.80        0.9917        0.0005        7.1810        7.1815       6.189734       0.01399
  30     15.07        0.9918        0.0006        7.1755        7.1762       6.184384       0.01381
  29     18.79        0.9919        0.0008        7.1694        7.1702       6.178361       0.01366
  28     23.16        0.9920        0.0010        7.1623        7.1633       6.171353       0.01355
  27     28.12        0.9921        0.0012        7.1542        7.1555       6.163378       0.01356
  26     33.73        0.9922        0.0014        7.1452        7.1467       6.154500       0.01335
  25     40.54        0.9923        0.0017        7.1344        7.1362       6.143844       0.01322
  24     48.69        0.9925        0.0021        7.1215        7.1236       6.131095       0.01319
  23     57.69        0.9927        0.0025        7.1074        7.1099       6.117217       0.01301
  22     68.43        0.9929        0.0029        7.0909        7.0938       6.100857       0.01286
  21     81.20        0.9932        0.0034        7.0713        7.0748       6.081602       0.01272
  20     96.49        0.9935        0.0041        7.0484        7.0525       6.058986       0.01248
  19     114.6        0.9939        0.0048        7.0217        7.0265       6.032581       0.01233
  18     136.5        0.9944        0.0057        6.9906        6.9963       6.001887       0.01180
  17     162.9        0.9950        0.0068        6.9544        6.9612       5.966142       0.01143
  16     196.4        0.9959        0.0082        6.9087        6.9169       5.921026       0.01136
  15     218.7        0.9964        0.0090        6.8794        6.8885       5.892047       0.01100
  14     243.0        0.9971        0.0100        6.8481        6.8581       5.861077       0.01074
  13     269.0        0.9978        0.0111        6.8147        6.8258       5.828014       0.01073
  12     297.5        0.9986        0.0122        6.7791        6.7913       5.792690       0.01048
  11     328.5        0.9995        0.0134        6.7409        6.7543       5.754844       0.01029
  10     361.9        1.0006        0.0147        6.7002        6.7148       5.714276       0.01026
   9     398.1        1.0018        0.0161        6.6563        6.6724       5.670520       0.01019
   8     437.6        1.0033        0.0176        6.6089        6.6264       5.623097       0.01014
   7     480.5        1.0051        0.0192        6.5570        6.5761       5.571014       0.01023
   6     533.0        1.0077        0.0211        6.4915        6.5126       5.504888       0.01064
   5     589.8        1.0109        0.0231        6.4182        6.4414       5.430530       0.01104
   4     651.6        1.0149        0.0253        6.3359        6.3612       5.346357       0.01151
   3     718.7        1.0198        0.0276        6.2441        6.2718       5.251978       0.01186
   2     792.3        1.0258        0.0301        6.1437        6.1738       5.148028       0.01192
   1     891.5        1.0350        0.0333        6.0042        6.0375       5.002448       0.01239
   0    1013.0        1.0486        0.0370        5.8249        5.8619       4.813299       0.01313



 Wavenumbers:  8050. - 12850. cm-1, ATM      1
 LEVEL PRESSURE   UPWARD FLUX   DIFDOWN FLUX  DIRDOWN FLUX  DOWNWARD FLUX   NET FLUX    HEATING RATE
          mb          W/m2          W/m2          W/m2        W/m2          W/m2       degree/day
  51    .06700       17.7322        0.0000      100.8135      100.8135      83.081303       0.00000
  50    .07753       17.7322        0.0000      100.8135      100.8135      83.081303       0.00000
  49    .09103       17.7322        0.0001      100.8134      100.8135      83.081303       0.00000
  48    0.1069       17.7321        0.0001      100.8134      100.8134      83.081303       0.00000
  47    0.1255       17.7321        0.0001      100.8133      100.8134      83.081303      -0.00000
  46    0.1487       17.7321        0.0002      100.8132      100.8134      83.081303      -0.00000
  45    0.1794       17.7320        0.0002      100.8131      100.8133      83.081303       0.00000
  44    0.2165       17.7319        0.0003      100.8129      100.8132      83.081303       0.00000
  43    0.2613       17.7319        0.0004      100.8127      100.8132      83.081303       0.00000
  42    0.3336       17.7317        0.0006      100.8125      100.8130      83.081303       0.00000
  41    0.4307       17.7316        0.0008      100.8121      100.8129      83.081303      -0.00000
  40    0.5894       17.7313        0.0011      100.8115      100.8126      83.081303       0.00000
  39     1.339       17.7299        0.0027      100.8085      100.8112      83.081303       0.00000
  38     1.782       17.7291        0.0037      100.8068      100.8104      83.081303      -0.00000
  37     2.292       17.7282        0.0047      100.8047      100.8095      83.081303       0.00000
  36     2.964       17.7270        0.0062      100.8021      100.8083      83.081303      -0.00000
  35     3.853       17.7254        0.0081      100.7986      100.8067      83.081303      -0.00000
  34     5.035       17.7233        0.0106      100.7940      100.8046      83.081303       0.00000
  33     6.613       17.7204        0.0139      100.7878      100.8017      83.081303       0.00000
  32     8.786       17.7166        0.0185      100.7794      100.7979      83.081303      -0.00000
  31     11.80       17.7111        0.0250      100.7674      100.7924      83.081303       0.00000
  30     15.07       17.7052        0.0319      100.7546      100.7865      83.081303       0.00000
  29     18.79       17.6985        0.0398      100.7400      100.7798      83.081303      -0.00000
  28     23.16       17.6907        0.0490      100.7230      100.7720      83.081303      -0.00000
  27     28.12       17.6818        0.0596      100.7035      100.7631      83.081303       0.00000
  26     33.73       17.6717        0.0714      100.6817      100.7530      83.081303      -0.00000
  25     40.54       17.6596        0.0857      100.6552      100.7409      83.081303       0.00000
  24     48.69       17.6450        0.1030      100.6234      100.7263      83.081303       0.00000
  23     57.69       17.6289        0.1219      100.5883      100.7102      83.081303       0.00000
  22     68.43       17.6097        0.1446      100.5464      100.6910      83.081303       0.00000
  21     81.20       17.5868        0.1716      100.4965      100.6681      83.081303       0.00000
  20     96.49       17.5595        0.2038      100.4370      100.6408      83.081303      -0.00000
  19     114.6       17.5270        0.2421      100.3585      100.6006      83.073630       0.00358
  18     136.5       17.4884        0.2876      100.2634      100.5510      83.062585       0.00425
  17     162.9       17.4424        0.3419      100.1407      100.4825      83.040164       0.00717
  16     196.4       17.3826        0.4123       99.9505      100.3628      82.980222       0.01509
  15     218.7       17.3433        0.4586       99.7889      100.2475      82.904246       0.02885
  14     243.0       17.3006        0.5088       99.5472      100.0559      82.755394       0.05163
  13     269.0       17.2546        0.5628       99.1452       99.7081      82.453455       0.09795
  12     297.5       17.2055        0.6208       98.5975       99.2182      82.012699       0.13072
  11     328.5       17.1536        0.6828       97.8659       98.5486      81.395035       0.16794
  10     361.9       17.0993        0.7485       96.8848       97.6333      80.533974       0.21786
   9     398.1       17.0434        0.8178       95.6330       96.4507      79.407387       0.26247
   8     437.6       16.9872        0.8901       94.0655       94.9556      77.968391       0.30767
   7     480.5       16.9336        0.9645       92.0807       93.0452      76.111677       0.36465
   6     533.0       16.8786        1.0520       89.4449       90.4968      73.618221       0.40112
   5     589.8       16.8354        1.1418       86.5544       87.6962      70.860812       0.40929
   4     651.6       16.8124        1.2336       83.4174       84.6510      67.838594       0.41330
   3     718.7       16.8145        1.3280       80.2037       81.5317      64.717207       0.39227
   2     792.3       16.8460        1.4256       77.0811       78.5066      61.660604       0.35056
   1     891.5       16.9503        1.5509       73.2645       74.8154      57.865172       0.32297
   0    1013.0       17.2349        1.6893       68.9425       70.6317      53.396811       0.31026



 Wavenumbers: 12850. - 16000. cm-1, ATM      1
 LEVEL PRESSURE   UPWARD FLUX   DIFDOWN FLUX  DIRDOWN FLUX  DOWNWARD FLUX   NET FLUX    HEATING RATE
          mb          W/m2          W/m2          W/m2        W/m2          W/m2       degree/day
  51    .06700       26.7444        0.0000       63.1686       63.1686      36.424191       0.00000
  50    .07753       26.7444        0.0001       63.1677       63.1678      36.423413       0.62328
  49    .09103       26.7443        0.0001       63.1666       63.1668      36.422444       0.60547
  48    0.1069       26.7443        0.0002       63.1654       63.1656      36.421342       0.58683
  47    0.1255       26.7442        0.0003       63.1640       63.1643      36.420089       0.56808
  46    0.1487       26.7442        0.0004       63.1623       63.1627      36.418527       0.56923
  45    0.1794       26.7441        0.0006       63.1600       63.1605      36.416435       0.57441
  44    0.2165       26.7440        0.0007       63.1573       63.1580      36.414017       0.54989
  43    0.2613       26.7439        0.0010       63.1542       63.1552      36.411233       0.52494
  42    0.3336       26.7438        0.0013       63.1493       63.1506      36.406802       0.51653
  41    0.4307       26.7437        0.0018       63.1431       63.1449      36.401272       0.48080
  40    0.5894       26.7435        0.0026       63.1338       63.1364      36.392921       0.44410
  39     1.339       26.7436        0.0063       63.0956       63.1019      36.358244       0.39041
  38     1.782       26.7444        0.0084       63.0740       63.0825      36.338081       0.38387
  37     2.292       26.7460        0.0110       63.0477       63.0586      36.312655       0.42112
  36     2.964       26.7491        0.0143       63.0095       63.0238      36.274725       0.47613
  35     3.853       26.7546        0.0186       62.9533       62.9719      36.217292       0.54505
  34     5.035       26.7633        0.0244       62.8725       62.8969      36.133574       0.59805
  33     6.613       26.7757        0.0321       62.7621       62.7941      36.018441       0.61550
  32     8.786       26.7916        0.0424       62.6182       62.6607      35.869035       0.58024
  31     11.80       26.8116        0.0572       62.4284       62.4855      35.673900       0.54631
  30     15.07       26.8299        0.0730       62.2426       62.3156      35.485723       0.48584
  29     18.79       26.8476        0.0908       62.0493       62.1401      35.292546       0.43799
  28     23.16       26.8649        0.1116       61.8424       61.9540      35.089163       0.39328
  27     28.12       26.8807        0.1352       61.6278       61.7631      34.882360       0.35155
  26     33.73       26.8928        0.1617       61.4177       61.5794      34.686535       0.29443
  25     40.54       26.9010        0.1936       61.1983       61.3919      34.490898       0.24271
  24     48.69       26.9045        0.2319       60.9680       61.1999      34.295430       0.20228
  23     57.69       26.9023        0.2740       60.7478       61.0218      34.119567       0.16485
  22     68.43       26.8930        0.3241       60.5202       60.8443      33.951286       0.13229
  21     81.20       26.8729        0.3837       60.2938       60.6775      33.804605       0.09692
  20     96.49       26.8406        0.4546       60.0643       60.5189      33.678303       0.06971
  19     114.6       26.8029        0.5392       59.8078       60.3470      33.544140       0.06264
  18     136.5       26.7544        0.6393       59.5157       60.1551      33.400689       0.05516
  17     162.9       26.6931        0.7582       59.1770       59.9352      33.242137       0.05068
  16     196.4       26.6061        0.9118       58.7604       59.6723      33.066112       0.04431
  15     218.7       26.5464        1.0124       58.4948       59.5072      32.960844       0.03997
  14     243.0       26.4802        1.1215       58.2089       59.3304      32.850165       0.03839
  13     269.0       26.4075        1.2394       57.9006       59.1400      32.732449       0.03819
  12     297.5       26.3282        1.3664       57.5668       58.9332      32.605038       0.03779
  11     328.5       26.2427        1.5033       57.2005       58.7038      32.461084       0.03914
  10     361.9       26.1514        1.6501       56.7963       58.4465      32.295016       0.04202
   9     398.1       26.0547        1.8074       56.3475       58.1550      32.100300       0.04536
   8     437.6       25.9535        1.9755       55.8422       57.8177      31.864217       0.05048
   7     480.5       25.8500        2.1542       55.2625       57.4168      31.566756       0.05842
   6     533.0       25.7311        2.3721       54.4972       56.8693      31.138137       0.06895
   5     589.8       25.6136        2.6035       53.6307       56.2342      30.620578       0.07682
   4     651.6       25.5019        2.8476       52.6606       55.5082      30.006273       0.08401
   3     718.7       25.3980        3.1046       51.6100       54.7146      29.316648       0.08667
   2     792.3       25.3047        3.3743       50.5019       53.8761      28.571416       0.08547
   1     891.5       25.2151        3.7288       49.0197       52.7485      27.533444       0.08833
   0    1013.0       25.1808        4.1387       47.2289       51.3675      26.186761       0.09351



 Wavenumbers: 16000. - 22650. cm-1, ATM      1
 LEVEL PRESSURE   UPWARD FLUX   DIFDOWN FLUX  DIRDOWN FLUX  DOWNWARD FLUX   NET FLUX    HEATING RATE
          mb          W/m2          W/m2          W/m2        W/m2          W/m2       degree/day
  51    .06700       69.5321        0.0000      100.7153      100.7153      31.183233       0.00000
  50    .07753       69.5319        0.0003      100.7147      100.7151      31.183119       0.09161
  49    .09103       69.5318        0.0007      100.7140      100.7147      31.182953       0.10390
  48    0.1069       69.5316        0.0012      100.7131      100.7143      31.182730       0.11848
  47    0.1255       69.5314        0.0017      100.7121      100.7138      31.182432       0.13506
  46    0.1487       69.5312        0.0024      100.7108      100.7132      31.181993       0.16004
  45    0.1794       69.5309        0.0033      100.7089      100.7122      31.181307       0.18843
  44    0.2165       69.5306        0.0044      100.7066      100.7109      31.180376       0.21177
  43    0.2613       69.5302        0.0057      100.7037      100.7093      31.179113       0.23808
  42    0.3336       69.5298        0.0078      100.6987      100.7065      31.176711       0.27998
  41    0.4307       69.5293        0.0106      100.6918      100.7024      31.173092       0.31472
  40    0.5894       69.5288        0.0152      100.6797      100.6949      31.166189       0.36708
  39     1.339       69.5312        0.0369      100.6095      100.6464      31.115201       0.57403
  38     1.782       69.5364        0.0497      100.5585      100.6082      31.071779       0.82668
  37     2.292       69.5458        0.0645      100.4903      100.5547      31.008947       1.04066
  36     2.964       69.5634        0.0839      100.3868      100.4706      30.907210       1.27711
  35     3.853       69.5942        0.1095      100.2306      100.3401      30.745902       1.53083
  34     5.035       69.6423        0.1434      100.0045      100.1478      30.505525       1.71716
  33     6.613       69.7104        0.1886       99.6939       99.8824      30.172022       1.78291
  32     8.786       69.7984        0.2494       99.2881       99.5374      29.739015       1.68164
  31     11.80       69.9099        0.3360       98.7496       99.0856      29.175689       1.57713
  30     15.07       70.0130        0.4287       98.2198       98.6485      28.635550       1.39454
  29     18.79       70.1144        0.5330       97.6651       98.1982      28.083768       1.25106
  28     23.16       70.2156        0.6544       97.0671       97.7216      27.505988       1.11724
  27     28.12       70.3111        0.7927       96.4406       97.2333      26.922147       0.99249
  26     33.73       70.3891        0.9469       95.8179       96.7648      26.375740       0.82154
  25     40.54       70.4497        1.1326       95.1548       96.2874      25.837666       0.66754
  24     48.69       70.4904        1.3554       94.4420       95.7974      25.306991       0.54917
  23     57.69       70.5039        1.5992       93.7416       95.3408      24.836955       0.44059
  22     68.43       70.4863        1.8883       92.9954       94.8837      24.397369       0.34557
  21     81.20       70.4194        2.2313       92.2231       94.4545      24.035090       0.23939
  20     96.49       70.2972        2.6380       91.4110       94.0490      23.751836       0.15634
  19     114.6       70.1314        3.1175       90.5070       93.6245      23.493124       0.12080
  18     136.5       69.9215        3.6809       89.4803       93.1611      23.239652       0.09747
  17     162.9       69.6601        4.3448       88.3022       92.6470      22.986897       0.08079
  16     196.4       69.2953        5.1954       86.8606       92.0561      22.760731       0.05693
  15     218.7       69.0471        5.7478       85.9492       91.6970      22.649820       0.04211
  14     243.0       68.7743        6.3425       84.9789       91.3214      22.547167       0.03560
  13     269.0       68.4755        6.9805       83.9493       90.9297      22.454215       0.03015
  12     297.5       68.1503        7.6624       82.8589       90.5213      22.371072       0.02466
  11     328.5       67.7994        8.3906       81.6982       90.0888      22.289461       0.02219
  10     361.9       67.4228        9.1648       80.4669       89.6317      22.208874       0.02039
   9     398.1       67.0196        9.9866       79.1611       89.1478      22.128141       0.01881
   8     437.6       66.5900       10.8563       77.7777       88.6341      22.044067       0.01798
   7     480.5       66.1341       11.7741       76.3136       88.0878      21.953629       0.01776
   6     533.0       65.5802       12.8835       74.5359       87.4193      21.839125       0.01842
   5     589.8       64.9933       14.0545       72.6469       86.7014      21.708081       0.01945
   4     651.6       64.3753       15.2848       70.6456       85.9304      21.555134       0.02092
   3     718.7       63.7264       16.5722       68.5367       85.1089      21.382437       0.02170
   2     792.3       63.0493       17.9109       66.3287       84.2396      21.190287       0.02204
   1     891.5       62.1671       19.6536       63.4246       83.0782      20.911117       0.02376
   0    1013.0       61.1586       21.6490       60.0483       81.6973      20.538716       0.02586



 Wavenumbers: 22650. - 29000. cm-1, ATM      1
 LEVEL PRESSURE   UPWARD FLUX   DIFDOWN FLUX  DIRDOWN FLUX  DOWNWARD FLUX   NET FLUX    HEATING RATE
          mb          W/m2          W/m2          W/m2        W/m2          W/m2       degree/day
  51    .06700       32.6333        0.0000       38.0063       38.0063       5.373008       0.00000
  50    .07753       32.6331        0.0004       38.0057       38.0061       5.373008       0.00000
  49    .09103       32.6329        0.0009       38.0050       38.0059       5.373008       0.00000
  48    0.1069       32.6326        0.0014       38.0042       38.0057       5.373008       0.00000
  47    0.1255       32.6324        0.0020       38.0033       38.0054       5.373008       0.00000
  46    0.1487       32.6320        0.0028       38.0022       38.0050       5.373008      -0.00000
  45    0.1794       32.6315        0.0039       38.0006       38.0045       5.373008      -0.00000
  44    0.2165       32.6309        0.0052       37.9987       38.0039       5.373008       0.00000
  43    0.2613       32.6302        0.0067       37.9965       38.0032       5.373008       0.00000
  42    0.3336       32.6291        0.0093       37.9928       38.0021       5.373008      -0.00000
  41    0.4307       32.6276        0.0126       37.9880       38.0006       5.373008       0.00000
  40    0.5894       32.6251        0.0181       37.9800       37.9981       5.373008       0.00000
  39     1.339       32.6134        0.0439       37.9425       37.9864       5.373008       0.00000
  38     1.782       32.6065        0.0591       37.9204       37.9795       5.373008      -0.00000
  37     2.292       32.5986        0.0767       37.8949       37.9716       5.373008       0.00000
  36     2.964       32.5882        0.0997       37.8614       37.9612       5.373008      -0.00000
  35     3.853       32.5744        0.1302       37.8172       37.9474       5.373008       0.00000
  34     5.035       32.5561        0.1706       37.7586       37.9291       5.373008       0.00000
  33     6.613       32.5317        0.2244       37.6803       37.9047       5.373008       0.00000
  32     8.786       32.4989        0.2969       37.5750       37.8719       5.373008       0.00000
  31     11.80       32.4521        0.4002       37.4249       37.8251       5.373008       0.00000
  30     15.07       32.4019        0.5108       37.2642       37.7749       5.373008       0.00000
  29     18.79       32.3455        0.6352       37.0833       37.7185       5.373008      -0.00000
  28     23.16       32.2798        0.7798       36.8730       37.6528       5.373008       0.00000
  27     28.12       32.2050        0.9443       36.6338       37.5780       5.373008       0.00000
  26     33.73       32.1218        1.1271       36.3677       37.4948       5.373008       0.00000
  25     40.54       32.0219        1.3464       36.0486       37.3949       5.373008       0.00000
  24     48.69       31.9024        1.6082       35.6672       37.2754       5.373008      -0.00000
  23     57.69       31.7723        1.8926       35.2527       37.1453       5.373008      -0.00000
  22     68.43       31.6190        2.2271       34.7649       36.9920       5.373008       0.00000
  21     81.20       31.4387        2.6195       34.1922       36.8117       5.373008      -0.00000
  20     96.49       31.2272        3.0785       33.5217       36.6002       5.373008      -0.00000
  19     114.6       30.9806        3.6113       32.7424       36.3536       5.373008       0.00000
  18     136.5       30.6948        4.2262       31.8416       36.0678       5.373008      -0.00000
  17     162.9       30.3632        4.9354       30.8008       35.7362       5.373008       0.00000
  16     196.4       29.9469        5.8193       29.5007       35.3199       5.373008      -0.00000
  15     218.7       29.6818        6.3781       28.6767       35.0548       5.373008       0.00000
  14     243.0       29.4007        6.9670       27.8068       34.7737       5.373008       0.00000
  13     269.0       29.1042        7.5839       26.8933       34.4772       5.373008       0.00000
  12     297.5       28.7929        8.2266       25.9393       34.1659       5.373008      -0.00000
  11     328.5       28.4667        8.8946       24.9451       33.8397       5.373008       0.00000
  10     361.9       28.1267        9.5837       23.9160       33.4998       5.373008       0.00000
   9     398.1       27.7734       10.2923       22.8541       33.1465       5.373008       0.00000
   8     437.6       27.4079       11.0165       21.7645       32.7809       5.373008      -0.00000
   7     480.5       27.0313       11.7522       20.6521       32.4043       5.373008       0.00000
   6     533.0       26.5879       12.6040       19.3569       31.9609       5.373008       0.00000
   5     589.8       26.1332       13.4595       18.0467       31.5063       5.373008       0.00000
   4     651.6       25.6697       14.3111       16.7316       31.0427       5.373008      -0.00000
   3     718.7       25.1996       15.1512       15.4214       30.5726       5.373008       0.00000
   2     792.3       24.7258       15.9712       14.1276       30.0988       5.373008      -0.00000
   1     891.5       24.1307       16.9577       12.5459       29.5037       5.373008       0.00000
   0    1013.0       23.4763       17.9775       10.8717       28.8493       5.373008       0.00000



 Wavenumbers: 29000. - 38000. cm-1, ATM      1
 LEVEL PRESSURE   UPWARD FLUX   DIFDOWN FLUX  DIRDOWN FLUX  DOWNWARD FLUX   NET FLUX    HEATING RATE
          mb          W/m2          W/m2          W/m2        W/m2          W/m2       degree/day
  51    .06700        4.6745        0.0000       13.4026       13.4026       8.728109       0.00000
  50    .07753        4.6743        0.0003       13.3983       13.3986       8.724311       3.04419
  49    .09103        4.6740        0.0007       13.3921       13.3928       8.718792       3.44944
  48    0.1069        4.6737        0.0011       13.3840       13.3851       8.711416       3.92650
  47    0.1255        4.6733        0.0016       13.3733       13.3749       8.701572       4.46287
  46    0.1487        4.6729        0.0022       13.3579       13.3600       8.687130       5.26401
  45    0.1794        4.6723        0.0030       13.3340       13.3371       8.664732       6.14882
  44    0.2165        4.6716        0.0040       13.3024       13.3064       8.634716       6.82825
  43    0.2613        4.6709        0.0051       13.2604       13.2655       8.594664       7.54952
  42    0.3336        4.6696        0.0070       13.1833       13.1903       8.520664       8.62771
  41    0.4307        4.6681        0.0094       13.0729       13.0824       8.414301       9.24798
  40    0.5894        4.6656        0.0133       12.8796       12.8929       8.227277       9.94573
  39     1.339        4.6569        0.0295       11.9165       11.9460       7.289079      10.56240
  38     1.782        4.6534        0.0377       11.4399       11.4777       6.824217       8.85022
  37     2.292        4.6507        0.0466       10.9796       11.0262       6.375453       7.43270
  36     2.964        4.6489        0.0574       10.4786       10.5360       5.887088       6.13046
  35     3.853        4.6490        0.0708        9.9429       10.0137       5.364642       4.95811
  34     5.035        4.6516        0.0874        9.4007        9.4881       4.836512       3.77275
  33     6.613        4.6568        0.1086        8.8752        8.9838       4.326945       2.72415
  32     8.786        4.6641        0.1358        8.3786        8.5144       3.850278       1.85120
  31     11.80        4.6728        0.1732        7.8897        8.0628       3.390012       1.28860
  30     15.07        4.6801        0.2117        7.5108        7.7225       3.042444       0.89735
  29     18.79        4.6866        0.2537        7.1776        7.4313       2.744760       0.67494
  28     23.16        4.6921        0.3010        6.8664        7.1674       2.475282       0.52108
  27     28.12        4.6960        0.3532        6.5780        6.9312       2.235195       0.40813
  26     33.73        4.6960        0.4101        6.3195        6.7295       2.033570       0.30315
  25     40.54        4.6906        0.4771        6.0663        6.5434       1.852776       0.22429
  24     48.69        4.6793        0.5556        5.8128        6.3685       1.689128       0.16935
  23     57.69        4.6624        0.6394        5.5777        6.2171       1.554691       0.12602
  22     68.43        4.6373        0.7362        5.3379        6.0741       1.436876       0.09262
  21     81.20        4.5998        0.8486        5.0965        5.9451       1.345257       0.06054
  20     96.49        4.5487        0.9782        4.8476        5.8258       1.277093       0.03762
  19     114.6        4.4870        1.1249        4.5799        5.7048       1.217815       0.02768
  18     136.5        4.4154        1.2887        4.2891        5.5778       1.162316       0.02134
  17     162.9        4.3336        1.4699        3.9732        5.4431       1.109477       0.01689
  16     196.4        4.2302        1.6865        3.6080        5.2946       1.064381       0.01135
  15     218.7        4.1649        1.8181        3.3898        5.2079       1.042944       0.00814
  14     243.0        4.0969        1.9519        3.1686        5.1205       1.023522       0.00674
  13     269.0        4.0265        2.0868        2.9461        5.0329       1.006415       0.00555
  12     297.5        3.9540        2.2217        2.7239        4.9456       0.991636       0.00438
  11     328.5        3.8802        2.3551        2.5029        4.8580       0.977777       0.00377
  10     361.9        3.8056        2.4858        2.2846        4.7704       0.964857       0.00327
   9     398.1        3.7304        2.6125        2.0708        4.6833       0.952870       0.00279
   8     437.6        3.6552        2.7341        1.8626        4.5967       0.941558       0.00242
   7     480.5        3.5803        2.8492        1.6621        4.5113       0.931043       0.00207
   6     533.0        3.4953        2.9715        1.4437        4.4152       0.919835       0.00180
   5     589.8        3.4118        3.0821        1.2390        4.3211       0.909239       0.00157
   4     651.6        3.3303        3.1794        1.0500        4.2294       0.899109       0.00139
   3     718.7        3.2509        3.2625        0.8778        4.1403       0.889412       0.00122
   2     792.3        3.1740        3.3304        0.7237        4.0541       0.880128       0.00106
   1     891.5        3.0809        3.3935        0.5563        3.9498       0.868946       0.00095
   0    1013.0        2.9821        3.4351        0.4039        3.8390       0.856941       0.00083



 Wavenumbers: 38000. - 50000. cm-1, ATM      1
 LEVEL PRESSURE   UPWARD FLUX   DIFDOWN FLUX  DIRDOWN FLUX  DOWNWARD FLUX   NET FLUX    HEATING RATE
          mb          W/m2          W/m2          W/m2        W/m2          W/m2       degree/day
  51    .06700        0.0051        0.0000        0.8267        0.8267       0.821528       0.00000
  50    .07753        0.0051        0.0001        0.8242        0.8243       0.819196       1.86936
  49    .09103        0.0050        0.0002        0.8207        0.8209       0.815872       2.07705
  48    0.1069        0.0049        0.0002        0.8162        0.8164       0.811514       2.31984
  47    0.1255        0.0048        0.0004        0.8103        0.8106       0.805801       2.59006
  46    0.1487        0.0047        0.0005        0.8018        0.8023       0.797567       3.00143
  45    0.1794        0.0045        0.0007        0.7889        0.7896       0.785013       3.44648
  44    0.2165        0.0044        0.0009        0.7720        0.7729       0.768507       3.75474
  43    0.2613        0.0042        0.0011        0.7500        0.7511       0.746955       4.06246
  42    0.3336        0.0039        0.0015        0.7106        0.7121       0.708267       4.51071
  41    0.4307        0.0035        0.0019        0.6566        0.6584       0.654972       4.63387
  40    0.5894        0.0029        0.0024        0.5680        0.5704       0.567464       4.65357
  39     1.339        0.0015        0.0030        0.2422        0.2452       0.243720       3.64476
  38     1.782        0.0010        0.0026        0.1493        0.1519       0.150889       1.76735
  37     2.292        0.0007        0.0022        0.0924        0.0946       0.093932       0.94336
  36     2.964        0.0005        0.0018        0.0539        0.0557       0.055224       0.48589
  35     3.853        0.0003        0.0013        0.0295        0.0308       0.030502       0.23462
  34     5.035        0.0002        0.0010        0.0154        0.0164       0.016181       0.10230
  33     6.613        0.0001        0.0007        0.0073        0.0080       0.007912       0.04420
  32     8.786        0.0000        0.0004        0.0030        0.0034       0.003390       0.01756
  31     11.80        0.0000        0.0003        0.0010        0.0012       0.001199       0.00613
  30     15.07        0.0000        0.0001        0.0003        0.0005       0.000463       0.00190
  29     18.79        0.0000        0.0001        0.0001        0.0002       0.000182       0.00064
  28     23.16        0.0000        0.0000        0.0000        0.0001       0.000071       0.00022
  27     28.12        0.0000        0.0000        0.0000        0.0000       0.000028       0.00007
  26     33.73        0.0000        0.0000        0.0000        0.0000       0.000011       0.00002
  25     40.54        0.0000        0.0000        0.0000        0.0000       0.000005       0.00001
  24     48.69        0.0000        0.0000        0.0000        0.0000       0.000002       0.00000
  23     57.69        0.0000        0.0000        0.0000        0.0000       0.000001       0.00000
  22     68.43        0.0000        0.0000        0.0000        0.0000       0.000000       0.00000
  21     81.20        0.0000        0.0000        0.0000        0.0000       0.000000       0.00000
  20     96.49        0.0000        0.0000        0.0000        0.0000       0.000000       0.00000
  19     114.6        0.0000        0.0000        0.0000        0.0000       0.000000       0.00000
  18     136.5        0.0000        0.0000        0.0000        0.0000       0.000000       0.00000
  17     162.9        0.0000        0.0000        0.0000        0.0000       0.000000       0.00000
  16     196.4        0.0000        0.0000        0.0000        0.0000       0.000000       0.00000
  15     218.7        0.0000        0.0000        0.0000        0.0000       0.000000       0.00000
  14     243.0        0.0000        0.0000        0.0000        0.0000       0.000000       0.00000
  13     269.0        0.0000        0.0000        0.0000        0.0000       0.000000       0.00000
  12     297.5        0.0000        0.0000        0.0000        0.0000       0.000000       0.00000
  11     328.5        0.0000        0.0000        0.0000        0.0000       0.000000       0.00000
  10     361.9        0.0000        0.0000        0.0000        0.0000       0.000000       0.00000
   9     398.1        0.0000        0.0000        0.0000        0.0000       0.000000       0.00000
   8     437.6        0.0000        0.0000        0.0000        0.0000       0.000000       0.00000
   7     480.5        0.0000        0.0000        0.0000        0.0000       0.000000       0.00000
   6     533.0        0.0000        0.0000        0.0000        0.0000       0.000000       0.00000
   5     589.8        0.0000        0.0000        0.0000        0.0000       0.000000       0.00000
   4     651.6        0.0000        0.0000        0.0000        0.0000       0.000000       0.00000
   3     718.7        0.0000        0.0000        0.0000        0.0000       0.000000       0.00000
   2     792.3        0.0000        0.0000        0.0000        0.0000       0.000000       0.00000
   1     891.5        0.0000        0.0000        0.0000        0.0000       0.000000       0.00000
   0    1013.0        0.0000        0.0000        0.0000        0.0000       0.000000       0.00000



 Wavenumbers:   820. -  2600. cm-1, ATM      1
 LEVEL PRESSURE   UPWARD FLUX   DIFDOWN FLUX  DIRDOWN FLUX  DOWNWARD FLUX   NET FLUX    HEATING RATE
          mb          W/m2          W/m2          W/m2        W/m2          W/m2       degree/day
  51    .06700        0.1274        0.0000        3.8670        3.8670       3.739658       0.00000
  50    .07753        0.1274        0.0000        3.8643        3.8643       3.736941       2.17769
  49    .09103        0.1274        0.0000        3.8635        3.8635       3.736131       0.50638
  48    0.1069        0.1274        0.0000        3.8626        3.8626       3.735240       0.47415
  47    0.1255        0.1274        0.0000        3.8616        3.8616       3.734279       0.43559
  46    0.1487        0.1274        0.0000        3.8605        3.8605       3.733170       0.40437
  45    0.1794        0.1274        0.0000        3.8592        3.8592       3.731835       0.36647
  44    0.2165        0.1274        0.0000        3.8578        3.8578       3.730457       0.31346
  43    0.2613        0.1274        0.0000        3.8564        3.8564       3.728997       0.27522
  42    0.3336        0.1274        0.0000        3.8541        3.8541       3.726766       0.26012
  41    0.4307        0.1274        0.0000        3.8512        3.8512       3.723883       0.25063
  40    0.5894        0.1274        0.0000        3.8465        3.8465       3.719157       0.25133
  39     1.339        0.1274        0.0000        3.8251        3.8251       3.697782       0.24064
  38     1.782        0.1274        0.0000        3.8133        3.8133       3.685969       0.22489
  37     2.292        0.1274        0.0000        3.8003        3.8003       3.672908       0.21632
  36     2.964        0.1274        0.0000        3.7841        3.7841       3.656780       0.20246
  35     3.853        0.1274        0.0000        3.7642        3.7642       3.636865       0.18899
  34     5.035        0.1274        0.0000        3.7395        3.7395       3.612175       0.17638
  33     6.613        0.1274        0.0000        3.7090        3.7090       3.581640       0.16324
  32     8.786        0.1274        0.0000        3.6726        3.6726       3.545247       0.14133
  31     11.80        0.1274        0.0000        3.6320        3.6320       3.504654       0.11365
  30     15.07        0.1274        0.0000        3.6016        3.6016       3.474271       0.07844
  29     18.79        0.1274        0.0000        3.5777        3.5777       3.450374       0.05418
  28     23.16        0.1274        0.0000        3.5564        3.5564       3.429022       0.04129
  27     28.12        0.1274        0.0000        3.5348        3.5348       3.407477       0.03662
  26     33.73        0.1274        0.0000        3.5118        3.5118       3.384446       0.03463
  25     40.54        0.1274        0.0000        3.4849        3.4849       3.357560       0.03335
  24     48.69        0.1274        0.0000        3.4537        3.4537       3.326311       0.03234
  23     57.69        0.1274        0.0000        3.4210        3.4210       3.293640       0.03062
  22     68.43        0.1274        0.0000        3.3844        3.3844       3.257057       0.02876
  21     81.20        0.1274        0.0000        3.3441        3.3441       3.216761       0.02663
  20     96.49        0.1274        0.0000        3.2998        3.2998       3.172400       0.02448
  19     114.6        0.1274        0.0000        3.2506        3.2506       3.123255       0.02295
  18     136.5        0.1274        0.0000        3.1936        3.1936       3.066209       0.02194
  17     162.9        0.1274        0.0000        3.1181        3.1181       2.990711       0.02413
  16     196.4        0.1274        0.0000        3.0090        3.0090       2.881530       0.02748
  15     218.7        0.1275        0.0000        2.9420        2.9420       2.814531       0.02544
  14     243.0        0.1275        0.0000        2.8605        2.8605       2.732975       0.02829
  13     269.0        0.1276        0.0000        2.7419        2.7420       2.614404       0.03846
  12     297.5        0.1277        0.0000        2.5729        2.5729       2.445213       0.05018
  11     328.5        0.1279        0.0000        2.3602        2.3602       2.232345       0.05788
  10     361.9        0.1281        0.0000        2.1524        2.1524       2.024300       0.05264
   9     398.1        0.1285        0.0000        1.9974        1.9974       1.868887       0.03621
   8     437.6        0.1291        0.0000        1.8835        1.8835       1.754396       0.02448
   7     480.5        0.1300        0.0000        1.7734        1.7734       1.643466       0.02179
   6     533.0        0.1314        0.0000        1.6397        1.6398       1.508355       0.02174
   5     589.8        0.1335        0.0000        1.5068        1.5069       1.373375       0.02004
   4     651.6        0.1366        0.0000        1.3807        1.3807       1.244160       0.01767
   3     718.7        0.1407        0.0000        1.2680        1.2680       1.127377       0.01468
   2     792.3        0.1457        0.0000        1.1659        1.1660       1.020264       0.01228
   1     891.5        0.1542        0.0000        1.0372        1.0373       0.883066       0.01167
   0    1013.0        0.1696        0.0000        0.8716        0.8717       0.702049       0.01257

  Modules and versions used in this calculation:

       rrtmg_sw.1col.f90:  $Revision$                    rrtmg_sw_init.f90:  $Revision$        
     rrtmgsw_cldprop.f90:  $Revision$                  rrtmgsw_cldprmc.f90:  NOT USED          
     rrtmg_sw_reftra.f90:  $Revision$                  rrtmg_sw_spcvrt.f90:  NOT USED          
     rrtmg_sw_spcvmc.f90:  NOT USED                    rrtmgsw_setcoef.f90:  NOT USED          
     rrtmg_sw_taumol.f90:  $Revision$                  rrtmg_sw_vrtqdr.f90:  NOT USED          
                rrtatm.f:  NOT USED                             util_xxx.f:  NOT USED          
                 extra.f:  NOT USED                       rrtmg_sw_k_g.f90:  $Revision$        

