

 Wavenumbers:   820. - 50000. cm-1, ATM      1
 LEVEL PRESSURE   UPWARD FLUX   DIFDOWN FLUX  DIRDOWN FLUX  DOWNWARD FLUX   NET FLUX    HEATING RATE
          mb          W/m2          W/m2          W/m2        W/m2          W/m2       degree/day
  51    .06700      149.9083        0.0000      397.8738      397.8738     247.965473       0.00000
  50    .07753      149.9076        0.0011      397.8577      397.8588     247.951198      11.44214
  49    .09103      149.9068        0.0025      397.8418      397.8444     247.937531       8.54176
  48    0.1069      149.9059        0.0041      397.8230      397.8271     247.921213       8.68643
  47    0.1255      149.9049        0.0060      397.7997      397.8057     247.900809       9.25007
  46    0.1487      149.9036        0.0083      397.7676      397.7760     247.872409      10.35231
  45    0.1794      149.9018        0.0115      397.7205      397.7320     247.830205      11.58587
  44    0.2165      149.8999        0.0153      397.6602      397.6755     247.775676      12.40434
  43    0.2613      149.8976        0.0197      397.5829      397.6026     247.705041      13.31448
  42    0.3336      149.8940        0.0270      397.4449      397.4719     247.577908      14.82241
  41    0.4307      149.8895        0.0366      397.2524      397.2890     247.399500      15.51221
  40    0.5894      149.8826        0.0519      396.9253      396.9772     247.094659      16.21106
  39     1.339      149.8594        0.1204      395.4254      395.5458     245.686348      15.85502
  38     1.782      149.8520        0.1587      394.7288      394.8875     245.035539      12.39036
  37     2.292      149.8486        0.2023      394.0572      394.2594     244.410807      10.34719
  36     2.964      149.8521        0.2588      393.3007      393.5595     243.707371       8.83025
  35     3.853      149.8676        0.3327      392.4318      392.7645     242.896888       7.69164
  34     5.035      149.8988        0.4298      391.4441      391.8738     241.974992       6.58564
  33     6.613      149.9467        0.5584      390.3268      390.8851     240.938424       5.54150
  32     8.786      150.0072        0.7302      389.0624      389.7926     239.785407       4.47790
  31     11.80      150.0764        0.9741      387.5500      388.5241     238.447636       3.74534
  30     15.07      150.1303        1.2336      386.1556      387.3892     237.258972       3.06890
  29     18.79      150.1728        1.5244      384.7502      386.2745     236.101680       2.62394
  28     23.16      150.2016        1.8610      383.2686      385.1296     234.927988       2.26954
  27     28.12      150.2100        2.2426      381.7329      383.9755     233.765491       1.97617
  26     33.73      150.1833        2.6664      380.1982      382.8645     232.681252       1.63018
  25     40.54      150.1091        3.1742      378.5384      381.7126     231.603493       1.33708
  24     48.69      149.9798        3.7807      376.7214      380.5021     230.522274       1.11889
  23     57.69      149.7997        4.4400      374.8959      379.3359     229.536197       0.92430
  22     68.43      149.5446        5.2168      372.8999      378.1167     228.572132       0.75788
  21     81.20      149.1844        6.1316      370.7496      376.8812     227.696773       0.57842
  20     96.49      148.7050        7.2066      368.4056      375.6122     226.907209       0.43578
  19     114.6      148.1211        8.4607      365.7513      374.2120     226.090893       0.38116
  18     136.5      147.4209        9.9151      362.7231      372.6382     225.217237       0.33594
  17     162.9      146.5856       11.6028      359.1748      370.7776     224.191976       0.32771
  16     196.4      145.4879       13.7261      354.5718      368.2979     222.809996       0.34786
  15     218.7      144.7676       15.0813      351.4437      366.5250     221.757409       0.39963
  14     243.0      143.9911       16.5203      347.7111      364.2315     220.240414       0.52614
  13     269.0      143.1580       18.0408      342.9441      360.9849     217.826967       0.78291
  12     297.5      142.2689       19.6401      337.4137      357.0538     214.784927       0.90224
  11     328.5      141.3256       21.3189      331.1302      352.4492     211.123597       0.99551
  10     361.9      140.3310       23.0714      324.1219      347.1933     206.862350       1.07814
   9     398.1      139.2857       24.8961      316.6066      341.5026     202.216960       1.08227
   8     437.6      138.1945       26.7876      308.5895      335.3771     197.182604       1.07638
   7     480.5      137.0651       28.7394      299.9349      328.6743     191.609216       1.09459
   6     533.0      135.7340       31.0412      289.7021      320.7434     185.009324       1.06171
   5     589.8      134.3749       33.4048      279.3388      312.7436     178.368627       0.98570
   4     651.6      133.0094       35.8168      268.7786      304.5954     171.586001       0.92754
   3     718.7      131.6492       38.2668      258.2837      296.5505     164.901244       0.84009
   2     792.3      130.3093       40.7397      248.0774      288.8171     158.507819       0.73325
   1     891.5      128.7158       43.8466      235.5216      279.3682     150.652433       0.66846
   0    1013.0      127.2495       47.2491      221.4731      268.7222     141.472688       0.63740



 Wavenumbers:  2600. -  3250. cm-1, ATM      1
 LEVEL PRESSURE   UPWARD FLUX   DIFDOWN FLUX  DIRDOWN FLUX  DOWNWARD FLUX   NET FLUX    HEATING RATE
          mb          W/m2          W/m2          W/m2        W/m2          W/m2       degree/day
  51    .06700        0.2207        0.0000        3.5066        3.5066       3.285959       0.00000
  50    .07753        0.2207        0.0000        3.5066        3.5066       3.285951       0.00640
  49    .09103        0.2207        0.0000        3.5066        3.5066       3.285941       0.00627
  48    0.1069        0.2207        0.0000        3.5066        3.5066       3.285929       0.00613
  47    0.1255        0.2207        0.0000        3.5066        3.5066       3.285916       0.00599
  46    0.1487        0.2207        0.0000        3.5066        3.5066       3.285899       0.00607
  45    0.1794        0.2207        0.0000        3.5065        3.5065       3.285877       0.00624
  44    0.2165        0.2207        0.0000        3.5065        3.5065       3.285850       0.00611
  43    0.2613        0.2207        0.0000        3.5065        3.5065       3.285818       0.00598
  42    0.3336        0.2207        0.0000        3.5064        3.5064       3.285765       0.00615
  41    0.4307        0.2207        0.0000        3.5064        3.5064       3.285694       0.00618
  40    0.5894        0.2207        0.0000        3.5062        3.5062       3.285575       0.00633
  39     1.339        0.2207        0.0000        3.5055        3.5055       3.284876       0.00787
  38     1.782        0.2207        0.0000        3.5050        3.5050       3.284345       0.01011
  37     2.292        0.2207        0.0000        3.5043        3.5043       3.283653       0.01147
  36     2.964        0.2207        0.0000        3.5033        3.5033       3.282662       0.01245
  35     3.853        0.2207        0.0000        3.5019        3.5019       3.281285       0.01307
  34     5.035        0.2207        0.0000        3.5001        3.5001       3.279424       0.01329
  33     6.613        0.2207        0.0000        3.4977        3.4977       3.277014       0.01288
  32     8.786        0.2207        0.0000        3.4947        3.4947       3.274043       0.01154
  31     11.80        0.2207        0.0000        3.4911        3.4911       3.270408       0.01018
  30     15.07        0.2207        0.0000        3.4878        3.4878       3.267187       0.00832
  29     18.79        0.2207        0.0000        3.4848        3.4848       3.264124       0.00695
  28     23.16        0.2207        0.0000        3.4816        3.4816       3.260904       0.00623
  27     28.12        0.2207        0.0000        3.4779        3.4779       3.257286       0.00615
  26     33.73        0.2207        0.0000        3.4735        3.4735       3.252820       0.00671
  25     40.54        0.2207        0.0000        3.4671        3.4671       3.246494       0.00785
  24     48.69        0.2207        0.0000        3.4582        3.4583       3.237600       0.00920
  23     57.69        0.2207        0.0000        3.4472        3.4472       3.226553       0.01036
  22     68.43        0.2207        0.0000        3.4329        3.4329       3.212294       0.01121
  21     81.20        0.2207        0.0000        3.4152        3.4152       3.194567       0.01171
  20     96.49        0.2207        0.0000        3.3940        3.3941       3.173425       0.01167
  19     114.6        0.2207        0.0000        3.3692        3.3692       3.148538       0.01162
  18     136.5        0.2207        0.0001        3.3419        3.3420       3.121324       0.01046
  17     162.9        0.2207        0.0001        3.3129        3.3129       3.092254       0.00929
  16     196.4        0.2207        0.0001        3.2793        3.2794       3.058689       0.00845
  15     218.7        0.2208        0.0001        3.2578        3.2578       3.037079       0.00820
  14     243.0        0.2208        0.0001        3.2320        3.2320       3.011217       0.00897
  13     269.0        0.2209        0.0001        3.1968        3.1969       2.975984       0.01143
  12     297.5        0.2211        0.0001        3.1489        3.1490       2.927925       0.01425
  11     328.5        0.2214        0.0001        3.0821        3.0822       2.860776       0.01826
  10     361.9        0.2218        0.0001        2.9902        2.9904       2.768562       0.02333
   9     398.1        0.2224        0.0001        2.8715        2.8716       2.649254       0.02780
   8     437.6        0.2232        0.0001        2.7276        2.7278       2.504620       0.03092
   7     480.5        0.2244        0.0001        2.5595        2.5597       2.335310       0.03325
   6     533.0        0.2263        0.0001        2.3617        2.3619       2.135577       0.03213
   5     589.8        0.2291        0.0002        2.1649        2.1651       1.935946       0.02963
   4     651.6        0.2332        0.0002        1.9608        1.9609       1.727725       0.02847
   3     718.7        0.2387        0.0002        1.7593        1.7595       1.520753       0.02601
   2     792.3        0.2460        0.0002        1.5761        1.5762       1.330260       0.02185
   1     891.5        0.2584        0.0002        1.3714        1.3716       1.113219       0.01847
   0    1013.0        0.2808        0.0002        1.1584        1.1586       0.877742       0.01635



 Wavenumbers:  3250. -  4000. cm-1, ATM      1
 LEVEL PRESSURE   UPWARD FLUX   DIFDOWN FLUX  DIRDOWN FLUX  DOWNWARD FLUX   NET FLUX    HEATING RATE
          mb          W/m2          W/m2          W/m2        W/m2          W/m2       degree/day
  51    .06700        0.0004        0.0000        5.9117        5.9117       5.911238       0.00000
  50    .07753        0.0004        0.0000        5.9075        5.9075       5.907048       3.35808
  49    .09103        0.0004        0.0000        5.9050        5.9050       5.904606       1.52677
  48    0.1069        0.0004        0.0000        5.9032        5.9032       5.902739       0.99346
  47    0.1255        0.0004        0.0000        5.9014        5.9014       5.900981       0.79708
  46    0.1487        0.0004        0.0000        5.8995        5.8995       5.899092       0.68848
  45    0.1794        0.0004        0.0000        5.8974        5.8974       5.896944       0.58983
  44    0.2165        0.0004        0.0000        5.8952        5.8952       5.894827       0.48155
  43    0.2613        0.0004        0.0000        5.8931        5.8931       5.892668       0.40696
  42    0.3336        0.0004        0.0000        5.8899        5.8899       5.889510       0.36820
  41    0.4307        0.0004        0.0000        5.8861        5.8861       5.885673       0.33365
  40    0.5894        0.0004        0.0000        5.8803        5.8803       5.879870       0.30857
  39     1.339        0.0004        0.0000        5.8597        5.8597       5.859272       0.23189
  38     1.782        0.0004        0.0000        5.8513        5.8513       5.850848       0.16039
  37     2.292        0.0004        0.0000        5.8431        5.8431       5.842677       0.13533
  36     2.964        0.0004        0.0000        5.8334        5.8334       5.833037       0.12100
  35     3.853        0.0004        0.0000        5.8213        5.8213       5.820862       0.11555
  34     5.035        0.0004        0.0000        5.8052        5.8052       5.804766       0.11498
  33     6.613        0.0004        0.0000        5.7833        5.7834       5.782945       0.11666
  32     8.786        0.0004        0.0000        5.7531        5.7531       5.752744       0.11729
  31     11.80        0.0004        0.0000        5.7090        5.7090       5.708575       0.12366
  30     15.07        0.0004        0.0000        5.6615        5.6615       5.661110       0.12254
  29     18.79        0.0004        0.0000        5.6093        5.6094       5.608975       0.11821
  28     23.16        0.0004        0.0000        5.5524        5.5524       5.552049       0.11008
  27     28.12        0.0004        0.0000        5.4935        5.4935       5.493170       0.10009
  26     33.73        0.0004        0.0000        5.4348        5.4349       5.434481       0.08824
  25     40.54        0.0004        0.0001        5.3707        5.3708       5.370420       0.07948
  24     48.69        0.0004        0.0001        5.2985        5.2985       5.298186       0.07475
  23     57.69        0.0003        0.0001        5.2215        5.2216       5.221248       0.07212
  22     68.43        0.0003        0.0001        5.1318        5.1319       5.131587       0.07048
  21     81.20        0.0003        0.0001        5.0284        5.0285       5.028158       0.06834
  20     96.49        0.0003        0.0001        4.9122        4.9123       4.912024       0.06410
  19     114.6        0.0003        0.0001        4.7780        4.7782       4.777913       0.06262
  18     136.5        0.0002        0.0002        4.6285        4.6287       4.628435       0.05748
  17     162.9        0.0002        0.0002        4.4406        4.4407       4.440522       0.06006
  16     196.4        0.0002        0.0002        4.1548        4.1550       4.154849       0.07191
  15     218.7        0.0002        0.0002        3.9564        3.9566       3.956468       0.07532
  14     243.0        0.0001        0.0002        3.7055        3.7058       3.705633       0.08700
  13     269.0        0.0001        0.0002        3.3399        3.3401       3.339995       0.11861
  12     297.5        0.0001        0.0002        2.8954        2.8956       2.895505       0.13183
  11     328.5        0.0001        0.0002        2.4388        2.4390       2.438964       0.12413
  10     361.9        0.0001        0.0002        2.0269        2.0271       2.027026       0.10422
   9     398.1        0.0001        0.0002        1.6753        1.6755       1.675438       0.08191
   8     437.6        0.0000        0.0002        1.3592        1.3594       1.359320       0.06759
   7     480.5        0.0000        0.0002        1.0616        1.0618       1.061737       0.05844
   6     533.0        0.0000        0.0001        0.7543        0.7544       0.754404       0.04944
   5     589.8        0.0000        0.0001        0.4951        0.4952       0.495213       0.03847
   4     651.6        0.0000        0.0001        0.2943        0.2943       0.294320       0.02747
   3     718.7        0.0000        0.0001        0.1528        0.1529       0.152831       0.01778
   2     792.3        0.0000        0.0000        0.0658        0.0658       0.065809       0.00998
   1     891.5        0.0001        0.0000        0.0157        0.0157       0.015590       0.00427
   0    1013.0        0.0003        0.0000        0.0013        0.0013       0.001019       0.00101



 Wavenumbers:  4000. -  4650. cm-1, ATM      1
 LEVEL PRESSURE   UPWARD FLUX   DIFDOWN FLUX  DIRDOWN FLUX  DOWNWARD FLUX   NET FLUX    HEATING RATE
          mb          W/m2          W/m2          W/m2        W/m2          W/m2       degree/day
  51    .06700        0.9474        0.0000        6.9421        6.9421       5.994635       0.00000
  50    .07753        0.9474        0.0000        6.9421        6.9421       5.994634       0.00079
  49    .09103        0.9474        0.0000        6.9421        6.9421       5.994633       0.00078
  48    0.1069        0.9474        0.0000        6.9421        6.9421       5.994632       0.00076
  47    0.1255        0.9474        0.0000        6.9421        6.9421       5.994630       0.00074
  46    0.1487        0.9474        0.0000        6.9421        6.9421       5.994628       0.00075
  45    0.1794        0.9474        0.0000        6.9421        6.9421       5.994625       0.00077
  44    0.2165        0.9474        0.0000        6.9421        6.9421       5.994622       0.00076
  43    0.2613        0.9474        0.0000        6.9420        6.9420       5.994618       0.00074
  42    0.3336        0.9474        0.0000        6.9420        6.9420       5.994611       0.00076
  41    0.4307        0.9474        0.0000        6.9420        6.9420       5.994603       0.00077
  40    0.5894        0.9474        0.0000        6.9420        6.9420       5.994588       0.00079
  39     1.339        0.9474        0.0000        6.9419        6.9419       5.994499       0.00100
  38     1.782        0.9474        0.0000        6.9418        6.9419       5.994429       0.00132
  37     2.292        0.9474        0.0000        6.9418        6.9418       5.994336       0.00155
  36     2.964        0.9474        0.0000        6.9416        6.9416       5.994197       0.00175
  35     3.853        0.9474        0.0000        6.9414        6.9414       5.993990       0.00196
  34     5.035        0.9474        0.0000        6.9411        6.9411       5.993686       0.00218
  33     6.613        0.9474        0.0000        6.9406        6.9406       5.993238       0.00239
  32     8.786        0.9474        0.0000        6.9399        6.9400       5.992578       0.00256
  31     11.80        0.9474        0.0000        6.9389        6.9389       5.991544       0.00290
  30     15.07        0.9474        0.0001        6.9377        6.9377       5.990334       0.00312
  29     18.79        0.9474        0.0001        6.9362        6.9362       5.988877       0.00330
  28     23.16        0.9474        0.0001        6.9343        6.9344       5.987074       0.00349
  27     28.12        0.9473        0.0001        6.9321        6.9322       5.984902       0.00369
  26     33.73        0.9473        0.0001        6.9294        6.9296       5.982238       0.00401
  25     40.54        0.9473        0.0002        6.9258        6.9260       5.978646       0.00446
  24     48.69        0.9473        0.0002        6.9210        6.9212       5.973893       0.00492
  23     57.69        0.9473        0.0002        6.9154        6.9156       5.968302       0.00524
  22     68.43        0.9472        0.0003        6.9083        6.9086       5.961354       0.00546
  21     81.20        0.9472        0.0003        6.8998        6.9001       5.952862       0.00561
  20     96.49        0.9472        0.0004        6.8894        6.8898       5.942610       0.00566
  19     114.6        0.9472        0.0004        6.8765        6.8770       5.929783       0.00599
  18     136.5        0.9472        0.0005        6.8610        6.8615       5.914321       0.00595
  17     162.9        0.9472        0.0006        6.8417        6.8423       5.895103       0.00614
  16     196.4        0.9472        0.0007        6.8147        6.8154       5.868173       0.00678
  15     218.7        0.9473        0.0008        6.7948        6.7956       5.848357       0.00752
  14     243.0        0.9474        0.0009        6.7698        6.7707       5.823247       0.00871
  13     269.0        0.9477        0.0010        6.7349        6.7358       5.788158       0.01138
  12     297.5        0.9481        0.0011        6.6869        6.6879       5.739844       0.01433
  11     328.5        0.9487        0.0012        6.6194        6.6205       5.671844       0.01849
  10     361.9        0.9495        0.0013        6.5295        6.5307       5.581212       0.02293
   9     398.1        0.9506        0.0014        6.4202        6.4216       5.470973       0.02568
   8     437.6        0.9521        0.0015        6.2962        6.2977       5.345581       0.02681
   7     480.5        0.9541        0.0016        6.1555        6.1571       5.203020       0.02800
   6     533.0        0.9573        0.0018        5.9675        5.9693       5.011975       0.03073
   5     589.8        0.9620        0.0019        5.7368        5.7387       4.776668       0.03493
   4     651.6        0.9688        0.0020        5.4662        5.4683       4.499504       0.03790
   3     718.7        0.9780        0.0021        5.1912        5.1933       4.215332       0.03571
   2     792.3        0.9899        0.0023        4.9395        4.9418       3.951807       0.03022
   1     891.5        1.0104        0.0024        4.6486        4.6511       3.640662       0.02648
   0    1013.0        1.0471        0.0026        4.3179        4.3205       3.273404       0.02550



 Wavenumbers:  4650. -  5150. cm-1, ATM      1
 LEVEL PRESSURE   UPWARD FLUX   DIFDOWN FLUX  DIRDOWN FLUX  DOWNWARD FLUX   NET FLUX    HEATING RATE
          mb          W/m2          W/m2          W/m2        W/m2          W/m2       degree/day
  51    .06700        0.6405        0.0000        6.5710        6.5710       5.930537       0.00000
  50    .07753        0.6405        0.0000        6.5708        6.5708       5.930302       0.18887
  49    .09103        0.6405        0.0000        6.5705        6.5705       5.930008       0.18362
  48    0.1069        0.6405        0.0000        6.5701        6.5701       5.929673       0.17806
  47    0.1255        0.6405        0.0000        6.5697        6.5697       5.929293       0.17238
  46    0.1487        0.6405        0.0000        6.5693        6.5693       5.928819       0.17268
  45    0.1794        0.6405        0.0000        6.5686        6.5686       5.928183       0.17473
  44    0.2165        0.6405        0.0000        6.5679        6.5679       5.927445       0.16788
  43    0.2613        0.6405        0.0000        6.5670        6.5670       5.926592       0.16078
  42    0.3336        0.6405        0.0000        6.5657        6.5657       5.925229       0.15894
  41    0.4307        0.6405        0.0000        6.5640        6.5640       5.923507       0.14971
  40    0.5894        0.6405        0.0000        6.5613        6.5613       5.920891       0.13913
  39     1.339        0.6405        0.0000        6.5516        6.5516       5.911113       0.11008
  38     1.782        0.6404        0.0000        6.5473        6.5473       5.906897       0.08026
  37     2.292        0.6404        0.0000        6.5434        6.5435       5.903010       0.06438
  36     2.964        0.6404        0.0000        6.5395        6.5395       5.899056       0.04964
  35     3.853        0.6404        0.0000        6.5355        6.5356       5.895113       0.03742
  34     5.035        0.6404        0.0000        6.5315        6.5315       5.891111       0.02859
  33     6.613        0.6404        0.0000        6.5271        6.5271       5.886718       0.02349
  32     8.786        0.6404        0.0000        6.5216        6.5216       5.881223       0.02134
  31     11.80        0.6404        0.0001        6.5135        6.5135       5.873145       0.02262
  30     15.07        0.6404        0.0001        6.5041        6.5042       5.863778       0.02418
  29     18.79        0.6404        0.0001        6.4925        6.4926       5.852264       0.02611
  28     23.16        0.6404        0.0001        6.4779        6.4780       5.837674       0.02821
  27     28.12        0.6403        0.0002        6.4599        6.4600       5.819703       0.03055
  26     33.73        0.6403        0.0002        6.4384        6.4386       5.798276       0.03222
  25     40.54        0.6403        0.0002        6.4112        6.4115       5.771158       0.03364
  24     48.69        0.6403        0.0003        6.3775        6.3778       5.737531       0.03480
  23     57.69        0.6402        0.0003        6.3404        6.3407       5.700453       0.03476
  22     68.43        0.6402        0.0004        6.2971        6.2975       5.657283       0.03394
  21     81.20        0.6402        0.0004        6.2483        6.2487       5.608495       0.03224
  20     96.49        0.6402        0.0005        6.1948        6.1954       5.555162       0.02944
  19     114.6        0.6402        0.0006        6.1381        6.1388       5.498580       0.02642
  18     136.5        0.6402        0.0007        6.0790        6.0797       5.439543       0.02270
  17     162.9        0.6402        0.0009        6.0160        6.0169       5.376683       0.02009
  16     196.4        0.6403        0.0010        5.9399        5.9409       5.300592       0.01915
  15     218.7        0.6404        0.0011        5.8896        5.8908       5.250373       0.01907
  14     243.0        0.6406        0.0013        5.8322        5.8334       5.192894       0.01994
  13     269.0        0.6408        0.0014        5.7624        5.7638       5.122983       0.02268
  12     297.5        0.6412        0.0015        5.6767        5.6782       5.037043       0.02549
  11     328.5        0.6418        0.0016        5.5726        5.5742       4.932455       0.02844
  10     361.9        0.6426        0.0018        5.4473        5.4491       4.806502       0.03187
   9     398.1        0.6437        0.0019        5.2995        5.3014       4.657656       0.03468
   8     437.6        0.6453        0.0021        5.1275        5.1295       4.484217       0.03708
   7     480.5        0.6475        0.0022        4.9290        4.9312       4.283703       0.03938
   6     533.0        0.6509        0.0023        4.6794        4.6817       4.030832       0.04068
   5     589.8        0.6557        0.0025        4.4188        4.4212       3.765582       0.03937
   4     651.6        0.6624        0.0026        4.1521        4.1547       3.492276       0.03738
   3     718.7        0.6714        0.0027        3.8929        3.8956       3.224257       0.03368
   2     792.3        0.6831        0.0028        3.6469        3.6497       2.966649       0.02954
   1     891.5        0.7029        0.0030        3.3535        3.3564       2.653515       0.02665
   0    1013.0        0.7370        0.0031        3.0383        3.0414       2.304449       0.02424



 Wavenumbers:  5150. -  6150. cm-1, ATM      1
 LEVEL PRESSURE   UPWARD FLUX   DIFDOWN FLUX  DIRDOWN FLUX  DOWNWARD FLUX   NET FLUX    HEATING RATE
          mb          W/m2          W/m2          W/m2        W/m2          W/m2       degree/day
  51    .06700        1.7320        0.0000       16.4735       16.4735      14.741463       0.00000
  50    .07753        1.7320        0.0000       16.4735       16.4735      14.741428       0.02761
  49    .09103        1.7320        0.0000       16.4734       16.4734      14.741383       0.02811
  48    0.1069        1.7320        0.0000       16.4734       16.4734      14.741330       0.02859
  47    0.1255        1.7320        0.0000       16.4733       16.4733      14.741266       0.02904
  46    0.1487        1.7320        0.0000       16.4732       16.4732      14.741182       0.03060
  45    0.1794        1.7320        0.0000       16.4731       16.4731      14.741063       0.03269
  44    0.2165        1.7320        0.0000       16.4730       16.4730      14.740916       0.03331
  43    0.2613        1.7320        0.0000       16.4728       16.4728      14.740737       0.03376
  42    0.3336        1.7320        0.0000       16.4725       16.4725      14.740431       0.03564
  41    0.4307        1.7320        0.0000       16.4720       16.4720      14.740012       0.03645
  40    0.5894        1.7320        0.0000       16.4713       16.4713      14.739311       0.03729
  39     1.339        1.7320        0.0000       16.4679       16.4679      14.735902       0.03838
  38     1.782        1.7320        0.0000       16.4659       16.4659      14.733903       0.03807
  37     2.292        1.7320        0.0001       16.4635       16.4636      14.731612       0.03795
  36     2.964        1.7320        0.0001       16.4605       16.4606      14.728642       0.03728
  35     3.853        1.7320        0.0001       16.4567       16.4567      14.724789       0.03657
  34     5.035        1.7319        0.0001       16.4516       16.4517      14.719792       0.03570
  33     6.613        1.7319        0.0002       16.4451       16.4452      14.713331       0.03454
  32     8.786        1.7319        0.0002       16.4367       16.4369      14.705019       0.03228
  31     11.80        1.7318        0.0003       16.4254       16.4257      14.693868       0.03122
  30     15.07        1.7317        0.0004       16.4141       16.4145      14.682780       0.02863
  29     18.79        1.7317        0.0005       16.4024       16.4029      14.671259       0.02612
  28     23.16        1.7316        0.0006       16.3900       16.3906      14.658997       0.02371
  27     28.12        1.7315        0.0007       16.3771       16.3778      14.646332       0.02153
  26     33.73        1.7314        0.0009       16.3641       16.3650      14.633605       0.01914
  25     40.54        1.7313        0.0010       16.3502       16.3512      14.619964       0.01692
  24     48.69        1.7311        0.0013       16.3354       16.3366      14.605490       0.01498
  23     57.69        1.7310        0.0015       16.3211       16.3226      14.591590       0.01303
  22     68.43        1.7308        0.0018       16.3062       16.3080      14.577201       0.01131
  21     81.20        1.7306        0.0021       16.2903       16.2924      14.561809       0.01017
  20     96.49        1.7304        0.0025       16.2726       16.2751      14.544736       0.00942
  19     114.6        1.7301        0.0029       16.2521       16.2550      14.524923       0.00925
  18     136.5        1.7298        0.0035       16.2245       16.2280      14.498263       0.01025
  17     162.9        1.7294        0.0041       16.1747       16.1789      14.449481       0.01559
  16     196.4        1.7289        0.0050       16.0518       16.0568      14.327879       0.03061
  15     218.7        1.7286        0.0055       15.8984       15.9039      14.175231       0.05795
  14     243.0        1.7284        0.0060       15.6153       15.6213      13.892928       0.09791
  13     269.0        1.7281        0.0065       15.1390       15.1455      13.417416       0.15425
  12     297.5        1.7279        0.0070       14.5779       14.5849      12.856992       0.16622
  11     328.5        1.7278        0.0075       13.8780       13.8855      12.157665       0.19014
  10     361.9        1.7278        0.0078       13.0814       13.0893      11.361430       0.20146
   9     398.1        1.7281        0.0082       12.2728       12.2810      10.552934       0.18836
   8     437.6        1.7286        0.0085       11.4776       11.4860       9.757431       0.17008
   7     480.5        1.7296        0.0087       10.7300       10.7387       9.009113       0.14697
   6     533.0        1.7315        0.0091       10.0326       10.0417       8.310171       0.11244
   5     589.8        1.7346        0.0095        9.5050        9.5145       7.779890       0.07871
   4     651.6        1.7396        0.0100        9.0814        9.0914       7.351773       0.05855
   3     718.7        1.7469        0.0106        8.7024        8.7131       6.966144       0.04846
   2     792.3        1.7569        0.0113        8.3379        8.3492       6.592311       0.04287
   1     891.5        1.7755        0.0121        7.9064        7.9185       6.143008       0.03823
   0    1013.0        1.8138        0.0131        7.4741        7.4872       5.673381       0.03261



 Wavenumbers:  6150. -  7700. cm-1, ATM      1
 LEVEL PRESSURE   UPWARD FLUX   DIFDOWN FLUX  DIRDOWN FLUX  DOWNWARD FLUX   NET FLUX    HEATING RATE
          mb          W/m2          W/m2          W/m2        W/m2          W/m2       degree/day
  51    .06700        2.5615        0.0000       30.4684       30.4684      27.906866       0.00000
  50    .07753        2.5615        0.0000       30.4683       30.4683      27.906815       0.04144
  49    .09103        2.5615        0.0000       30.4683       30.4683      27.906748       0.04174
  48    0.1069        2.5615        0.0000       30.4682       30.4682      27.906669       0.04202
  47    0.1255        2.5615        0.0000       30.4681       30.4681      27.906576       0.04227
  46    0.1487        2.5615        0.0000       30.4680       30.4680      27.906455       0.04411
  45    0.1794        2.5615        0.0000       30.4678       30.4678      27.906285       0.04669
  44    0.2165        2.5615        0.0000       30.4676       30.4676      27.906077       0.04715
  43    0.2613        2.5615        0.0000       30.4673       30.4673      27.905826       0.04744
  42    0.3336        2.5615        0.0000       30.4669       30.4669      27.905399       0.04974
  41    0.4307        2.5615        0.0000       30.4663       30.4663      27.904818       0.05052
  40    0.5894        2.5615        0.0001       30.4653       30.4653      27.903850       0.05146
  39     1.339        2.5614        0.0001       30.4604       30.4606      27.899167       0.05273
  38     1.782        2.5613        0.0002       30.4576       30.4578      27.896417       0.05235
  37     2.292        2.5613        0.0002       30.4543       30.4546      27.893258       0.05231
  36     2.964        2.5612        0.0003       30.4501       30.4504      27.889151       0.05156
  35     3.853        2.5611        0.0004       30.4445       30.4449      27.883794       0.05084
  34     5.035        2.5610        0.0005       30.4373       30.4378      27.876794       0.05000
  33     6.613        2.5609        0.0007       30.4278       30.4285      27.867647       0.04890
  32     8.786        2.5606        0.0009       30.4154       30.4163      27.855694       0.04642
  31     11.80        2.5603        0.0013       30.3984       30.3996      27.839309       0.04587
  30     15.07        2.5600        0.0016       30.3810       30.3826      27.822595       0.04315
  29     18.79        2.5596        0.0020       30.3623       30.3643      27.804695       0.04059
  28     23.16        2.5592        0.0025       30.3417       30.3442      27.785012       0.03806
  27     28.12        2.5587        0.0030       30.3196       30.3226      27.763912       0.03587
  26     33.73        2.5581        0.0036       30.2965       30.3001      27.741994       0.03295
  25     40.54        2.5575        0.0044       30.2708       30.2751      27.717657       0.03019
  24     48.69        2.5567        0.0053       30.2423       30.2475      27.690881       0.02771
  23     57.69        2.5558        0.0062       30.2139       30.2201      27.664315       0.02490
  22     68.43        2.5547        0.0074       30.1834       30.1907      27.636041       0.02223
  21     81.20        2.5534        0.0087       30.1500       30.1587      27.605313       0.02030
  20     96.49        2.5519        0.0104       30.1126       30.1230      27.571096       0.01889
  19     114.6        2.5501        0.0123       30.0695       30.0818      27.531713       0.01839
  18     136.5        2.5480        0.0146       30.0139       30.0285      27.480561       0.01967
  17     162.9        2.5454        0.0174       29.9225       29.9398      27.394389       0.02754
  16     196.4        2.5422        0.0209       29.7333       29.7542      27.212014       0.04591
  15     218.7        2.5401        0.0231       29.5259       29.5490      27.008897       0.07712
  14     243.0        2.5378        0.0254       29.1375       29.1629      26.625091       0.13312
  13     269.0        2.5355        0.0277       28.3800       28.4077      25.872157       0.24425
  12     297.5        2.5332        0.0297       27.3895       27.4193      24.886062       0.29246
  11     328.5        2.5311        0.0317       26.2257       26.2574      23.726358       0.31532
  10     361.9        2.5292        0.0335       24.8453       24.8788      22.349673       0.34831
   9     398.1        2.5277        0.0350       23.3471       23.3821      20.854404       0.34836
   8     437.6        2.5269        0.0363       21.7966       21.8329      19.306008       0.33106
   7     480.5        2.5274        0.0373       20.1977       20.2350      17.707560       0.31393
   6     533.0        2.5303        0.0382       18.4969       18.5352      16.004885       0.27391
   5     589.8        2.5367        0.0392       16.9754       17.0146      14.477896       0.22666
   4     651.6        2.5485        0.0401       15.6022       15.6423      13.093776       0.18928
   3     718.7        2.5671        0.0412       14.4232       14.4644      11.897344       0.15036
   2     792.3        2.5934        0.0425       13.4386       13.4812      10.887708       0.11579
   1     891.5        2.6432        0.0444       12.3736       12.4180       9.774800       0.09470
   0    1013.0        2.7444        0.0464       11.2911       11.3375       8.593156       0.08205



 Wavenumbers:  7700. -  8050. cm-1, ATM      1
 LEVEL PRESSURE   UPWARD FLUX   DIFDOWN FLUX  DIRDOWN FLUX  DOWNWARD FLUX   NET FLUX    HEATING RATE
          mb          W/m2          W/m2          W/m2        W/m2          W/m2       degree/day
  51    .06700        1.3283        0.0000        7.2006        7.2006       5.872266       0.00000
  50    .07753        1.3283        0.0000        7.2006        7.2006       5.872248       0.01489
  49    .09103        1.3283        0.0000        7.2005        7.2005       5.872225       0.01459
  48    0.1069        1.3283        0.0000        7.2005        7.2005       5.872198       0.01429
  47    0.1255        1.3283        0.0000        7.2005        7.2005       5.872167       0.01398
  46    0.1487        1.3283        0.0000        7.2004        7.2005       5.872128       0.01418
  45    0.1794        1.3283        0.0000        7.2004        7.2004       5.872075       0.01460
  44    0.2165        1.3283        0.0000        7.2003        7.2003       5.872012       0.01432
  43    0.2613        1.3283        0.0000        7.2003        7.2003       5.871937       0.01405
  42    0.3336        1.3283        0.0000        7.2001        7.2001       5.871814       0.01437
  41    0.4307        1.3283        0.0000        7.2000        7.2000       5.871651       0.01422
  40    0.5894        1.3283        0.0000        7.1997        7.1997       5.871384       0.01420
  39     1.339        1.3284        0.0001        7.1984        7.1985       5.870121       0.01422
  38     1.782        1.3284        0.0001        7.1977        7.1978       5.869379       0.01412
  37     2.292        1.3284        0.0001        7.1968        7.1969       5.868521       0.01421
  36     2.964        1.3284        0.0001        7.1957        7.1958       5.867395       0.01414
  35     3.853        1.3285        0.0002        7.1942        7.1944       5.865908       0.01411
  34     5.035        1.3285        0.0002        7.1922        7.1925       5.863935       0.01410
  33     6.613        1.3286        0.0003        7.1896        7.1899       5.861301       0.01408
  32     8.786        1.3287        0.0004        7.1860        7.1864       5.857757       0.01376
  31     11.80        1.3288        0.0005        7.1810        7.1815       5.852700       0.01416
  30     15.07        1.3289        0.0007        7.1755        7.1762       5.847286       0.01398
  29     18.79        1.3291        0.0008        7.1694        7.1703       5.841190       0.01382
  28     23.16        1.3292        0.0010        7.1623        7.1633       5.834098       0.01371
  27     28.12        1.3294        0.0012        7.1542        7.1555       5.826025       0.01372
  26     33.73        1.3297        0.0015        7.1452        7.1467       5.817039       0.01351
  25     40.54        1.3300        0.0018        7.1344        7.1362       5.806249       0.01339
  24     48.69        1.3303        0.0021        7.1215        7.1236       5.793340       0.01336
  23     57.69        1.3307        0.0025        7.1074        7.1099       5.779285       0.01318
  22     68.43        1.3311        0.0030        7.0909        7.0938       5.762712       0.01303
  21     81.20        1.3317        0.0035        7.0713        7.0749       5.743203       0.01289
  20     96.49        1.3323        0.0042        7.0484        7.0526       5.720281       0.01265
  19     114.6        1.3331        0.0049        7.0217        7.0266       5.693509       0.01250
  18     136.5        1.3341        0.0058        6.9906        6.9964       5.662377       0.01197
  17     162.9        1.3352        0.0069        6.9544        6.9613       5.626102       0.01159
  16     196.4        1.3368        0.0083        6.9087        6.9171       5.580289       0.01153
  15     218.7        1.3378        0.0092        6.8794        6.8887       5.550845       0.01118
  14     243.0        1.3390        0.0102        6.8481        6.8583       5.519363       0.01092
  13     269.0        1.3403        0.0113        6.8147        6.8260       5.485734       0.01091
  12     297.5        1.3417        0.0124        6.7791        6.7915       5.449785       0.01066
  11     328.5        1.3434        0.0137        6.7409        6.7546       5.411245       0.01048
  10     361.9        1.3452        0.0150        6.7002        6.7151       5.369900       0.01046
   9     398.1        1.3474        0.0164        6.6563        6.6727       5.325272       0.01040
   8     437.6        1.3499        0.0179        6.6089        6.6268       5.276865       0.01035
   7     480.5        1.3529        0.0195        6.5570        6.5765       5.223654       0.01045
   6     533.0        1.3570        0.0215        6.4915        6.5130       5.156028       0.01088
   5     589.8        1.3620        0.0236        6.4182        6.4419       5.079897       0.01130
   4     651.6        1.3681        0.0259        6.3359        6.3618       4.993611       0.01180
   3     718.7        1.3757        0.0282        6.2441        6.2724       4.896733       0.01217
   2     792.3        1.3846        0.0307        6.1437        6.1745       4.789871       0.01226
   1     891.5        1.3982        0.0340        6.0042        6.0382       4.639947       0.01276
   0    1013.0        1.4180        0.0378        5.8249        5.8627       4.444708       0.01356



 Wavenumbers:  8050. - 12850. cm-1, ATM      1
 LEVEL PRESSURE   UPWARD FLUX   DIFDOWN FLUX  DIRDOWN FLUX  DOWNWARD FLUX   NET FLUX    HEATING RATE
          mb          W/m2          W/m2          W/m2        W/m2          W/m2       degree/day
  51    .06700       17.4966        0.0000      100.8135      100.8135      83.316919       0.00000
  50    .07753       17.4966        0.0000      100.8135      100.8135      83.316919       0.00000
  49    .09103       17.4966        0.0001      100.8134      100.8135      83.316919      -0.00000
  48    0.1069       17.4965        0.0001      100.8134      100.8134      83.316919       0.00000
  47    0.1255       17.4965        0.0001      100.8133      100.8134      83.316919       0.00000
  46    0.1487       17.4964        0.0002      100.8132      100.8134      83.316919       0.00000
  45    0.1794       17.4964        0.0002      100.8131      100.8133      83.316919       0.00000
  44    0.2165       17.4963        0.0003      100.8129      100.8132      83.316919       0.00000
  43    0.2613       17.4962        0.0004      100.8127      100.8132      83.316919      -0.00000
  42    0.3336       17.4961        0.0006      100.8125      100.8130      83.316919       0.00000
  41    0.4307       17.4959        0.0008      100.8121      100.8129      83.316919       0.00000
  40    0.5894       17.4956        0.0011      100.8115      100.8126      83.316919      -0.00000
  39     1.339       17.4943        0.0027      100.8085      100.8112      83.316919       0.00000
  38     1.782       17.4935        0.0037      100.8068      100.8104      83.316919       0.00000
  37     2.292       17.4926        0.0047      100.8047      100.8095      83.316919       0.00000
  36     2.964       17.4914        0.0062      100.8021      100.8083      83.316919      -0.00000
  35     3.853       17.4898        0.0081      100.7986      100.8067      83.316919       0.00000
  34     5.035       17.4876        0.0106      100.7940      100.8045      83.316919      -0.00000
  33     6.613       17.4848        0.0139      100.7878      100.8017      83.316919       0.00000
  32     8.786       17.4809        0.0185      100.7794      100.7979      83.316919       0.00000
  31     11.80       17.4754        0.0249      100.7674      100.7924      83.316919       0.00000
  30     15.07       17.4695        0.0319      100.7546      100.7864      83.316919       0.00000
  29     18.79       17.4628        0.0398      100.7400      100.7798      83.316919       0.00000
  28     23.16       17.4550        0.0490      100.7230      100.7720      83.316919      -0.00000
  27     28.12       17.4461        0.0595      100.7035      100.7630      83.316919       0.00000
  26     33.73       17.4361        0.0713      100.6817      100.7530      83.316919       0.00000
  25     40.54       17.4239        0.0856      100.6552      100.7408      83.316919       0.00000
  24     48.69       17.4093        0.1028      100.6234      100.7262      83.316919      -0.00000
  23     57.69       17.3932        0.1218      100.5883      100.7101      83.316919       0.00000
  22     68.43       17.3739        0.1444      100.5464      100.6909      83.316919       0.00000
  21     81.20       17.3510        0.1714      100.4965      100.6679      83.316919      -0.00000
  20     96.49       17.3236        0.2036      100.4370      100.6405      83.316919      -0.00000
  19     114.6       17.2911        0.2419      100.3585      100.6003      83.309247       0.00358
  18     136.5       17.2525        0.2873      100.2634      100.5507      83.298203       0.00425
  17     162.9       17.2064        0.3415      100.1407      100.4822      83.275783       0.00717
  16     196.4       17.1465        0.4119       99.9505      100.3624      83.215843       0.01509
  15     218.7       17.1072        0.4581       99.7889      100.2470      83.139869       0.02884
  14     243.0       17.0644        0.5082       99.5472      100.0554      82.991020       0.05163
  13     269.0       17.0184        0.5622       99.1452       99.7075      82.689087       0.09795
  12     297.5       16.9692        0.6201       98.5975       99.2176      82.248344       0.13072
  11     328.5       16.9172        0.6820       97.8659       98.5479      81.630706       0.16793
  10     361.9       16.8628        0.7477       96.8848       97.6325      80.769693       0.21784
   9     398.1       16.8067        0.8169       95.6330       96.4499      79.643186       0.26245
   8     437.6       16.7503        0.8891       94.0655       94.9546      78.204322       0.30764
   7     480.5       16.6964        0.9635       92.0807       93.0442      76.347831       0.36461
   6     533.0       16.6409        1.0508       89.4449       90.4957      73.854789       0.40105
   5     589.8       16.5969        1.1406       86.5544       87.6950      71.098036       0.40919
   4     651.6       16.5728        1.2322       83.4174       84.6496      68.076836       0.41316
   3     718.7       16.5732        1.3264       80.2037       81.5301      64.956906       0.39209
   2     792.3       16.6027        1.4239       77.0811       78.5049      61.902270       0.35033
   1     891.5       16.7032        1.5490       73.2645       74.8135      58.110360       0.32267
   0    1013.0       16.9811        1.6871       68.9425       70.6296      53.648519       0.30981



 Wavenumbers: 12850. - 16000. cm-1, ATM      1
 LEVEL PRESSURE   UPWARD FLUX   DIFDOWN FLUX  DIRDOWN FLUX  DOWNWARD FLUX   NET FLUX    HEATING RATE
          mb          W/m2          W/m2          W/m2        W/m2          W/m2       degree/day
  51    .06700       26.8277        0.0000       63.1686       63.1686      36.340832       0.00000
  50    .07753       26.8277        0.0001       63.1677       63.1678      36.340054       0.62329
  49    .09103       26.8277        0.0001       63.1666       63.1668      36.339086       0.60549
  48    0.1069       26.8276        0.0002       63.1654       63.1656      36.337983       0.58685
  47    0.1255       26.8276        0.0003       63.1640       63.1643      36.336730       0.56811
  46    0.1487       26.8275        0.0004       63.1623       63.1627      36.335168       0.56926
  45    0.1794       26.8275        0.0006       63.1600       63.1605      36.333076       0.57445
  44    0.2165       26.8274        0.0007       63.1573       63.1580      36.330658       0.54992
  43    0.2613       26.8273        0.0010       63.1542       63.1552      36.327873       0.52498
  42    0.3336       26.8272        0.0013       63.1493       63.1506      36.323442       0.51657
  41    0.4307       26.8270        0.0018       63.1431       63.1449      36.317912       0.48086
  40    0.5894       26.8269        0.0026       63.1338       63.1364      36.309560       0.44416
  39     1.339       26.8270        0.0063       63.0956       63.1019      36.274874       0.39050
  38     1.782       26.8278        0.0085       63.0740       63.0825      36.254703       0.38401
  37     2.292       26.8294        0.0110       63.0477       63.0586      36.229267       0.42130
  36     2.964       26.8325        0.0143       63.0095       63.0238      36.191320       0.47635
  35     3.853       26.8380        0.0186       62.9533       62.9719      36.133860       0.54531
  34     5.035       26.8468        0.0244       62.8725       62.8969      36.050101       0.59834
  33     6.613       26.8592        0.0321       62.7621       62.7941      35.934911       0.61581
  32     8.786       26.8753        0.0424       62.6182       62.6607      35.785431       0.58053
  31     11.80       26.8954        0.0572       62.4284       62.4856      35.590200       0.54659
  30     15.07       26.9137        0.0730       62.2426       62.3156      35.401929       0.48608
  29     18.79       26.9315        0.0909       62.0493       62.1402      35.208655       0.43821
  28     23.16       26.9489        0.1116       61.8424       61.9541      35.005170       0.39347
  27     28.12       26.9649        0.1353       61.6278       61.7631      34.798264       0.35173
  26     33.73       26.9771        0.1618       61.4177       61.5794      34.602341       0.29458
  25     40.54       26.9854        0.1937       61.1983       61.3920      34.406606       0.24283
  24     48.69       26.9890        0.2321       60.9680       61.2000      34.211042       0.20238
  23     57.69       26.9869        0.2742       60.7478       61.0220      34.035091       0.16493
  22     68.43       26.9777        0.3242       60.5202       60.8444      33.866729       0.13236
  21     81.20       26.9577        0.3838       60.2938       60.6777      33.719980       0.09697
  20     96.49       26.9255        0.4548       60.0643       60.5191      33.593624       0.06974
  19     114.6       26.8879        0.5395       59.8078       60.3473      33.459397       0.06267
  18     136.5       26.8395        0.6397       59.5157       60.1554      33.315883       0.05518
  17     162.9       26.7783        0.7586       59.1770       59.9356      33.157267       0.05070
  16     196.4       26.6915        0.9123       58.7604       59.6727      32.981185       0.04432
  15     218.7       26.6318        1.0129       58.4948       59.5077      32.875887       0.03998
  14     243.0       26.5658        1.1221       58.2089       59.3310      32.765180       0.03840
  13     269.0       26.4932        1.2400       57.9006       59.1406      32.647438       0.03820
  12     297.5       26.4139        1.3672       57.5668       58.9339      32.520000       0.03780
  11     328.5       26.3286        1.5041       57.2005       58.7046      32.376017       0.03915
  10     361.9       26.2374        1.6510       56.7963       58.4473      32.209915       0.04203
   9     398.1       26.1408        1.8084       56.3475       58.1559      32.015157       0.04537
   8     437.6       26.0397        1.9765       55.8422       57.8187      31.779019       0.05049
   7     480.5       25.9365        2.1554       55.2625       57.4179      31.481481       0.05844
   6     533.0       25.8178        2.3734       54.4972       56.8706      31.052736       0.06897
   5     589.8       25.7007        2.6050       53.6307       56.2357      30.535002       0.07685
   4     651.6       25.5893        2.8492       52.6606       55.5098      29.920454       0.08404
   3     718.7       25.4859        3.1064       51.6100       54.7164      29.230508       0.08671
   2     792.3       25.3932        3.3762       50.5019       53.8781      28.484865       0.08552
   1     891.5       25.3045        3.7310       49.0197       52.7507      27.446195       0.08839
   0    1013.0       25.2716        4.1411       47.2289       51.3700      26.098379       0.09359



 Wavenumbers: 16000. - 22650. cm-1, ATM      1
 LEVEL PRESSURE   UPWARD FLUX   DIFDOWN FLUX  DIRDOWN FLUX  DOWNWARD FLUX   NET FLUX    HEATING RATE
          mb          W/m2          W/m2          W/m2        W/m2          W/m2       degree/day
  51    .06700       64.7093        0.0000      100.7153      100.7153      36.005969       0.00000
  50    .07753       64.7092        0.0003      100.7147      100.7150      36.005857       0.08982
  49    .09103       64.7090        0.0007      100.7140      100.7147      36.005694       0.10187
  48    0.1069       64.7088        0.0012      100.7131      100.7143      36.005475       0.11617
  47    0.1255       64.7086        0.0017      100.7121      100.7138      36.005183       0.13242
  46    0.1487       64.7084        0.0023      100.7108      100.7131      36.004753       0.15691
  45    0.1794       64.7080        0.0032      100.7089      100.7121      36.004080       0.18475
  44    0.2165       64.7077        0.0043      100.7066      100.7109      36.003167       0.20764
  43    0.2613       64.7073        0.0056      100.7037      100.7092      36.001929       0.23343
  42    0.3336       64.7068        0.0077      100.6987      100.7064      35.999574       0.27451
  41    0.4307       64.7062        0.0104      100.6918      100.7022      35.996025       0.30857
  40    0.5894       64.7054        0.0149      100.6797      100.6947      35.989258       0.35991
  39     1.339       64.7066        0.0363      100.6095      100.6458      35.939266       0.56281
  38     1.782       64.7107        0.0489      100.5585      100.6074      35.896695       0.81050
  37     2.292       64.7186        0.0634      100.4903      100.5537      35.835093       1.02028
  36     2.964       64.7339        0.0825      100.3868      100.4693      35.735351       1.25207
  35     3.853       64.7611        0.1077      100.2306      100.3383      35.577213       1.50075
  34     5.035       64.8039        0.1410      100.0045      100.1455      35.341573       1.68332
  33     6.613       64.8647        0.1855       99.6939       99.8794      35.014668       1.74763
  32     8.786       64.9431        0.2453       99.2881       99.5333      34.590277       1.64818
  31     11.80       65.0419        0.3305       98.7496       99.0801      34.038239       1.54553
  30     15.07       65.1325        0.4217       98.2198       98.6415      33.509009       1.36637
  29     18.79       65.2209        0.5243       97.6651       98.1894      32.968464       1.22558
  28     23.16       65.3082        0.6436       97.0671       97.7108      32.402550       1.09430
  27     28.12       65.3893        0.7796       96.4406       97.2201      31.830806       0.97193
  26     33.73       65.4532        0.9311       95.8179       96.7490      31.295823       0.80436
  25     40.54       65.4993        1.1136       95.1548       96.2684      30.769100       0.65346
  24     48.69       65.5249        1.3326       94.4420       95.7746      30.249724       0.53747
  23     57.69       65.5240        1.5722       93.7416       95.3138      29.789790       0.43112
  22     68.43       65.4918        1.8562       92.9954       94.8516      29.359737       0.33808
  21     81.20       65.4109        2.1931       92.2231       94.4163      29.005386       0.23415
  20     96.49       65.2752        2.5926       91.4110       94.0036      28.728386       0.15288
  19     114.6       65.0950        3.0634       90.5070       93.5704      28.475457       0.11810
  18     136.5       64.8690        3.6165       89.4803       93.0967      28.227705       0.09527
  17     162.9       64.5895        4.2680       88.3022       92.5702      27.980719       0.07895
  16     196.4       64.2035        5.1026       86.8606       91.9632      27.759781       0.05561
  15     218.7       63.9421        5.6443       85.9492       91.5935      27.651462       0.04112
  14     243.0       63.6552        6.2275       84.9789       91.2064      27.551229       0.03476
  13     269.0       63.3417        6.8529       83.9493       90.8022      27.460480       0.02944
  12     297.5       63.0008        7.5211       82.8589       90.3801      27.379317       0.02407
  11     328.5       62.6331        8.2346       81.6982       89.9328      27.299652       0.02166
  10     361.9       62.2386        8.9927       80.4669       89.4596      27.220983       0.01990
   9     398.1       61.8161        9.7972       79.1611       88.9583      27.142161       0.01836
   8     437.6       61.3658       10.6481       77.7777       88.4259      27.060062       0.01755
   7     480.5       60.8876       11.5456       76.3136       87.8593      26.971716       0.01735
   6     533.0       60.3059       12.6299       74.5359       87.1658      26.859836       0.01800
   5     589.8       59.6887       13.7735       72.6469       86.4205      26.731796       0.01901
   4     651.6       59.0374       14.9742       70.6456       85.6198      26.582403       0.02043
   3     718.7       58.3522       16.2294       68.5367       84.7661      26.413844       0.02118
   2     792.3       57.6355       17.5334       66.3287       83.8621      26.226518       0.02148
   1     891.5       56.6983       19.2285       63.4246       82.6531      25.954797       0.02312
   0    1013.0       55.6212       21.1660       60.0483       81.2143      25.593127       0.02511



 Wavenumbers: 22650. - 29000. cm-1, ATM      1
 LEVEL PRESSURE   UPWARD FLUX   DIFDOWN FLUX  DIRDOWN FLUX  DOWNWARD FLUX   NET FLUX    HEATING RATE
          mb          W/m2          W/m2          W/m2        W/m2          W/m2       degree/day
  51    .06700       28.9227        0.0000       38.0063       38.0063       9.083614       0.00000
  50    .07753       28.9225        0.0004       38.0057       38.0061       9.083614       0.00000
  49    .09103       28.9223        0.0008       38.0050       38.0059       9.083614       0.00000
  48    0.1069       28.9220        0.0014       38.0042       38.0056       9.083614       0.00000
  47    0.1255       28.9217        0.0020       38.0033       38.0053       9.083614      -0.00000
  46    0.1487       28.9213        0.0027       38.0022       38.0049       9.083614       0.00000
  45    0.1794       28.9208        0.0038       38.0006       38.0044       9.083614       0.00000
  44    0.2165       28.9202        0.0051       37.9987       38.0038       9.083614      -0.00000
  43    0.2613       28.9194        0.0065       37.9965       38.0030       9.083614       0.00000
  42    0.3336       28.9182        0.0090       37.9928       38.0018       9.083614      -0.00000
  41    0.4307       28.9166        0.0122       37.9880       38.0002       9.083614       0.00000
  40    0.5894       28.9140        0.0175       37.9800       37.9976       9.083614       0.00000
  39     1.339       28.9015        0.0426       37.9425       37.9851       9.083614      -0.00000
  38     1.782       28.8941        0.0573       37.9204       37.9777       9.083614       0.00000
  37     2.292       28.8856        0.0743       37.8949       37.9693       9.083614       0.00000
  36     2.964       28.8745        0.0967       37.8614       37.9581       9.083614       0.00000
  35     3.853       28.8598        0.1262       37.8172       37.9434       9.083614       0.00000
  34     5.035       28.8403        0.1653       37.7586       37.9239       9.083614      -0.00000
  33     6.613       28.8142        0.2175       37.6803       37.8979       9.083614      -0.00000
  32     8.786       28.7792        0.2878       37.5750       37.8628       9.083614       0.00000
  31     11.80       28.7292        0.3879       37.4249       37.8128       9.083614       0.00000
  30     15.07       28.6756        0.4950       37.2642       37.7592       9.083614      -0.00000
  29     18.79       28.6153        0.6156       37.0833       37.6989       9.083614      -0.00000
  28     23.16       28.5450        0.7556       36.8730       37.6286       9.083614       0.00000
  27     28.12       28.4651        0.9149       36.6338       37.5487       9.083614      -0.00000
  26     33.73       28.3760        1.0919       36.3677       37.4596       9.083614       0.00000
  25     40.54       28.2690        1.3041       36.0486       37.3526       9.083614       0.00000
  24     48.69       28.1410        1.5574       35.6672       37.2246       9.083614       0.00000
  23     57.69       28.0015        1.8324       35.2527       37.0851       9.083614       0.00000
  22     68.43       27.8370        2.1557       34.7649       36.9207       9.083614      -0.00000
  21     81.20       27.6434        2.5348       34.1922       36.7270       9.083614      -0.00000
  20     96.49       27.4159        2.9778       33.5217       36.4995       9.083614       0.00000
  19     114.6       27.1503        3.4916       32.7424       36.2340       9.083614      -0.00000
  18     136.5       26.8419        4.0839       31.8416       35.9255       9.083614       0.00000
  17     162.9       26.4834        4.7662       30.8008       35.5670       9.083614      -0.00000
  16     196.4       26.0320        5.6149       29.5007       35.1156       9.083614       0.00000
  15     218.7       25.7437        6.1507       28.6767       34.8274       9.083614       0.00000
  14     243.0       25.4375        6.7143       27.8068       34.5211       9.083614       0.00000
  13     269.0       25.1135        7.3038       26.8933       34.1971       9.083614      -0.00000
  12     297.5       24.7725        7.9168       25.9393       33.8561       9.083614      -0.00000
  11     328.5       24.4140        8.5525       24.9451       33.4976       9.083614       0.00000
  10     361.9       24.0391        9.2067       23.9160       33.1227       9.083614       0.00000
   9     398.1       23.6480        9.8775       22.8541       32.7317       9.083614      -0.00000
   8     437.6       23.2417       10.5609       21.7645       32.3253       9.083614       0.00000
   7     480.5       22.8211       11.2526       20.6521       31.9047       9.083614       0.00000
   6     533.0       22.3231       12.0498       19.3569       31.4067       9.083614       0.00000
   5     589.8       21.8090       12.8459       18.0467       30.8926       9.083614      -0.00000
   4     651.6       21.2810       13.6330       16.7316       30.3646       9.083614       0.00000
   3     718.7       20.7408       14.4031       15.4214       29.8245       9.083614      -0.00000
   2     792.3       20.1913       15.1473       14.1276       29.2749       9.083614      -0.00000
   1     891.5       19.4928       16.0305       12.5459       28.5764       9.083614       0.00000
   0    1013.0       18.7123       16.9241       10.8717       27.7959       9.083614      -0.00000



 Wavenumbers: 29000. - 38000. cm-1, ATM      1
 LEVEL PRESSURE   UPWARD FLUX   DIFDOWN FLUX  DIRDOWN FLUX  DOWNWARD FLUX   NET FLUX    HEATING RATE
          mb          W/m2          W/m2          W/m2        W/m2          W/m2       degree/day
  51    .06700        4.3573        0.0000       13.4026       13.4026       9.045259       0.00000
  50    .07753        4.3571        0.0003       13.3983       13.3986       9.041462       3.04389
  49    .09103        4.3568        0.0007       13.3921       13.3928       9.035944       3.44910
  48    0.1069        4.3565        0.0011       13.3840       13.3851       9.028568       3.92611
  47    0.1255        4.3562        0.0016       13.3733       13.3749       9.018725       4.46242
  46    0.1487        4.3557        0.0022       13.3579       13.3600       9.004285       5.26346
  45    0.1794        4.3551        0.0030       13.3340       13.3370       8.981889       6.14817
  44    0.2165        4.3545        0.0040       13.3024       13.3063       8.951876       6.82751
  43    0.2613        4.3537        0.0051       13.2604       13.2655       8.911829       7.54867
  42    0.3336        4.3524        0.0070       13.1833       13.1902       8.837837       8.62669
  41    0.4307        4.3508        0.0094       13.0729       13.0823       8.731488       9.24681
  40    0.5894        4.3483        0.0132       12.8796       12.8928       8.544490       9.94433
  39     1.339        4.3393        0.0292       11.9165       11.9458       7.606493      10.56014
  38     1.782        4.3355        0.0374       11.4399       11.4773       7.141801       8.84699
  37     2.292        4.3325        0.0462       10.9796       11.0258       6.693277       7.42872
  36     2.964        4.3302        0.0569       10.4786       10.5355       6.205294       6.12566
  35     3.853        4.3295        0.0701        9.9429       10.0130       5.683445       4.95245
  34     5.035        4.3310        0.0865        9.4007        9.4872       5.156193       3.76647
  33     6.613        4.3347        0.1073        8.8752        8.9826       4.647838       2.71767
  32     8.786        4.3401        0.1342        8.3786        8.5128       4.172743       1.84510
  31     11.80        4.3462        0.1710        7.8897        8.0607       3.714536       1.28284
  30     15.07        4.3508        0.2090        7.5108        7.7198       3.368968       0.89219
  29     18.79        4.3545        0.2503        7.1776        7.4279       3.073361       0.67023
  28     23.16        4.3570        0.2967        6.8664        7.1631       2.806106       0.51678
  27     28.12        4.3577        0.3480        6.5780        6.9260       2.568326       0.40421
  26     33.73        4.3544        0.4038        6.3195        6.7233       2.368919       0.29981
  25     40.54        4.3455        0.4696        6.0663        6.5359       2.190375       0.22150
  24     48.69        4.3304        0.5466        5.8128        6.3594       2.029017       0.16698
  23     57.69        4.3096        0.6286        5.5777        6.2063       1.896673       0.12405
  22     68.43        4.2804        0.7234        5.3379        6.0613       1.780881       0.09103
  21     81.20        4.2387        0.8332        5.0965        5.9297       1.690984       0.05940
  20     96.49        4.1832        0.9598        4.8476        5.8074       1.624212       0.03685
  19     114.6        4.1165        1.1029        4.5799        5.6828       1.566246       0.02707
  18     136.5        4.0393        1.2623        4.2891        5.5514       1.512084       0.02083
  17     162.9        3.9509        1.4384        3.9732        5.4115       1.460637       0.01644
  16     196.4        3.8393        1.6482        3.6080        5.2562       1.416856       0.01102
  15     218.7        3.7689        1.7752        3.3898        5.1650       1.396100       0.00788
  14     243.0        3.6953        1.9041        3.1686        5.0726       1.377336       0.00651
  13     269.0        3.6189        2.0336        2.9461        4.9797       1.360847       0.00535
  12     297.5        3.5400        2.1627        2.7239        4.8866       1.346640       0.00421
  11     328.5        3.4593        2.2897        2.5029        4.7926       1.333355       0.00361
  10     361.9        3.3771        2.4135        2.2846        4.6981       1.321010       0.00312
   9     398.1        3.2939        2.5328        2.0708        4.6035       1.309596       0.00266
   8     437.6        3.2100        2.6463        1.8626        4.5089       1.298866       0.00229
   7     480.5        3.1258        2.7526        1.6621        4.4147       1.288933       0.00195
   6     533.0        3.0293        2.8641        1.4437        4.3077       1.278399       0.00169
   5     589.8        2.9333        2.9628        1.2390        4.2018       1.268497       0.00147
   4     651.6        2.8382        3.0473        1.0500        4.0973       1.259093       0.00129
   3     718.7        2.7440        3.1163        0.8778        3.9942       1.250155       0.00112
   2     792.3        2.6511        3.1690        0.7237        3.8927       1.241665       0.00097
   1     891.5        2.5362        3.2114        0.5563        3.7677       1.231538       0.00086
   0    1013.0        2.4107        3.2276        0.4039        3.6315       1.220808       0.00075



 Wavenumbers: 38000. - 50000. cm-1, ATM      1
 LEVEL PRESSURE   UPWARD FLUX   DIFDOWN FLUX  DIRDOWN FLUX  DOWNWARD FLUX   NET FLUX    HEATING RATE
          mb          W/m2          W/m2          W/m2        W/m2          W/m2       degree/day
  51    .06700        0.0051        0.0000        0.8267        0.8267       0.821528       0.00000
  50    .07753        0.0051        0.0001        0.8242        0.8243       0.819196       1.86936
  49    .09103        0.0050        0.0002        0.8207        0.8209       0.815872       2.07705
  48    0.1069        0.0049        0.0002        0.8162        0.8164       0.811514       2.31984
  47    0.1255        0.0048        0.0004        0.8103        0.8106       0.805801       2.59006
  46    0.1487        0.0047        0.0005        0.8018        0.8023       0.797567       3.00143
  45    0.1794        0.0045        0.0007        0.7889        0.7896       0.785013       3.44648
  44    0.2165        0.0044        0.0009        0.7720        0.7729       0.768507       3.75474
  43    0.2613        0.0042        0.0011        0.7500        0.7511       0.746955       4.06246
  42    0.3336        0.0039        0.0015        0.7106        0.7121       0.708267       4.51071
  41    0.4307        0.0035        0.0019        0.6566        0.6584       0.654972       4.63387
  40    0.5894        0.0029        0.0024        0.5680        0.5704       0.567464       4.65357
  39     1.339        0.0015        0.0030        0.2422        0.2452       0.243720       3.64476
  38     1.782        0.0010        0.0026        0.1493        0.1519       0.150889       1.76735
  37     2.292        0.0007        0.0022        0.0924        0.0946       0.093932       0.94336
  36     2.964        0.0005        0.0018        0.0539        0.0557       0.055224       0.48589
  35     3.853        0.0003        0.0013        0.0295        0.0308       0.030502       0.23462
  34     5.035        0.0002        0.0010        0.0154        0.0164       0.016181       0.10230
  33     6.613        0.0001        0.0007        0.0073        0.0080       0.007912       0.04420
  32     8.786        0.0000        0.0004        0.0030        0.0034       0.003390       0.01756
  31     11.80        0.0000        0.0003        0.0010        0.0012       0.001199       0.00613
  30     15.07        0.0000        0.0001        0.0003        0.0005       0.000463       0.00190
  29     18.79        0.0000        0.0001        0.0001        0.0002       0.000182       0.00064
  28     23.16        0.0000        0.0000        0.0000        0.0001       0.000071       0.00022
  27     28.12        0.0000        0.0000        0.0000        0.0000       0.000028       0.00007
  26     33.73        0.0000        0.0000        0.0000        0.0000       0.000011       0.00002
  25     40.54        0.0000        0.0000        0.0000        0.0000       0.000005       0.00001
  24     48.69        0.0000        0.0000        0.0000        0.0000       0.000002       0.00000
  23     57.69        0.0000        0.0000        0.0000        0.0000       0.000001       0.00000
  22     68.43        0.0000        0.0000        0.0000        0.0000       0.000000       0.00000
  21     81.20        0.0000        0.0000        0.0000        0.0000       0.000000       0.00000
  20     96.49        0.0000        0.0000        0.0000        0.0000       0.000000       0.00000
  19     114.6        0.0000        0.0000        0.0000        0.0000       0.000000       0.00000
  18     136.5        0.0000        0.0000        0.0000        0.0000       0.000000       0.00000
  17     162.9        0.0000        0.0000        0.0000        0.0000       0.000000       0.00000
  16     196.4        0.0000        0.0000        0.0000        0.0000       0.000000       0.00000
  15     218.7        0.0000        0.0000        0.0000        0.0000       0.000000       0.00000
  14     243.0        0.0000        0.0000        0.0000        0.0000       0.000000       0.00000
  13     269.0        0.0000        0.0000        0.0000        0.0000       0.000000       0.00000
  12     297.5        0.0000        0.0000        0.0000        0.0000       0.000000       0.00000
  11     328.5        0.0000        0.0000        0.0000        0.0000       0.000000       0.00000
  10     361.9        0.0000        0.0000        0.0000        0.0000       0.000000       0.00000
   9     398.1        0.0000        0.0000        0.0000        0.0000       0.000000       0.00000
   8     437.6        0.0000        0.0000        0.0000        0.0000       0.000000       0.00000
   7     480.5        0.0000        0.0000        0.0000        0.0000       0.000000       0.00000
   6     533.0        0.0000        0.0000        0.0000        0.0000       0.000000       0.00000
   5     589.8        0.0000        0.0000        0.0000        0.0000       0.000000       0.00000
   4     651.6        0.0000        0.0000        0.0000        0.0000       0.000000       0.00000
   3     718.7        0.0000        0.0000        0.0000        0.0000       0.000000       0.00000
   2     792.3        0.0000        0.0000        0.0000        0.0000       0.000000       0.00000
   1     891.5        0.0000        0.0000        0.0000        0.0000       0.000000       0.00000
   0    1013.0        0.0000        0.0000        0.0000        0.0000       0.000000       0.00000



 Wavenumbers:   820. -  2600. cm-1, ATM      1
 LEVEL PRESSURE   UPWARD FLUX   DIFDOWN FLUX  DIRDOWN FLUX  DOWNWARD FLUX   NET FLUX    HEATING RATE
          mb          W/m2          W/m2          W/m2        W/m2          W/m2       degree/day
  51    .06700        0.1586        0.0000        3.8670        3.8670       3.708387       0.00000
  50    .07753        0.1586        0.0000        3.8643        3.8643       3.705670       2.17769
  49    .09103        0.1586        0.0000        3.8635        3.8635       3.704860       0.50638
  48    0.1069        0.1586        0.0000        3.8626        3.8626       3.703969       0.47415
  47    0.1255        0.1586        0.0000        3.8616        3.8616       3.703008       0.43559
  46    0.1487        0.1586        0.0000        3.8605        3.8605       3.701899       0.40437
  45    0.1794        0.1586        0.0000        3.8592        3.8592       3.700564       0.36648
  44    0.2165        0.1586        0.0000        3.8578        3.8578       3.699186       0.31346
  43    0.2613        0.1586        0.0000        3.8564        3.8564       3.697726       0.27522
  42    0.3336        0.1586        0.0000        3.8541        3.8541       3.695495       0.26012
  41    0.4307        0.1586        0.0000        3.8512        3.8512       3.692612       0.25063
  40    0.5894        0.1586        0.0000        3.8465        3.8465       3.687886       0.25133
  39     1.339        0.1586        0.0000        3.8251        3.8251       3.666511       0.24064
  38     1.782        0.1586        0.0000        3.8133        3.8133       3.654699       0.22489
  37     2.292        0.1586        0.0000        3.8003        3.8003       3.641637       0.21633
  36     2.964        0.1586        0.0000        3.7841        3.7841       3.625509       0.20246
  35     3.853        0.1586        0.0000        3.7642        3.7642       3.605594       0.18899
  34     5.035        0.1586        0.0000        3.7395        3.7395       3.580904       0.17638
  33     6.613        0.1586        0.0000        3.7090        3.7090       3.550368       0.16324
  32     8.786        0.1586        0.0000        3.6726        3.6726       3.513976       0.14134
  31     11.80        0.1586        0.0000        3.6320        3.6320       3.473382       0.11365
  30     15.07        0.1586        0.0000        3.6016        3.6016       3.442999       0.07844
  29     18.79        0.1586        0.0000        3.5777        3.5777       3.419102       0.05418
  28     23.16        0.1586        0.0000        3.5564        3.5564       3.397749       0.04129
  27     28.12        0.1586        0.0000        3.5348        3.5348       3.376204       0.03663
  26     33.73        0.1586        0.0000        3.5118        3.5118       3.353172       0.03463
  25     40.54        0.1586        0.0000        3.4849        3.4849       3.326286       0.03336
  24     48.69        0.1586        0.0000        3.4537        3.4537       3.295035       0.03234
  23     57.69        0.1587        0.0000        3.4210        3.4210       3.262364       0.03062
  22     68.43        0.1587        0.0000        3.3844        3.3844       3.225779       0.02876
  21     81.20        0.1587        0.0000        3.3441        3.3441       3.185482       0.02663
  20     96.49        0.1587        0.0000        3.2998        3.2998       3.141120       0.02449
  19     114.6        0.1587        0.0000        3.2506        3.2506       3.091973       0.02295
  18     136.5        0.1587        0.0000        3.1936        3.1936       3.034925       0.02194
  17     162.9        0.1587        0.0000        3.1181        3.1181       2.959422       0.02413
  16     196.4        0.1587        0.0000        3.0090        3.0090       2.850233       0.02748
  15     218.7        0.1588        0.0000        2.9420        2.9420       2.783227       0.02544
  14     243.0        0.1588        0.0000        2.8605        2.8605       2.701662       0.02829
  13     269.0        0.1589        0.0000        2.7419        2.7420       2.583075       0.03847
  12     297.5        0.1590        0.0000        2.5729        2.5729       2.413857       0.05019
  11     328.5        0.1593        0.0000        2.3602        2.3602       2.200945       0.05789
  10     361.9        0.1596        0.0000        2.1524        2.1524       1.992830       0.05266
   9     398.1        0.1601        0.0000        1.9974        1.9974       1.837316       0.03623
   8     437.6        0.1608        0.0000        1.8835        1.8835       1.722682       0.02451
   7     480.5        0.1619        0.0000        1.7734        1.7734       1.611542       0.02183
   6     533.0        0.1637        0.0000        1.6397        1.6398       1.476079       0.02179
   5     589.8        0.1663        0.0000        1.5068        1.5069       1.340591       0.02011
   4     651.6        0.1701        0.0000        1.3807        1.3807       1.210615       0.01777
   3     718.7        0.1752        0.0000        1.2680        1.2680       1.092824       0.01480
   2     792.3        0.1815        0.0000        1.1659        1.1660       0.984471       0.01243
   1     891.5        0.1921        0.0000        1.0372        1.0373       0.845187       0.01185
   0    1013.0        0.2113        0.0000        0.8716        0.8717       0.660382       0.01283

  Modules and versions used in this calculation:

       rrtmg_sw.1col.f90:  $Revision$                    rrtmg_sw_init.f90:  $Revision$        
     rrtmgsw_cldprop.f90:  $Revision$                  rrtmgsw_cldprmc.f90:  NOT USED          
     rrtmg_sw_reftra.f90:  $Revision$                  rrtmg_sw_spcvrt.f90:  NOT USED          
     rrtmg_sw_spcvmc.f90:  NOT USED                    rrtmgsw_setcoef.f90:  NOT USED          
     rrtmg_sw_taumol.f90:  $Revision$                  rrtmg_sw_vrtqdr.f90:  NOT USED          
                rrtatm.f:  NOT USED                             util_xxx.f:  NOT USED          
                 extra.f:  NOT USED                       rrtmg_sw_k_g.f90:  $Revision$        

