

 Wavenumbers:   820. - 50000. cm-1, ATM      1
 LEVEL PRESSURE   UPWARD FLUX   DIFDOWN FLUX  DIRDOWN FLUX  DOWNWARD FLUX   NET FLUX    HEATING RATE
          mb          W/m2          W/m2          W/m2        W/m2          W/m2       degree/day
  51    .06700      154.3349        0.0000      397.8738      397.8738     243.538837       0.00000
  50    .07753      154.3343        0.0011      397.8577      397.8589     243.524560      11.44307
  49    .09103      154.3335        0.0025      397.8418      397.8444     243.510892       8.54282
  48    0.1069      154.3326        0.0042      397.8230      397.8271     243.494571       8.68763
  47    0.1255      154.3315        0.0060      397.7997      397.8057     243.474165       9.25144
  46    0.1487      154.3302        0.0084      397.7676      397.7760     243.445760      10.35393
  45    0.1794      154.3285        0.0116      397.7205      397.7321     243.403549      11.58778
  44    0.2165      154.3266        0.0154      397.6602      397.6756     243.349011      12.40648
  43    0.2613      154.3244        0.0198      397.5829      397.6027     243.278363      13.31688
  42    0.3336      154.3208        0.0271      397.4449      397.4720     243.151206      14.82524
  41    0.4307      154.3164        0.0367      397.2524      397.2891     242.972761      15.51540
  40    0.5894      154.3096        0.0522      396.9253      396.9775     242.667850      16.21478
  39     1.339      154.2873        0.1210      395.4254      395.5463     241.259022      15.86084
  38     1.782      154.2805        0.1595      394.7288      394.8883     240.607773      12.39873
  37     2.292      154.2780        0.2033      394.0572      394.2604     239.982406      10.35771
  36     2.964      154.2828        0.2601      393.3007      393.5608     239.277943       8.84315
  35     3.853      154.3003        0.3343      392.4318      392.7661     238.465830       7.70710
  34     5.035      154.3345        0.4320      391.4441      391.8760     237.541503       6.60301
  33     6.613      154.3864        0.5612      390.3268      390.8880     236.501550       5.55959
  32     8.786      154.4523        0.7341      389.0624      389.7965     235.344118       4.49505
  31     11.80      154.5287        0.9793      387.5500      388.5292     234.000561       3.76153
  30     15.07      154.5895        1.2402      386.1556      387.3958     232.806302       3.08335
  29     18.79      154.6395        1.5326      384.7502      386.2828     231.643242       2.63701
  28     23.16      154.6763        1.8711      383.2686      385.1398     230.463452       2.28133
  27     28.12      154.6931        2.2550      381.7329      383.9879     229.294727       1.98675
  26     33.73      154.6747        2.6812      380.1982      382.8793     228.204594       1.63904
  25     40.54      154.6094        3.1920      378.5384      381.7304     227.120962       1.34437
  24     48.69      154.4896        3.8020      376.7214      380.5235     226.033882       1.12496
  23     57.69      154.3188        4.4654      374.8959      379.3613     225.042546       0.92923
  22     68.43      154.0734        5.2469      372.8999      378.1469     224.073501       0.76180
  21     81.20      153.7230        6.1673      370.7496      376.9170     223.193977       0.58118
  20     96.49      153.2537        7.2492      368.4056      375.6548     222.401098       0.43761
  19     114.6      152.6812        8.5114      365.7513      374.2627     221.581529       0.38268
  18     136.5      151.9939        9.9755      362.7231      372.6986     220.704630       0.33719
  17     162.9      151.1734       11.6747      359.1748      370.8495     219.676068       0.32877
  16     196.4      150.0938       13.8131      354.5718      368.3849     218.291032       0.34863
  15     218.7      149.3850       15.1782      351.4437      366.6219     217.236890       0.40022
  14     243.0      148.6208       16.6281      347.7111      364.3392     215.718407       0.52666
  13     269.0      147.8009       18.1603      342.9441      361.1045     213.303540       0.78337
  12     297.5      146.9260       19.7724      337.4137      357.1861     210.260129       0.90264
  11     328.5      145.9980       21.4651      331.1302      352.5954     206.597328       0.99591
  10     361.9      145.0201       23.2327      324.1219      347.3546     202.334457       1.07855
   9     398.1      143.9930       25.0736      316.6066      341.6802     197.687201       1.08271
   8     437.6      142.9216       26.9827      308.5895      335.5722     192.650573       1.07686
   7     480.5      141.8141       28.9535      299.9349      328.8884     187.074235       1.09517
   6     533.0      140.5112       31.2789      289.7021      320.9810     180.469790       1.06245
   5     589.8      139.1840       33.6681      279.3388      313.0068     173.822828       0.98663
   4     651.6      137.8550       36.1079      268.7786      304.8865     167.031440       0.92874
   3     718.7      136.5368       38.5881      258.2837      296.8717     160.334985       0.84156
   2     792.3      135.2445       41.0936      248.0774      289.1710     153.926477       0.73498
   1     891.5      133.7214       44.2451      235.5216      279.7667     146.045248       0.67065
   0    1013.0      132.3543       47.7019      221.4731      269.1750     136.820640       0.64051



 Wavenumbers:  2600. -  3250. cm-1, ATM      1
 LEVEL PRESSURE   UPWARD FLUX   DIFDOWN FLUX  DIRDOWN FLUX  DOWNWARD FLUX   NET FLUX    HEATING RATE
          mb          W/m2          W/m2          W/m2        W/m2          W/m2       degree/day
  51    .06700        0.2297        0.0000        3.5066        3.5066       3.276955       0.00000
  50    .07753        0.2297        0.0000        3.5066        3.5066       3.276947       0.00640
  49    .09103        0.2297        0.0000        3.5066        3.5066       3.276937       0.00627
  48    0.1069        0.2297        0.0000        3.5066        3.5066       3.276926       0.00613
  47    0.1255        0.2297        0.0000        3.5066        3.5066       3.276912       0.00599
  46    0.1487        0.2297        0.0000        3.5066        3.5066       3.276896       0.00607
  45    0.1794        0.2297        0.0000        3.5065        3.5065       3.276873       0.00624
  44    0.2165        0.2297        0.0000        3.5065        3.5065       3.276846       0.00611
  43    0.2613        0.2297        0.0000        3.5065        3.5065       3.276815       0.00598
  42    0.3336        0.2297        0.0000        3.5064        3.5064       3.276762       0.00615
  41    0.4307        0.2297        0.0000        3.5064        3.5064       3.276691       0.00618
  40    0.5894        0.2297        0.0000        3.5062        3.5062       3.276572       0.00633
  39     1.339        0.2297        0.0000        3.5055        3.5055       3.275873       0.00787
  38     1.782        0.2297        0.0000        3.5050        3.5050       3.275342       0.01011
  37     2.292        0.2297        0.0000        3.5043        3.5043       3.274650       0.01147
  36     2.964        0.2297        0.0000        3.5033        3.5033       3.273658       0.01245
  35     3.853        0.2297        0.0000        3.5019        3.5019       3.272281       0.01307
  34     5.035        0.2297        0.0000        3.5001        3.5001       3.270420       0.01329
  33     6.613        0.2297        0.0000        3.4977        3.4977       3.268011       0.01288
  32     8.786        0.2297        0.0000        3.4947        3.4947       3.265040       0.01154
  31     11.80        0.2297        0.0000        3.4911        3.4911       3.261404       0.01018
  30     15.07        0.2297        0.0000        3.4878        3.4878       3.258183       0.00832
  29     18.79        0.2297        0.0000        3.4848        3.4848       3.255120       0.00695
  28     23.16        0.2297        0.0000        3.4816        3.4816       3.251900       0.00623
  27     28.12        0.2297        0.0000        3.4779        3.4779       3.248283       0.00615
  26     33.73        0.2297        0.0000        3.4735        3.4735       3.243816       0.00671
  25     40.54        0.2297        0.0000        3.4671        3.4671       3.237491       0.00785
  24     48.69        0.2297        0.0000        3.4582        3.4583       3.228597       0.00920
  23     57.69        0.2297        0.0000        3.4472        3.4472       3.217549       0.01036
  22     68.43        0.2297        0.0000        3.4329        3.4329       3.203290       0.01121
  21     81.20        0.2297        0.0000        3.4152        3.4152       3.185563       0.01171
  20     96.49        0.2297        0.0000        3.3940        3.3941       3.164421       0.01167
  19     114.6        0.2297        0.0000        3.3692        3.3692       3.139533       0.01162
  18     136.5        0.2297        0.0001        3.3419        3.3420       3.112318       0.01046
  17     162.9        0.2297        0.0001        3.3129        3.3129       3.083248       0.00929
  16     196.4        0.2297        0.0001        3.2793        3.2794       3.049681       0.00845
  15     218.7        0.2298        0.0001        3.2578        3.2578       3.028069       0.00821
  14     243.0        0.2298        0.0001        3.2320        3.2320       3.002203       0.00897
  13     269.0        0.2300        0.0001        3.1968        3.1969       2.966965       0.01143
  12     297.5        0.2301        0.0001        3.1489        3.1490       2.918899       0.01426
  11     328.5        0.2304        0.0001        3.0821        3.0822       2.851739       0.01826
  10     361.9        0.2308        0.0001        2.9902        2.9904       2.759508       0.02334
   9     398.1        0.2314        0.0001        2.8715        2.8716       2.640176       0.02780
   8     437.6        0.2323        0.0001        2.7276        2.7278       2.495509       0.03093
   7     480.5        0.2335        0.0001        2.5595        2.5597       2.326150       0.03326
   6     533.0        0.2356        0.0001        2.3617        2.3619       2.126336       0.03214
   5     589.8        0.2385        0.0002        2.1649        2.1651       1.926590       0.02965
   4     651.6        0.2427        0.0002        1.9608        1.9609       1.718202       0.02850
   3     718.7        0.2485        0.0002        1.7593        1.7595       1.511004       0.02604
   2     792.3        0.2560        0.0002        1.5761        1.5762       1.320216       0.02188
   1     891.5        0.2689        0.0002        1.3714        1.3716       1.102666       0.01851
   0    1013.0        0.2923        0.0002        1.1584        1.1586       0.866272       0.01641



 Wavenumbers:  3250. -  4000. cm-1, ATM      1
 LEVEL PRESSURE   UPWARD FLUX   DIFDOWN FLUX  DIRDOWN FLUX  DOWNWARD FLUX   NET FLUX    HEATING RATE
          mb          W/m2          W/m2          W/m2        W/m2          W/m2       degree/day
  51    .06700        0.0004        0.0000        5.9117        5.9117       5.911238       0.00000
  50    .07753        0.0004        0.0000        5.9075        5.9075       5.907048       3.35808
  49    .09103        0.0004        0.0000        5.9050        5.9050       5.904605       1.52677
  48    0.1069        0.0004        0.0000        5.9032        5.9032       5.902739       0.99346
  47    0.1255        0.0004        0.0000        5.9014        5.9014       5.900981       0.79708
  46    0.1487        0.0004        0.0000        5.8995        5.8995       5.899092       0.68848
  45    0.1794        0.0004        0.0000        5.8974        5.8974       5.896944       0.58983
  44    0.2165        0.0004        0.0000        5.8952        5.8952       5.894827       0.48155
  43    0.2613        0.0004        0.0000        5.8931        5.8931       5.892668       0.40696
  42    0.3336        0.0004        0.0000        5.8899        5.8899       5.889510       0.36820
  41    0.4307        0.0004        0.0000        5.8861        5.8861       5.885672       0.33365
  40    0.5894        0.0004        0.0000        5.8803        5.8803       5.879870       0.30857
  39     1.339        0.0004        0.0000        5.8597        5.8597       5.859272       0.23189
  38     1.782        0.0004        0.0000        5.8513        5.8513       5.850848       0.16039
  37     2.292        0.0004        0.0000        5.8431        5.8431       5.842677       0.13533
  36     2.964        0.0004        0.0000        5.8334        5.8334       5.833037       0.12100
  35     3.853        0.0004        0.0000        5.8213        5.8213       5.820862       0.11555
  34     5.035        0.0004        0.0000        5.8052        5.8052       5.804766       0.11498
  33     6.613        0.0004        0.0000        5.7833        5.7834       5.782945       0.11666
  32     8.786        0.0004        0.0000        5.7531        5.7531       5.752744       0.11729
  31     11.80        0.0004        0.0000        5.7090        5.7090       5.708575       0.12366
  30     15.07        0.0004        0.0000        5.6615        5.6615       5.661110       0.12254
  29     18.79        0.0004        0.0000        5.6093        5.6094       5.608974       0.11821
  28     23.16        0.0004        0.0000        5.5524        5.5524       5.552049       0.11008
  27     28.12        0.0004        0.0000        5.4935        5.4935       5.493170       0.10009
  26     33.73        0.0004        0.0000        5.4348        5.4349       5.434481       0.08824
  25     40.54        0.0004        0.0001        5.3707        5.3708       5.370419       0.07948
  24     48.69        0.0004        0.0001        5.2985        5.2985       5.298186       0.07475
  23     57.69        0.0003        0.0001        5.2215        5.2216       5.221247       0.07212
  22     68.43        0.0003        0.0001        5.1318        5.1319       5.131587       0.07048
  21     81.20        0.0003        0.0001        5.0284        5.0285       5.028158       0.06834
  20     96.49        0.0003        0.0001        4.9122        4.9123       4.912024       0.06410
  19     114.6        0.0003        0.0001        4.7780        4.7782       4.777913       0.06262
  18     136.5        0.0002        0.0002        4.6285        4.6287       4.628434       0.05748
  17     162.9        0.0002        0.0002        4.4406        4.4407       4.440522       0.06006
  16     196.4        0.0002        0.0002        4.1548        4.1550       4.154848       0.07191
  15     218.7        0.0002        0.0002        3.9564        3.9566       3.956468       0.07532
  14     243.0        0.0001        0.0002        3.7055        3.7058       3.705633       0.08700
  13     269.0        0.0001        0.0002        3.3399        3.3401       3.339994       0.11861
  12     297.5        0.0001        0.0002        2.8954        2.8956       2.895505       0.13183
  11     328.5        0.0001        0.0002        2.4388        2.4390       2.438964       0.12413
  10     361.9        0.0001        0.0002        2.0269        2.0271       2.027026       0.10422
   9     398.1        0.0001        0.0002        1.6753        1.6755       1.675437       0.08191
   8     437.6        0.0000        0.0002        1.3592        1.3594       1.359319       0.06759
   7     480.5        0.0000        0.0002        1.0616        1.0618       1.061737       0.05844
   6     533.0        0.0000        0.0001        0.7543        0.7544       0.754404       0.04944
   5     589.8        0.0000        0.0001        0.4951        0.4952       0.495213       0.03847
   4     651.6        0.0000        0.0001        0.2943        0.2943       0.294319       0.02747
   3     718.7        0.0000        0.0001        0.1528        0.1529       0.152830       0.01778
   2     792.3        0.0000        0.0000        0.0658        0.0658       0.065808       0.00998
   1     891.5        0.0001        0.0000        0.0157        0.0157       0.015587       0.00427
   0    1013.0        0.0003        0.0000        0.0013        0.0013       0.001005       0.00101



 Wavenumbers:  4000. -  4650. cm-1, ATM      1
 LEVEL PRESSURE   UPWARD FLUX   DIFDOWN FLUX  DIRDOWN FLUX  DOWNWARD FLUX   NET FLUX    HEATING RATE
          mb          W/m2          W/m2          W/m2        W/m2          W/m2       degree/day
  51    .06700        0.9860        0.0000        6.9421        6.9421       5.956040       0.00000
  50    .07753        0.9860        0.0000        6.9421        6.9421       5.956039       0.00079
  49    .09103        0.9860        0.0000        6.9421        6.9421       5.956038       0.00078
  48    0.1069        0.9860        0.0000        6.9421        6.9421       5.956036       0.00076
  47    0.1255        0.9860        0.0000        6.9421        6.9421       5.956035       0.00074
  46    0.1487        0.9860        0.0000        6.9421        6.9421       5.956033       0.00075
  45    0.1794        0.9860        0.0000        6.9421        6.9421       5.956030       0.00077
  44    0.2165        0.9860        0.0000        6.9421        6.9421       5.956026       0.00076
  43    0.2613        0.9860        0.0000        6.9420        6.9420       5.956022       0.00074
  42    0.3336        0.9860        0.0000        6.9420        6.9420       5.956016       0.00076
  41    0.4307        0.9860        0.0000        6.9420        6.9420       5.956007       0.00077
  40    0.5894        0.9860        0.0000        6.9420        6.9420       5.955992       0.00079
  39     1.339        0.9860        0.0000        6.9419        6.9419       5.955903       0.00100
  38     1.782        0.9860        0.0000        6.9418        6.9419       5.955834       0.00132
  37     2.292        0.9860        0.0000        6.9418        6.9418       5.955741       0.00155
  36     2.964        0.9860        0.0000        6.9416        6.9416       5.955601       0.00175
  35     3.853        0.9860        0.0000        6.9414        6.9414       5.955395       0.00196
  34     5.035        0.9860        0.0000        6.9411        6.9411       5.955090       0.00218
  33     6.613        0.9860        0.0000        6.9406        6.9406       5.954642       0.00239
  32     8.786        0.9860        0.0000        6.9399        6.9400       5.953982       0.00256
  31     11.80        0.9860        0.0000        6.9389        6.9389       5.952948       0.00290
  30     15.07        0.9860        0.0001        6.9377        6.9377       5.951739       0.00312
  29     18.79        0.9860        0.0001        6.9362        6.9362       5.950281       0.00331
  28     23.16        0.9860        0.0001        6.9343        6.9344       5.948479       0.00349
  27     28.12        0.9859        0.0001        6.9321        6.9322       5.946307       0.00369
  26     33.73        0.9859        0.0001        6.9294        6.9296       5.943642       0.00401
  25     40.54        0.9859        0.0002        6.9258        6.9260       5.940050       0.00446
  24     48.69        0.9859        0.0002        6.9210        6.9212       5.935296       0.00492
  23     57.69        0.9859        0.0002        6.9154        6.9156       5.929705       0.00524
  22     68.43        0.9858        0.0003        6.9083        6.9086       5.922757       0.00546
  21     81.20        0.9858        0.0003        6.8998        6.9001       5.914264       0.00561
  20     96.49        0.9858        0.0004        6.8894        6.8898       5.904011       0.00566
  19     114.6        0.9858        0.0004        6.8765        6.8770       5.891183       0.00599
  18     136.5        0.9858        0.0005        6.8610        6.8615       5.875718       0.00595
  17     162.9        0.9858        0.0006        6.8417        6.8423       5.856496       0.00614
  16     196.4        0.9858        0.0007        6.8147        6.8154       5.829560       0.00678
  15     218.7        0.9859        0.0008        6.7948        6.7956       5.809739       0.00753
  14     243.0        0.9861        0.0009        6.7698        6.7707       5.784620       0.00871
  13     269.0        0.9863        0.0010        6.7349        6.7358       5.749517       0.01139
  12     297.5        0.9868        0.0011        6.6869        6.6879       5.701183       0.01434
  11     328.5        0.9874        0.0012        6.6194        6.6206       5.633154       0.01850
  10     361.9        0.9883        0.0013        6.5295        6.5308       5.542484       0.02294
   9     398.1        0.9894        0.0014        6.4202        6.4216       5.432195       0.02569
   8     437.6        0.9910        0.0015        6.2962        6.2977       5.306739       0.02682
   7     480.5        0.9930        0.0016        6.1555        6.1571       5.164091       0.02802
   6     533.0        0.9964        0.0018        5.9675        5.9693       4.972909       0.03076
   5     589.8        1.0013        0.0019        5.7368        5.7387       4.737405       0.03496
   4     651.6        1.0083        0.0020        5.4662        5.4683       4.459959       0.03794
   3     718.7        1.0179        0.0022        5.1912        5.1933       4.175403       0.03576
   2     792.3        1.0304        0.0023        4.9395        4.9418       3.911383       0.03028
   1     891.5        1.0517        0.0024        4.6486        4.6511       3.599393       0.02655
   0    1013.0        1.0899        0.0026        4.3179        4.3205       3.230627       0.02561



 Wavenumbers:  4650. -  5150. cm-1, ATM      1
 LEVEL PRESSURE   UPWARD FLUX   DIFDOWN FLUX  DIRDOWN FLUX  DOWNWARD FLUX   NET FLUX    HEATING RATE
          mb          W/m2          W/m2          W/m2        W/m2          W/m2       degree/day
  51    .06700        0.6665        0.0000        6.5710        6.5710       5.904513       0.00000
  50    .07753        0.6665        0.0000        6.5708        6.5708       5.904277       0.18887
  49    .09103        0.6665        0.0000        6.5705        6.5705       5.903983       0.18362
  48    0.1069        0.6665        0.0000        6.5701        6.5701       5.903649       0.17806
  47    0.1255        0.6665        0.0000        6.5697        6.5697       5.903268       0.17238
  46    0.1487        0.6665        0.0000        6.5693        6.5693       5.902795       0.17268
  45    0.1794        0.6665        0.0000        6.5686        6.5686       5.902158       0.17473
  44    0.2165        0.6665        0.0000        6.5679        6.5679       5.901420       0.16788
  43    0.2613        0.6665        0.0000        6.5670        6.5670       5.900567       0.16078
  42    0.3336        0.6665        0.0000        6.5657        6.5657       5.899204       0.15894
  41    0.4307        0.6665        0.0000        6.5640        6.5640       5.897482       0.14971
  40    0.5894        0.6665        0.0000        6.5613        6.5613       5.894866       0.13913
  39     1.339        0.6665        0.0000        6.5516        6.5516       5.885088       0.11008
  38     1.782        0.6665        0.0000        6.5473        6.5473       5.880873       0.08026
  37     2.292        0.6665        0.0000        6.5434        6.5435       5.876986       0.06438
  36     2.964        0.6665        0.0000        6.5395        6.5395       5.873031       0.04964
  35     3.853        0.6665        0.0000        6.5355        6.5356       5.869089       0.03742
  34     5.035        0.6665        0.0000        6.5315        6.5315       5.865087       0.02859
  33     6.613        0.6664        0.0000        6.5271        6.5271       5.860693       0.02349
  32     8.786        0.6664        0.0000        6.5216        6.5216       5.855198       0.02134
  31     11.80        0.6664        0.0001        6.5135        6.5135       5.847120       0.02262
  30     15.07        0.6664        0.0001        6.5041        6.5042       5.837753       0.02418
  29     18.79        0.6664        0.0001        6.4925        6.4926       5.826239       0.02611
  28     23.16        0.6664        0.0001        6.4779        6.4780       5.811649       0.02821
  27     28.12        0.6664        0.0002        6.4599        6.4600       5.793677       0.03055
  26     33.73        0.6663        0.0002        6.4384        6.4386       5.772250       0.03222
  25     40.54        0.6663        0.0002        6.4112        6.4115       5.745132       0.03364
  24     48.69        0.6663        0.0003        6.3775        6.3778       5.711504       0.03480
  23     57.69        0.6663        0.0003        6.3404        6.3407       5.674426       0.03476
  22     68.43        0.6663        0.0004        6.2971        6.2975       5.631254       0.03394
  21     81.20        0.6662        0.0004        6.2483        6.2487       5.582464       0.03224
  20     96.49        0.6662        0.0005        6.1948        6.1954       5.529129       0.02944
  19     114.6        0.6662        0.0006        6.1381        6.1388       5.472543       0.02642
  18     136.5        0.6662        0.0007        6.0790        6.0797       5.413502       0.02270
  17     162.9        0.6663        0.0009        6.0160        6.0169       5.350636       0.02009
  16     196.4        0.6664        0.0010        5.9399        5.9409       5.274535       0.01916
  15     218.7        0.6665        0.0011        5.8896        5.8908       5.224309       0.01907
  14     243.0        0.6666        0.0013        5.8322        5.8334       5.166819       0.01994
  13     269.0        0.6669        0.0014        5.7624        5.7638       5.096893       0.02268
  12     297.5        0.6673        0.0015        5.6767        5.6782       5.010931       0.02550
  11     328.5        0.6679        0.0016        5.5726        5.5742       4.906315       0.02844
  10     361.9        0.6688        0.0018        5.4473        5.4491       4.780322       0.03188
   9     398.1        0.6700        0.0019        5.2995        5.3014       4.631424       0.03469
   8     437.6        0.6716        0.0021        5.1275        5.1295       4.457915       0.03710
   7     480.5        0.6739        0.0022        4.9290        4.9312       4.257308       0.03940
   6     533.0        0.6774        0.0023        4.6794        4.6817       4.004289       0.04070
   5     589.8        0.6824        0.0025        4.4188        4.4213       3.738836       0.03940
   4     651.6        0.6894        0.0026        4.1521        4.1547       3.465248       0.03741
   3     718.7        0.6988        0.0027        3.8929        3.8957       3.196852       0.03373
   2     792.3        0.7109        0.0028        3.6469        3.6497       2.938760       0.02960
   1     891.5        0.7316        0.0030        3.3535        3.3564       2.624804       0.02672
   0    1013.0        0.7671        0.0031        3.0383        3.0414       2.274332       0.02434



 Wavenumbers:  5150. -  6150. cm-1, ATM      1
 LEVEL PRESSURE   UPWARD FLUX   DIFDOWN FLUX  DIRDOWN FLUX  DOWNWARD FLUX   NET FLUX    HEATING RATE
          mb          W/m2          W/m2          W/m2        W/m2          W/m2       degree/day
  51    .06700        1.8022        0.0000       16.4735       16.4735      14.671312       0.00000
  50    .07753        1.8022        0.0000       16.4735       16.4735      14.671278       0.02761
  49    .09103        1.8022        0.0000       16.4734       16.4734      14.671233       0.02811
  48    0.1069        1.8022        0.0000       16.4734       16.4734      14.671179       0.02859
  47    0.1255        1.8022        0.0000       16.4733       16.4733      14.671115       0.02904
  46    0.1487        1.8022        0.0000       16.4732       16.4732      14.671031       0.03060
  45    0.1794        1.8022        0.0000       16.4731       16.4731      14.670912       0.03269
  44    0.2165        1.8022        0.0000       16.4730       16.4730      14.670766       0.03331
  43    0.2613        1.8022        0.0000       16.4728       16.4728      14.670587       0.03376
  42    0.3336        1.8022        0.0000       16.4725       16.4725      14.670281       0.03564
  41    0.4307        1.8022        0.0000       16.4720       16.4720      14.669862       0.03645
  40    0.5894        1.8022        0.0000       16.4713       16.4713      14.669160       0.03729
  39     1.339        1.8022        0.0000       16.4679       16.4679      14.665752       0.03838
  38     1.782        1.8022        0.0000       16.4659       16.4659      14.663752       0.03807
  37     2.292        1.8021        0.0001       16.4635       16.4636      14.661461       0.03795
  36     2.964        1.8021        0.0001       16.4605       16.4606      14.658491       0.03728
  35     3.853        1.8021        0.0001       16.4567       16.4568      14.654638       0.03657
  34     5.035        1.8021        0.0001       16.4516       16.4517      14.649641       0.03570
  33     6.613        1.8021        0.0002       16.4451       16.4452      14.643180       0.03454
  32     8.786        1.8020        0.0002       16.4367       16.4369      14.634867       0.03228
  31     11.80        1.8020        0.0003       16.4254       16.4257      14.623716       0.03122
  30     15.07        1.8019        0.0004       16.4141       16.4145      14.612628       0.02863
  29     18.79        1.8018        0.0005       16.4024       16.4029      14.601106       0.02612
  28     23.16        1.8017        0.0006       16.3900       16.3906      14.588843       0.02371
  27     28.12        1.8016        0.0007       16.3771       16.3778      14.576178       0.02153
  26     33.73        1.8015        0.0009       16.3641       16.3650      14.563449       0.01914
  25     40.54        1.8014        0.0010       16.3502       16.3512      14.549807       0.01693
  24     48.69        1.8013        0.0013       16.3354       16.3366      14.535330       0.01498
  23     57.69        1.8011        0.0015       16.3211       16.3226      14.521428       0.01303
  22     68.43        1.8010        0.0018       16.3062       16.3080      14.507036       0.01131
  21     81.20        1.8008        0.0021       16.2903       16.2924      14.491640       0.01017
  20     96.49        1.8005        0.0025       16.2726       16.2751      14.474562       0.00943
  19     114.6        1.8003        0.0029       16.2521       16.2550      14.454743       0.00925
  18     136.5        1.8000        0.0035       16.2245       16.2280      14.428076       0.01025
  17     162.9        1.7996        0.0042       16.1747       16.1789      14.379284       0.01560
  16     196.4        1.7992        0.0050       16.0518       16.0568      14.257670       0.03061
  15     218.7        1.7989        0.0055       15.8984       15.9039      14.105013       0.05796
  14     243.0        1.7986        0.0060       15.6153       15.6213      13.822700       0.09792
  13     269.0        1.7984        0.0065       15.1390       15.1455      13.347176       0.15426
  12     297.5        1.7982        0.0070       14.5779       14.5849      12.786737       0.16622
  11     328.5        1.7981        0.0075       13.8780       13.8855      12.087390       0.19015
  10     361.9        1.7982        0.0079       13.0814       13.0893      11.291128       0.20146
   9     398.1        1.7984        0.0082       12.2728       12.2810      10.482598       0.18837
   8     437.6        1.7990        0.0085       11.4776       11.4861       9.687049       0.17009
   7     480.5        1.8001        0.0087       10.7300       10.7387       8.938666       0.14698
   6     533.0        1.8021        0.0091       10.0326       10.0417       8.239616       0.11245
   5     589.8        1.8054        0.0095        9.5050        9.5145       7.709178       0.07873
   4     651.6        1.8106        0.0100        9.0814        9.0914       7.280827       0.05858
   3     718.7        1.8182        0.0107        8.7024        8.7131       6.894866       0.04850
   2     792.3        1.8287        0.0113        8.3379        8.3493       6.520590       0.04293
   1     891.5        1.8481        0.0122        7.9064        7.9186       6.070484       0.03830
   0    1013.0        1.8880        0.0131        7.4741        7.4872       5.599238       0.03272



 Wavenumbers:  6150. -  7700. cm-1, ATM      1
 LEVEL PRESSURE   UPWARD FLUX   DIFDOWN FLUX  DIRDOWN FLUX  DOWNWARD FLUX   NET FLUX    HEATING RATE
          mb          W/m2          W/m2          W/m2        W/m2          W/m2       degree/day
  51    .06700        2.6637        0.0000       30.4684       30.4684      27.804707       0.00000
  50    .07753        2.6637        0.0000       30.4683       30.4683      27.804655       0.04144
  49    .09103        2.6637        0.0000       30.4683       30.4683      27.804588       0.04174
  48    0.1069        2.6637        0.0000       30.4682       30.4682      27.804510       0.04202
  47    0.1255        2.6637        0.0000       30.4681       30.4681      27.804416       0.04227
  46    0.1487        2.6637        0.0000       30.4680       30.4680      27.804295       0.04411
  45    0.1794        2.6637        0.0000       30.4678       30.4678      27.804125       0.04669
  44    0.2165        2.6637        0.0000       30.4676       30.4676      27.803918       0.04715
  43    0.2613        2.6637        0.0000       30.4673       30.4673      27.803666       0.04744
  42    0.3336        2.6636        0.0000       30.4669       30.4669      27.803240       0.04974
  41    0.4307        2.6636        0.0000       30.4663       30.4663      27.802659       0.05052
  40    0.5894        2.6636        0.0001       30.4653       30.4653      27.801691       0.05146
  39     1.339        2.6635        0.0001       30.4604       30.4606      27.797007       0.05273
  38     1.782        2.6635        0.0002       30.4576       30.4578      27.794257       0.05235
  37     2.292        2.6635        0.0002       30.4543       30.4546      27.791099       0.05231
  36     2.964        2.6634        0.0003       30.4501       30.4504      27.786992       0.05156
  35     3.853        2.6633        0.0004       30.4445       30.4449      27.781635       0.05084
  34     5.035        2.6632        0.0005       30.4373       30.4378      27.774635       0.05000
  33     6.613        2.6630        0.0007       30.4278       30.4285      27.765487       0.04890
  32     8.786        2.6628        0.0009       30.4154       30.4163      27.753535       0.04642
  31     11.80        2.6625        0.0013       30.3984       30.3996      27.737149       0.04587
  30     15.07        2.6622        0.0016       30.3810       30.3826      27.720436       0.04315
  29     18.79        2.6618        0.0020       30.3623       30.3643      27.702535       0.04059
  28     23.16        2.6614        0.0025       30.3417       30.3442      27.682852       0.03806
  27     28.12        2.6609        0.0031       30.3196       30.3226      27.661753       0.03587
  26     33.73        2.6603        0.0037       30.2965       30.3001      27.639834       0.03295
  25     40.54        2.6596        0.0044       30.2708       30.2751      27.615497       0.03019
  24     48.69        2.6588        0.0053       30.2423       30.2475      27.588721       0.02771
  23     57.69        2.6579        0.0062       30.2139       30.2201      27.562156       0.02490
  22     68.43        2.6569        0.0074       30.1834       30.1907      27.533881       0.02223
  21     81.20        2.6556        0.0088       30.1500       30.1588      27.503153       0.02030
  20     96.49        2.6541        0.0104       30.1126       30.1230      27.468937       0.01889
  19     114.6        2.6523        0.0123       30.0695       30.0818      27.429553       0.01839
  18     136.5        2.6502        0.0146       30.0139       30.0286      27.378401       0.01967
  17     162.9        2.6476        0.0174       29.9225       29.9399      27.292229       0.02754
  16     196.4        2.6444        0.0209       29.7333       29.7542      27.109852       0.04591
  15     218.7        2.6423        0.0231       29.5259       29.5490      26.906734       0.07712
  14     243.0        2.6400        0.0255       29.1375       29.1629      26.522926       0.13312
  13     269.0        2.6377        0.0277       28.3800       28.4077      25.769988       0.24425
  12     297.5        2.6355        0.0298       27.3895       27.4193      24.783883       0.29247
  11     328.5        2.6333        0.0318       26.2257       26.2575      23.624161       0.31533
  10     361.9        2.6314        0.0336       24.8453       24.8789      22.247447       0.34832
   9     398.1        2.6300        0.0351       23.3471       23.3822      20.752130       0.34838
   8     437.6        2.6294        0.0364       21.7966       21.8330      19.203655       0.33107
   7     480.5        2.6300        0.0374       20.1977       20.2351      17.605079       0.31395
   6     533.0        2.6331        0.0383       18.4969       18.5353      15.902165       0.27394
   5     589.8        2.6399        0.0393       16.9754       17.0147      14.374793       0.22671
   4     651.6        2.6523        0.0402       15.6022       15.6424      12.990068       0.18936
   3     718.7        2.6718        0.0413       14.4232       14.4645      11.792754       0.15047
   2     792.3        2.6994        0.0427       13.4386       13.4813      10.781915       0.11593
   1     891.5        2.7513        0.0445       12.3736       12.4181       9.666811       0.09489
   0    1013.0        2.8569        0.0465       11.2911       11.3377       8.480834       0.08235



 Wavenumbers:  7700. -  8050. cm-1, ATM      1
 LEVEL PRESSURE   UPWARD FLUX   DIFDOWN FLUX  DIRDOWN FLUX  DOWNWARD FLUX   NET FLUX    HEATING RATE
          mb          W/m2          W/m2          W/m2        W/m2          W/m2       degree/day
  51    .06700        1.3814        0.0000        7.2006        7.2006       5.819177       0.00000
  50    .07753        1.3814        0.0000        7.2006        7.2006       5.819159       0.01492
  49    .09103        1.3814        0.0000        7.2005        7.2005       5.819135       0.01462
  48    0.1069        1.3814        0.0000        7.2005        7.2005       5.819108       0.01431
  47    0.1255        1.3814        0.0000        7.2005        7.2005       5.819077       0.01400
  46    0.1487        1.3814        0.0000        7.2004        7.2005       5.819038       0.01421
  45    0.1794        1.3814        0.0000        7.2004        7.2004       5.818985       0.01462
  44    0.2165        1.3814        0.0000        7.2003        7.2003       5.818922       0.01434
  43    0.2613        1.3814        0.0000        7.2003        7.2003       5.818848       0.01407
  42    0.3336        1.3814        0.0000        7.2001        7.2001       5.818724       0.01440
  41    0.4307        1.3814        0.0000        7.2000        7.2000       5.818560       0.01424
  40    0.5894        1.3814        0.0000        7.1997        7.1997       5.818293       0.01423
  39     1.339        1.3815        0.0001        7.1984        7.1985       5.817028       0.01424
  38     1.782        1.3815        0.0001        7.1977        7.1978       5.816285       0.01414
  37     2.292        1.3815        0.0001        7.1968        7.1969       5.815425       0.01424
  36     2.964        1.3815        0.0001        7.1957        7.1958       5.814297       0.01416
  35     3.853        1.3816        0.0002        7.1942        7.1944       5.812807       0.01414
  34     5.035        1.3816        0.0002        7.1922        7.1925       5.810830       0.01413
  33     6.613        1.3817        0.0003        7.1896        7.1899       5.808192       0.01411
  32     8.786        1.3818        0.0004        7.1860        7.1864       5.804642       0.01379
  31     11.80        1.3819        0.0005        7.1810        7.1815       5.799575       0.01419
  30     15.07        1.3821        0.0007        7.1755        7.1762       5.794151       0.01400
  29     18.79        1.3822        0.0008        7.1694        7.1703       5.788044       0.01385
  28     23.16        1.3824        0.0010        7.1623        7.1633       5.780938       0.01374
  27     28.12        1.3826        0.0012        7.1542        7.1555       5.772850       0.01375
  26     33.73        1.3829        0.0015        7.1452        7.1467       5.763846       0.01354
  25     40.54        1.3832        0.0018        7.1344        7.1362       5.753036       0.01341
  24     48.69        1.3835        0.0021        7.1215        7.1236       5.740102       0.01338
  23     57.69        1.3839        0.0025        7.1074        7.1100       5.726018       0.01320
  22     68.43        1.3844        0.0030        7.0909        7.0938       5.709412       0.01305
  21     81.20        1.3850        0.0035        7.0713        7.0749       5.689862       0.01292
  20     96.49        1.3857        0.0042        7.0484        7.0526       5.666892       0.01268
  19     114.6        1.3866        0.0049        7.0217        7.0266       5.640063       0.01253
  18     136.5        1.3876        0.0059        6.9906        6.9964       5.608861       0.01200
  17     162.9        1.3888        0.0069        6.9544        6.9613       5.572503       0.01162
  16     196.4        1.3905        0.0083        6.9087        6.9171       5.526580       0.01156
  15     218.7        1.3916        0.0093        6.8794        6.8887       5.497063       0.01121
  14     243.0        1.3929        0.0102        6.8481        6.8584       5.465500       0.01095
  13     269.0        1.3942        0.0113        6.8147        6.8260       5.431782       0.01094
  12     297.5        1.3958        0.0125        6.7791        6.7915       5.395735       0.01069
  11     328.5        1.3976        0.0137        6.7409        6.7547       5.357085       0.01051
  10     361.9        1.3996        0.0150        6.7002        6.7152       5.315618       0.01049
   9     398.1        1.4019        0.0165        6.6563        6.6727       5.270852       0.01043
   8     437.6        1.4046        0.0180        6.6089        6.6268       5.222290       0.01038
   7     480.5        1.4077        0.0196        6.5570        6.5766       5.168901       0.01049
   6     533.0        1.4120        0.0216        6.4915        6.5131       5.101039       0.01092
   5     589.8        1.4173        0.0237        6.4182        6.4419       5.024628       0.01134
   4     651.6        1.4238        0.0260        6.3359        6.3618       4.938010       0.01185
   3     718.7        1.4317        0.0283        6.2441        6.2725       4.840737       0.01222
   2     792.3        1.4411        0.0308        6.1437        6.1746       4.733417       0.01231
   1     891.5        1.4555        0.0341        6.0042        6.0383       4.582808       0.01282
   0    1013.0        1.4762        0.0379        5.8249        5.8628       4.386609       0.01362



 Wavenumbers:  8050. - 12850. cm-1, ATM      1
 LEVEL PRESSURE   UPWARD FLUX   DIFDOWN FLUX  DIRDOWN FLUX  DOWNWARD FLUX   NET FLUX    HEATING RATE
          mb          W/m2          W/m2          W/m2        W/m2          W/m2       degree/day
  51    .06700       18.1533        0.0000      100.8135      100.8135      82.660225       0.00000
  50    .07753       18.1533        0.0000      100.8135      100.8135      82.660225       0.00000
  49    .09103       18.1532        0.0001      100.8134      100.8135      82.660225      -0.00000
  48    0.1069       18.1532        0.0001      100.8134      100.8134      82.660225       0.00000
  47    0.1255       18.1532        0.0001      100.8133      100.8134      82.660225      -0.00000
  46    0.1487       18.1531        0.0002      100.8132      100.8134      82.660225      -0.00000
  45    0.1794       18.1531        0.0002      100.8131      100.8133      82.660225       0.00000
  44    0.2165       18.1530        0.0003      100.8129      100.8132      82.660225      -0.00000
  43    0.2613       18.1529        0.0004      100.8127      100.8132      82.660225       0.00000
  42    0.3336       18.1528        0.0006      100.8125      100.8130      82.660225       0.00000
  41    0.4307       18.1526        0.0008      100.8121      100.8129      82.660225      -0.00000
  40    0.5894       18.1523        0.0011      100.8115      100.8126      82.660225      -0.00000
  39     1.339       18.1510        0.0027      100.8085      100.8112      82.660225       0.00000
  38     1.782       18.1502        0.0037      100.8068      100.8104      82.660225       0.00000
  37     2.292       18.1493        0.0048      100.8047      100.8095      82.660225       0.00000
  36     2.964       18.1481        0.0062      100.8021      100.8083      82.660225       0.00000
  35     3.853       18.1465        0.0081      100.7986      100.8067      82.660225       0.00000
  34     5.035       18.1444        0.0106      100.7940      100.8046      82.660225      -0.00000
  33     6.613       18.1415        0.0140      100.7878      100.8017      82.660225       0.00000
  32     8.786       18.1377        0.0185      100.7794      100.7979      82.660225       0.00000
  31     11.80       18.1322        0.0250      100.7674      100.7924      82.660225       0.00000
  30     15.07       18.1263        0.0320      100.7546      100.7865      82.660225       0.00000
  29     18.79       18.1197        0.0399      100.7400      100.7799      82.660225      -0.00000
  28     23.16       18.1119        0.0491      100.7230      100.7721      82.660225       0.00000
  27     28.12       18.1029        0.0597      100.7035      100.7632      82.660225       0.00000
  26     33.73       18.0930        0.0715      100.6817      100.7532      82.660225      -0.00000
  25     40.54       18.0809        0.0858      100.6552      100.7411      82.660225       0.00000
  24     48.69       18.0663        0.1031      100.6234      100.7265      82.660225      -0.00000
  23     57.69       18.0502        0.1222      100.5883      100.7104      82.660225       0.00000
  22     68.43       18.0311        0.1448      100.5464      100.6913      82.660225       0.00000
  21     81.20       18.0082        0.1719      100.4965      100.6684      82.660225      -0.00000
  20     96.49       17.9809        0.2042      100.4370      100.6411      82.660225       0.00000
  19     114.6       17.9485        0.2426      100.3585      100.6010      82.652551       0.00358
  18     136.5       17.9100        0.2881      100.2634      100.5515      82.641505       0.00425
  17     162.9       17.8641        0.3425      100.1407      100.4832      82.619081       0.00717
  16     196.4       17.8044        0.4131       99.9505      100.3636      82.559136       0.01509
  15     218.7       17.7652        0.4594       99.7889      100.2483      82.483157       0.02885
  14     243.0       17.7226        0.5097       99.5472      100.0569      82.334300       0.05163
  13     269.0       17.6767        0.5639       99.1452       99.7091      82.032350       0.09795
  12     297.5       17.6278        0.6219       98.5975       99.2194      81.591569       0.13073
  11     328.5       17.5760        0.6840       97.8659       98.5499      80.973858       0.16795
  10     361.9       17.5220        0.7499       96.8848       97.6347      80.112712       0.21788
   9     398.1       17.4663        0.8193       95.6330       96.4523      78.985982       0.26250
   8     437.6       17.4105        0.8918       94.0655       94.9572      77.546749       0.30772
   7     480.5       17.3575        0.9663       92.0807       93.0471      75.689636       0.36473
   6     533.0       17.3034        1.0540       89.4449       90.4989      73.195439       0.40124
   5     589.8       17.2616        1.1441       86.5544       87.6985      70.436856       0.40946
   4     651.6       17.2407        1.2361       83.4174       84.6535      67.412812       0.41355
   3     718.7       17.2456        1.3307       80.2037       81.5344      64.288810       0.39260
   2     792.3       17.2810        1.4286       77.0811       78.5097      61.228679       0.35096
   1     891.5       17.3919        1.5543       73.2645       74.8188      57.426914       0.32351
   0    1013.0       17.6888        1.6931       68.9425       70.6356      52.946780       0.31108



 Wavenumbers: 12850. - 16000. cm-1, ATM      1
 LEVEL PRESSURE   UPWARD FLUX   DIFDOWN FLUX  DIRDOWN FLUX  DOWNWARD FLUX   NET FLUX    HEATING RATE
          mb          W/m2          W/m2          W/m2        W/m2          W/m2       degree/day
  51    .06700       27.6963        0.0000       63.1686       63.1686      35.472251       0.00000
  50    .07753       27.6963        0.0001       63.1677       63.1678      35.471474       0.62344
  49    .09103       27.6963        0.0001       63.1666       63.1668      35.470505       0.60566
  48    0.1069       27.6962        0.0002       63.1654       63.1656      35.469402       0.58705
  47    0.1255       27.6962        0.0003       63.1640       63.1643      35.468148       0.56833
  46    0.1487       27.6961        0.0004       63.1623       63.1627      35.466586       0.56952
  45    0.1794       27.6960        0.0006       63.1600       63.1605      35.464492       0.57476
  44    0.2165       27.6960        0.0007       63.1573       63.1580      35.462073       0.55028
  43    0.2613       27.6959        0.0010       63.1542       63.1552      35.459286       0.52538
  42    0.3336       27.6958        0.0013       63.1493       63.1506      35.454851       0.51704
  41    0.4307       27.6956        0.0018       63.1431       63.1450      35.449315       0.48138
  40    0.5894       27.6955        0.0026       63.1338       63.1364      35.440951       0.44477
  39     1.339       27.6957        0.0063       63.0956       63.1019      35.406179       0.39146
  38     1.782       27.6966        0.0085       63.0740       63.0825      35.385936       0.38540
  37     2.292       27.6983        0.0110       63.0477       63.0587      35.360394       0.42305
  36     2.964       27.7016        0.0143       63.0095       63.0239      35.322276       0.47849
  35     3.853       27.7074        0.0187       62.9533       62.9720      35.264545       0.54788
  34     5.035       27.7166        0.0245       62.8725       62.8970      35.180381       0.60123
  33     6.613       27.7297        0.0322       62.7621       62.7943      35.064626       0.61882
  32     8.786       27.7465        0.0426       62.6182       62.6609      34.914410       0.58339
  31     11.80       27.7676        0.0575       62.4284       62.4858      34.718215       0.54929
  30     15.07       27.7870        0.0734       62.2426       62.3160      34.529012       0.48848
  29     18.79       27.8058        0.0913       62.0493       62.1406      34.334779       0.44039
  28     23.16       27.8243        0.1122       61.8424       61.9546      34.130282       0.39543
  27     28.12       27.8415        0.1360       61.6278       61.7638      33.922344       0.35348
  26     33.73       27.8548        0.1626       61.4177       61.5803      33.725446       0.29604
  25     40.54       27.8642        0.1946       61.1983       61.3929      33.528742       0.24403
  24     48.69       27.8690        0.2332       60.9680       61.2012      33.332212       0.20338
  23     57.69       27.8680        0.2756       60.7478       61.0233      33.155398       0.16574
  22     68.43       27.8599        0.3259       60.5202       60.8461      32.986221       0.13300
  21     81.20       27.8408        0.3858       60.2938       60.6796      32.838797       0.09742
  20     96.49       27.8095        0.4572       60.0643       60.5214      32.711907       0.07003
  19     114.6       27.7731        0.5423       59.8078       60.3501      32.577021       0.06298
  18     136.5       27.7259        0.6430       59.5157       60.1587      32.432856       0.05543
  17     162.9       27.6660        0.7625       59.1770       59.9396      32.273585       0.05091
  16     196.4       27.5806        0.9171       58.7604       59.6775      32.096907       0.04447
  15     218.7       27.5218        1.0183       58.4948       59.5131      31.991310       0.04009
  14     243.0       27.4566        1.1281       58.2089       59.3370      31.880320       0.03850
  13     269.0       27.3850        1.2467       57.9006       59.1473      31.762307       0.03828
  12     297.5       27.3067        1.3745       57.5668       58.9413      31.634606       0.03787
  11     328.5       27.2224        1.5122       57.2005       58.7127      31.490331       0.03923
  10     361.9       27.1324        1.6600       56.7963       58.4563      31.323891       0.04211
   9     398.1       27.0371        1.8183       56.3475       58.1658      31.128723       0.04547
   8     437.6       26.9376        1.9875       55.8422       57.8297      30.892050       0.05060
   7     480.5       26.8362        2.1674       55.2625       57.4299      30.593766       0.05858
   6     533.0       26.7201        2.3868       54.4972       56.8839      30.163806       0.06917
   5     589.8       26.6061        2.6198       53.6307       56.2505      29.644391       0.07710
   4     651.6       26.4987        2.8656       52.6606       55.5262      29.027519       0.08436
   3     718.7       26.4000        3.1245       51.6100       54.7345      28.334513       0.08709
   2     792.3       26.3131        3.3962       50.5019       53.8980      27.584956       0.08597
   1     891.5       26.2335        3.7535       49.0197       52.7732      26.539696       0.08895
   0    1013.0       26.2142        4.1666       47.2289       51.3955      25.181264       0.09432



 Wavenumbers: 16000. - 22650. cm-1, ATM      1
 LEVEL PRESSURE   UPWARD FLUX   DIFDOWN FLUX  DIRDOWN FLUX  DOWNWARD FLUX   NET FLUX    HEATING RATE
          mb          W/m2          W/m2          W/m2        W/m2          W/m2       degree/day
  51    .06700       66.5742        0.0000      100.7153      100.7153      34.141094       0.00000
  50    .07753       66.5741        0.0003      100.7147      100.7150      34.140981       0.09051
  49    .09103       66.5739        0.0007      100.7140      100.7147      34.140817       0.10266
  48    0.1069       66.5737        0.0012      100.7131      100.7143      34.140597       0.11706
  47    0.1255       66.5735        0.0017      100.7121      100.7138      34.140303       0.13343
  46    0.1487       66.5733        0.0024      100.7108      100.7131      34.139869       0.15812
  45    0.1794       66.5730        0.0033      100.7089      100.7121      34.139191       0.18617
  44    0.2165       66.5726        0.0043      100.7066      100.7109      34.138271       0.20923
  43    0.2613       66.5723        0.0056      100.7037      100.7093      34.137023       0.23522
  42    0.3336       66.5718        0.0077      100.6987      100.7064      34.134651       0.27661
  41    0.4307       66.5712        0.0105      100.6918      100.7023      34.131075       0.31093
  40    0.5894       66.5705        0.0150      100.6797      100.6948      34.124255       0.36267
  39     1.339       66.5722        0.0366      100.6095      100.6461      34.073880       0.56713
  38     1.782       66.5767        0.0492      100.5585      100.6077      34.030980       0.81673
  37     2.292       66.5852        0.0639      100.4903      100.5541      33.968905       1.02813
  36     2.964       66.6014        0.0830      100.3868      100.4698      33.868395       1.26171
  35     3.853       66.6299        0.1084      100.2306      100.3390      33.709036       1.51234
  34     5.035       66.6748        0.1419      100.0045      100.1464      33.471572       1.69635
  33     6.613       66.7384        0.1867       99.6939       99.8806      33.142126       1.76122
  32     8.786       66.8205        0.2469       99.2881       99.5349      32.714417       1.66107
  31     11.80       66.9242        0.3326       98.7496       99.0822      32.158032       1.55770
  30     15.07       67.0196        0.4244       98.2198       98.6442      31.624601       1.37721
  29     18.79       67.1131        0.5277       97.6651       98.1928      31.079728       1.23539
  28     23.16       67.2057        0.6478       97.0671       97.7150      30.509245       1.10313
  27     28.12       67.2924        0.7847       96.4406       97.2252      29.932842       0.97985
  26     33.73       67.3617        0.9373       95.8179       96.7551      29.393460       0.81098
  25     40.54       67.4134        1.1209       95.1548       96.2758      28.862365       0.65888
  24     48.69       67.4448        1.3415       94.4420       95.7835      28.338638       0.54198
  23     57.69       67.4495        1.5827       93.7416       95.3243      27.874814       0.43477
  22     68.43       67.4229        1.8687       92.9954       94.8640      27.441090       0.34097
  21     81.20       67.3474        2.2079       92.2231       94.4311      27.083686       0.23617
  20     96.49       67.2169        2.6102       91.4110       94.0212      26.804278       0.15421
  19     114.6       67.0423        3.0844       90.5070       93.5914      26.549121       0.11914
  18     136.5       66.8225        3.6414       89.4803       93.1217      26.299166       0.09611
  17     162.9       66.5500        4.2978       88.3022       92.6000      26.049957       0.07966
  16     196.4       66.1722        5.1386       86.8606       91.9992      25.827005       0.05612
  15     218.7       65.9159        5.6844       85.9492       91.6336      25.717688       0.04150
  14     243.0       65.6345        6.2720       84.9789       91.2510      25.616523       0.03509
  13     269.0       65.3267        6.9023       83.9493       90.8516      25.524925       0.02971
  12     297.5       64.9918        7.5759       82.8589       90.4348      25.442999       0.02430
  11     328.5       64.6307        8.2950       81.6982       89.9932      25.362584       0.02186
  10     361.9       64.2431        9.0593       80.4669       89.5263      25.283177       0.02009
   9     398.1       63.8281        9.8706       79.1611       89.0317      25.203619       0.01854
   8     437.6       63.3858       10.7288       77.7777       88.5065      25.120759       0.01772
   7     480.5       62.9162       11.6341       76.3136       87.9478      25.031608       0.01751
   6     533.0       62.3453       12.7281       74.5359       87.2640      24.918717       0.01816
   5     589.8       61.7398       13.8824       72.6469       86.5293      24.789521       0.01918
   4     651.6       61.1014       15.0946       70.6456       85.7402      24.638760       0.02062
   3     718.7       60.4303       16.3622       68.5367       84.8989      24.468608       0.02138
   2     792.3       59.7289       17.6797       66.3287       84.0083      24.279426       0.02170
   1     891.5       58.8130       19.3932       63.4246       82.8178      24.004839       0.02337
   0    1013.0       57.7624       21.3531       60.0483       81.4015      23.639040       0.02540



 Wavenumbers: 22650. - 29000. cm-1, ATM      1
 LEVEL PRESSURE   UPWARD FLUX   DIFDOWN FLUX  DIRDOWN FLUX  DOWNWARD FLUX   NET FLUX    HEATING RATE
          mb          W/m2          W/m2          W/m2        W/m2          W/m2       degree/day
  51    .06700       29.5820        0.0000       38.0063       38.0063       8.424250       0.00000
  50    .07753       29.5819        0.0004       38.0057       38.0061       8.424250       0.00000
  49    .09103       29.5816        0.0008       38.0050       38.0059       8.424250       0.00000
  48    0.1069       29.5814        0.0014       38.0042       38.0056       8.424250      -0.00000
  47    0.1255       29.5811        0.0020       38.0033       38.0053       8.424250       0.00000
  46    0.1487       29.5807        0.0028       38.0022       38.0049       8.424250       0.00000
  45    0.1794       29.5802        0.0038       38.0006       38.0044       8.424250      -0.00000
  44    0.2165       29.5796        0.0051       37.9987       38.0038       8.424250       0.00000
  43    0.2613       29.5788        0.0066       37.9965       38.0031       8.424250       0.00000
  42    0.3336       29.5776        0.0090       37.9928       38.0019       8.424250      -0.00000
  41    0.4307       29.5760        0.0123       37.9880       38.0003       8.424250       0.00000
  40    0.5894       29.5734        0.0176       37.9800       37.9977       8.424250      -0.00000
  39     1.339       29.5611        0.0428       37.9425       37.9853       8.424250       0.00000
  38     1.782       29.5538        0.0576       37.9204       37.9781       8.424250      -0.00000
  37     2.292       29.5454        0.0748       37.8949       37.9697       8.424250       0.00000
  36     2.964       29.5344        0.0972       37.8614       37.9587       8.424250       0.00000
  35     3.853       29.5199        0.1269       37.8172       37.9441       8.424250      -0.00000
  34     5.035       29.5006        0.1663       37.7586       37.9248       8.424250       0.00000
  33     6.613       29.4748        0.2188       37.6803       37.8991       8.424250       0.00000
  32     8.786       29.4402        0.2894       37.5750       37.8644       8.424250      -0.00000
  31     11.80       29.3907        0.3901       37.4249       37.8150       8.424250       0.00000
  30     15.07       29.3378        0.4978       37.2642       37.7620       8.424250      -0.00000
  29     18.79       29.2781        0.6190       37.0833       37.7024       8.424250       0.00000
  28     23.16       29.2087        0.7599       36.8730       37.6329       8.424250      -0.00000
  27     28.12       29.1296        0.9201       36.6338       37.5539       8.424250       0.00000
  26     33.73       29.0416        1.0982       36.3677       37.4659       8.424250       0.00000
  25     40.54       28.9359        1.3116       36.0486       37.3601       8.424250      -0.00000
  24     48.69       28.8094        1.5664       35.6672       37.2336       8.424250       0.00000
  23     57.69       28.6716        1.8431       35.2527       37.0958       8.424250       0.00000
  22     68.43       28.5091        2.1684       34.7649       36.9333       8.424250      -0.00000
  21     81.20       28.3178        2.5498       34.1922       36.7420       8.424250       0.00000
  20     96.49       28.0931        2.9956       33.5217       36.5174       8.424250      -0.00000
  19     114.6       27.8310        3.5128       32.7424       36.2552       8.424250       0.00000
  18     136.5       27.5265        4.1092       31.8416       35.9508       8.424250      -0.00000
  17     162.9       27.1728        4.7962       30.8008       35.5970       8.424250       0.00000
  16     196.4       26.7276        5.6512       29.5007       35.1519       8.424250      -0.00000
  15     218.7       26.4435        6.1910       28.6767       34.8677       8.424250       0.00000
  14     243.0       26.1417        6.7591       27.8068       34.5659       8.424250      -0.00000
  13     269.0       25.8226        7.3535       26.8933       34.2469       8.424250       0.00000
  12     297.5       25.4869        7.9718       25.9393       33.9111       8.424250       0.00000
  11     328.5       25.1340        8.6132       24.9451       33.5583       8.424250      -0.00000
  10     361.9       24.7654        9.2737       23.9160       33.1897       8.424250       0.00000
   9     398.1       24.3810        9.9512       22.8541       32.8053       8.424250       0.00000
   8     437.6       23.9820       10.6417       21.7645       32.4062       8.424250      -0.00000
   7     480.5       23.5692       11.3413       20.6521       31.9934       8.424250       0.00000
   6     533.0       23.0808       12.1481       19.3569       31.5051       8.424250      -0.00000
   5     589.8       22.5773       12.9548       18.0467       31.0015       8.424250       0.00000
   4     651.6       22.0607       13.7533       16.7316       30.4850       8.424250      -0.00000
   3     718.7       21.5330       14.5359       15.4214       29.9573       8.424250      -0.00000
   2     792.3       20.9969       15.2936       14.1276       29.4212       8.424250       0.00000
   1     891.5       20.3168       16.1951       12.5459       28.7410       8.424250       0.00000
   0    1013.0       19.5586       17.1111       10.8717       27.9829       8.424250       0.00000



 Wavenumbers: 29000. - 38000. cm-1, ATM      1
 LEVEL PRESSURE   UPWARD FLUX   DIFDOWN FLUX  DIRDOWN FLUX  DOWNWARD FLUX   NET FLUX    HEATING RATE
          mb          W/m2          W/m2          W/m2        W/m2          W/m2       degree/day
  51    .06700        4.4290        0.0000       13.4026       13.4026       8.973636       0.00000
  50    .07753        4.4287        0.0003       13.3983       13.3986       8.969838       3.04396
  49    .09103        4.4285        0.0007       13.3921       13.3928       8.964320       3.44918
  48    0.1069        4.4282        0.0011       13.3840       13.3851       8.956944       3.92620
  47    0.1255        4.4278        0.0016       13.3733       13.3749       8.947101       4.46252
  46    0.1487        4.4274        0.0022       13.3579       13.3600       8.932661       5.26359
  45    0.1794        4.4268        0.0030       13.3340       13.3370       8.910264       6.14831
  44    0.2165        4.4261        0.0040       13.3024       13.3063       8.880250       6.82768
  43    0.2613        4.4253        0.0051       13.2604       13.2655       8.840202       7.54886
  42    0.3336        4.4241        0.0070       13.1833       13.1903       8.766209       8.62692
  41    0.4307        4.4225        0.0094       13.0729       13.0823       8.659857       9.24707
  40    0.5894        4.4200        0.0132       12.8796       12.8928       8.472852       9.94465
  39     1.339        4.4110        0.0293       11.9165       11.9458       7.534810      10.56065
  38     1.782        4.4073        0.0375       11.4399       11.4774       7.070080       8.84772
  37     2.292        4.4043        0.0462       10.9796       11.0258       6.621502       7.42962
  36     2.964        4.4022        0.0570       10.4786       10.5356       6.133433       6.12675
  35     3.853        4.4017        0.0702        9.9429       10.0131       5.611449       4.95372
  34     5.035        4.4034        0.0867        9.4007        9.4874       5.083999       3.76788
  33     6.613        4.4075        0.1076        8.8752        8.9829       4.575370       2.71913
  32     8.786        4.4132        0.1346        8.3786        8.5132       4.099920       1.84647
  31     11.80        4.4199        0.1715        7.8897        8.0612       3.641248       1.28414
  30     15.07        4.4252        0.2096        7.5108        7.7204       3.295229       0.89335
  29     18.79        4.4295        0.2510        7.1776        7.4287       2.999153       0.67129
  28     23.16        4.4327        0.2977        6.8664        7.1641       2.731396       0.51775
  27     28.12        4.4341        0.3492        6.5780        6.9272       2.493095       0.40510
  26     33.73        4.4315        0.4052        6.3195        6.7247       2.293188       0.30057
  25     40.54        4.4234        0.4713        6.0663        6.5376       2.114136       0.22213
  24     48.69        4.4092        0.5486        5.8128        6.3615       1.952261       0.16752
  23     57.69        4.3893        0.6310        5.5777        6.2087       1.819444       0.12450
  22     68.43        4.3610        0.7263        5.3379        6.0642       1.703195       0.09139
  21     81.20        4.3202        0.8367        5.0965        5.9331       1.612910       0.05966
  20     96.49        4.2658        0.9639        4.8476        5.8116       1.545823       0.03703
  19     114.6        4.2002        1.1079        4.5799        5.6877       1.487561       0.02720
  18     136.5        4.1242        1.2683        4.2891        5.5573       1.433097       0.02094
  17     162.9        4.0373        1.4455        3.9732        5.4187       1.381336       0.01654
  16     196.4        3.9276        1.6568        3.6080        5.2649       1.337258       0.01109
  15     218.7        3.8583        1.7849        3.3898        5.1747       1.316348       0.00794
  14     243.0        3.7860        1.9149        3.1686        5.0834       1.297435       0.00656
  13     269.0        3.7109        2.0457        2.9461        4.9917       1.280807       0.00539
  12     297.5        3.6335        2.1760        2.7239        4.8999       1.266470       0.00425
  11     328.5        3.5543        2.3045        2.5029        4.8074       1.253056       0.00365
  10     361.9        3.4739        2.4299        2.2846        4.7145       1.240581       0.00316
   9     398.1        3.3925        2.5508        2.0708        4.6215       1.229037       0.00269
   8     437.6        3.3106        2.6661        1.8626        4.5287       1.218176       0.00232
   7     480.5        3.2284        2.7744        1.6621        4.4365       1.208112       0.00198
   6     533.0        3.1346        2.8883        1.4437        4.3320       1.197425       0.00172
   5     589.8        3.0414        2.9898        1.2390        4.2288       1.187367       0.00149
   4     651.6        2.9493        3.0771        1.0500        4.1271       1.177798       0.00131
   3     718.7        2.8585        3.1494        0.8778        4.0272       1.168689       0.00114
   2     792.3        2.7692        3.2054        0.7237        3.9292       1.160020       0.00099
   1     891.5        2.6592        3.2525        0.5563        3.8088       1.149655       0.00088
   0    1013.0        2.5397        3.2744        0.4039        3.6783       1.138636       0.00077



 Wavenumbers: 38000. - 50000. cm-1, ATM      1
 LEVEL PRESSURE   UPWARD FLUX   DIFDOWN FLUX  DIRDOWN FLUX  DOWNWARD FLUX   NET FLUX    HEATING RATE
          mb          W/m2          W/m2          W/m2        W/m2          W/m2       degree/day
  51    .06700        0.0051        0.0000        0.8267        0.8267       0.821528       0.00000
  50    .07753        0.0051        0.0001        0.8242        0.8243       0.819196       1.86936
  49    .09103        0.0050        0.0002        0.8207        0.8209       0.815872       2.07705
  48    0.1069        0.0049        0.0002        0.8162        0.8164       0.811514       2.31984
  47    0.1255        0.0048        0.0004        0.8103        0.8106       0.805801       2.59006
  46    0.1487        0.0047        0.0005        0.8018        0.8023       0.797567       3.00143
  45    0.1794        0.0045        0.0007        0.7889        0.7896       0.785013       3.44648
  44    0.2165        0.0044        0.0009        0.7720        0.7729       0.768507       3.75474
  43    0.2613        0.0042        0.0011        0.7500        0.7511       0.746955       4.06246
  42    0.3336        0.0039        0.0015        0.7106        0.7121       0.708267       4.51071
  41    0.4307        0.0035        0.0019        0.6566        0.6584       0.654972       4.63387
  40    0.5894        0.0029        0.0024        0.5680        0.5704       0.567464       4.65357
  39     1.339        0.0015        0.0030        0.2422        0.2452       0.243720       3.64476
  38     1.782        0.0010        0.0026        0.1493        0.1519       0.150889       1.76735
  37     2.292        0.0007        0.0022        0.0924        0.0946       0.093932       0.94336
  36     2.964        0.0005        0.0018        0.0539        0.0557       0.055224       0.48589
  35     3.853        0.0003        0.0013        0.0295        0.0308       0.030502       0.23462
  34     5.035        0.0002        0.0010        0.0154        0.0164       0.016181       0.10230
  33     6.613        0.0001        0.0007        0.0073        0.0080       0.007912       0.04420
  32     8.786        0.0000        0.0004        0.0030        0.0034       0.003390       0.01756
  31     11.80        0.0000        0.0003        0.0010        0.0012       0.001199       0.00613
  30     15.07        0.0000        0.0001        0.0003        0.0005       0.000463       0.00190
  29     18.79        0.0000        0.0001        0.0001        0.0002       0.000182       0.00064
  28     23.16        0.0000        0.0000        0.0000        0.0001       0.000071       0.00022
  27     28.12        0.0000        0.0000        0.0000        0.0000       0.000028       0.00007
  26     33.73        0.0000        0.0000        0.0000        0.0000       0.000011       0.00002
  25     40.54        0.0000        0.0000        0.0000        0.0000       0.000005       0.00001
  24     48.69        0.0000        0.0000        0.0000        0.0000       0.000002       0.00000
  23     57.69        0.0000        0.0000        0.0000        0.0000       0.000001       0.00000
  22     68.43        0.0000        0.0000        0.0000        0.0000       0.000000       0.00000
  21     81.20        0.0000        0.0000        0.0000        0.0000       0.000000       0.00000
  20     96.49        0.0000        0.0000        0.0000        0.0000       0.000000       0.00000
  19     114.6        0.0000        0.0000        0.0000        0.0000       0.000000       0.00000
  18     136.5        0.0000        0.0000        0.0000        0.0000       0.000000       0.00000
  17     162.9        0.0000        0.0000        0.0000        0.0000       0.000000       0.00000
  16     196.4        0.0000        0.0000        0.0000        0.0000       0.000000       0.00000
  15     218.7        0.0000        0.0000        0.0000        0.0000       0.000000       0.00000
  14     243.0        0.0000        0.0000        0.0000        0.0000       0.000000       0.00000
  13     269.0        0.0000        0.0000        0.0000        0.0000       0.000000       0.00000
  12     297.5        0.0000        0.0000        0.0000        0.0000       0.000000       0.00000
  11     328.5        0.0000        0.0000        0.0000        0.0000       0.000000       0.00000
  10     361.9        0.0000        0.0000        0.0000        0.0000       0.000000       0.00000
   9     398.1        0.0000        0.0000        0.0000        0.0000       0.000000       0.00000
   8     437.6        0.0000        0.0000        0.0000        0.0000       0.000000       0.00000
   7     480.5        0.0000        0.0000        0.0000        0.0000       0.000000       0.00000
   6     533.0        0.0000        0.0000        0.0000        0.0000       0.000000       0.00000
   5     589.8        0.0000        0.0000        0.0000        0.0000       0.000000       0.00000
   4     651.6        0.0000        0.0000        0.0000        0.0000       0.000000       0.00000
   3     718.7        0.0000        0.0000        0.0000        0.0000       0.000000       0.00000
   2     792.3        0.0000        0.0000        0.0000        0.0000       0.000000       0.00000
   1     891.5        0.0000        0.0000        0.0000        0.0000       0.000000       0.00000
   0    1013.0        0.0000        0.0000        0.0000        0.0000       0.000000       0.00000



 Wavenumbers:   820. -  2600. cm-1, ATM      1
 LEVEL PRESSURE   UPWARD FLUX   DIFDOWN FLUX  DIRDOWN FLUX  DOWNWARD FLUX   NET FLUX    HEATING RATE
          mb          W/m2          W/m2          W/m2        W/m2          W/m2       degree/day
  51    .06700        0.1651        0.0000        3.8670        3.8670       3.701911       0.00000
  50    .07753        0.1651        0.0000        3.8643        3.8643       3.699194       2.17769
  49    .09103        0.1651        0.0000        3.8635        3.8635       3.698383       0.50638
  48    0.1069        0.1651        0.0000        3.8626        3.8626       3.697493       0.47415
  47    0.1255        0.1651        0.0000        3.8616        3.8616       3.696532       0.43559
  46    0.1487        0.1651        0.0000        3.8605        3.8605       3.695423       0.40437
  45    0.1794        0.1651        0.0000        3.8592        3.8592       3.694088       0.36648
  44    0.2165        0.1651        0.0000        3.8578        3.8578       3.692710       0.31346
  43    0.2613        0.1651        0.0000        3.8564        3.8564       3.691250       0.27522
  42    0.3336        0.1651        0.0000        3.8541        3.8541       3.689018       0.26012
  41    0.4307        0.1651        0.0000        3.8512        3.8512       3.686136       0.25063
  40    0.5894        0.1651        0.0000        3.8465        3.8465       3.681410       0.25133
  39     1.339        0.1651        0.0000        3.8251        3.8251       3.660035       0.24064
  38     1.782        0.1651        0.0000        3.8133        3.8133       3.648222       0.22489
  37     2.292        0.1651        0.0000        3.8003        3.8003       3.635161       0.21633
  36     2.964        0.1651        0.0000        3.7841        3.7841       3.619032       0.20246
  35     3.853        0.1651        0.0000        3.7642        3.7642       3.599118       0.18899
  34     5.035        0.1651        0.0000        3.7395        3.7395       3.574427       0.17638
  33     6.613        0.1651        0.0000        3.7090        3.7090       3.543892       0.16324
  32     8.786        0.1651        0.0000        3.6726        3.6726       3.507499       0.14134
  31     11.80        0.1651        0.0000        3.6320        3.6320       3.466905       0.11365
  30     15.07        0.1651        0.0000        3.6016        3.6016       3.436522       0.07844
  29     18.79        0.1651        0.0000        3.5777        3.5777       3.412625       0.05418
  28     23.16        0.1651        0.0000        3.5564        3.5564       3.391272       0.04129
  27     28.12        0.1651        0.0000        3.5348        3.5348       3.369727       0.03663
  26     33.73        0.1651        0.0000        3.5118        3.5118       3.346695       0.03463
  25     40.54        0.1651        0.0000        3.4849        3.4849       3.319809       0.03336
  24     48.69        0.1651        0.0000        3.4537        3.4537       3.288558       0.03234
  23     57.69        0.1651        0.0000        3.4210        3.4210       3.255886       0.03062
  22     68.43        0.1651        0.0000        3.3844        3.3844       3.219302       0.02876
  21     81.20        0.1651        0.0000        3.3441        3.3441       3.179004       0.02663
  20     96.49        0.1651        0.0000        3.2998        3.2998       3.134641       0.02449
  19     114.6        0.1652        0.0000        3.2506        3.2506       3.085494       0.02295
  18     136.5        0.1652        0.0000        3.1936        3.1936       3.028445       0.02194
  17     162.9        0.1652        0.0000        3.1181        3.1181       2.952941       0.02413
  16     196.4        0.1652        0.0000        3.0090        3.0090       2.843751       0.02748
  15     218.7        0.1653        0.0000        2.9420        2.9420       2.776744       0.02544
  14     243.0        0.1653        0.0000        2.8605        2.8605       2.695177       0.02829
  13     269.0        0.1654        0.0000        2.7419        2.7420       2.576586       0.03847
  12     297.5        0.1655        0.0000        2.5729        2.5729       2.407363       0.05019
  11     328.5        0.1658        0.0000        2.3602        2.3602       2.194441       0.05789
  10     361.9        0.1661        0.0000        2.1524        2.1524       1.986312       0.05266
   9     398.1        0.1667        0.0000        1.9974        1.9974       1.830778       0.03624
   8     437.6        0.1674        0.0000        1.8835        1.8835       1.716114       0.02452
   7     480.5        0.1685        0.0000        1.7734        1.7734       1.604931       0.02184
   6     533.0        0.1704        0.0000        1.6397        1.6398       1.469394       0.02180
   5     589.8        0.1731        0.0000        1.5068        1.5069       1.333801       0.02013
   4     651.6        0.1771        0.0000        1.3807        1.3807       1.203667       0.01780
   3     718.7        0.1824        0.0000        1.2680        1.2680       1.085667       0.01483
   2     792.3        0.1889        0.0000        1.1659        1.1660       0.977058       0.01246
   1     891.5        0.1999        0.0000        1.0372        1.0373       0.837342       0.01189
   0    1013.0        0.2199        0.0000        0.8716        0.8717       0.651753       0.01289

  Modules and versions used in this calculation:

       rrtmg_sw.1col.f90:  $Revision$                    rrtmg_sw_init.f90:  $Revision$        
     rrtmgsw_cldprop.f90:  $Revision$                  rrtmgsw_cldprmc.f90:  NOT USED          
     rrtmg_sw_reftra.f90:  $Revision$                  rrtmg_sw_spcvrt.f90:  NOT USED          
     rrtmg_sw_spcvmc.f90:  NOT USED                    rrtmgsw_setcoef.f90:  NOT USED          
     rrtmg_sw_taumol.f90:  $Revision$                  rrtmg_sw_vrtqdr.f90:  NOT USED          
                rrtatm.f:  NOT USED                             util_xxx.f:  NOT USED          
                 extra.f:  NOT USED                       rrtmg_sw_k_g.f90:  $Revision$        

