

 Wavenumbers:   820. - 50000. cm-1, ATM      1
 LEVEL PRESSURE   UPWARD FLUX   DIFDOWN FLUX  DIRDOWN FLUX  DOWNWARD FLUX   NET FLUX    HEATING RATE
          mb          W/m2          W/m2          W/m2        W/m2          W/m2       degree/day
  51    .06700      424.0247        0.0000      617.8126      617.8126     193.787884       0.00000
  50    .07753      424.0243        0.0014      617.7947      617.7961     193.771744      12.93722
  49    .09103      424.0239        0.0030      617.7778      617.7808     193.756933       9.25725
  48    0.1069      424.0234        0.0050      617.7581      617.7631     193.739670       9.18920
  47    0.1255      424.0229        0.0072      617.7340      617.7412     193.718323       9.67759
  46    0.1487      424.0223        0.0101      617.7009      617.7109     193.688634      10.82181
  45    0.1794      424.0216        0.0139      617.6521      617.6660     193.644399      12.14368
  44    0.2165      424.0209        0.0185      617.5895      617.6080     193.587071      13.04096
  43    0.2613      424.0202        0.0238      617.5089      617.5327     193.512551      14.04685
  42    0.3336      424.0193        0.0327      617.3641      617.3968     193.377451      15.75135
  41    0.4307      424.0187        0.0443      617.1591      617.2035     193.184805      16.75013
  40    0.5894      424.0185        0.0631      616.8005      616.8636     192.845071      18.06661
  39     1.339      424.0362        0.1481      614.9443      615.0924     191.056156      20.13993
  38     1.782      424.0594        0.1960      613.9670      614.1630     190.103647      18.13425
  37     2.292      424.0976        0.2504      613.0059      613.2563     189.158678      15.65115
  36     2.964      424.1652        0.3212      611.9577      612.2788     188.113629      13.11853
  35     3.853      424.2786        0.4140      610.8024      611.2164     186.937711      11.15967
  34     5.035      424.4531        0.5364      609.5327      610.0691     185.615978       9.44191
  33     6.613      424.6989        0.6989      608.1464      608.8454     184.146476       7.85596
  32     8.786      425.0190        0.9170      606.6250      607.5420     182.522993       6.30502
  31     11.80      425.4336        1.2274      604.8486      606.0761     180.642492       5.26481
  30     15.07      425.8281        1.5587      603.2440      604.8026     178.974503       4.30642
  29     18.79      426.2287        1.9314      601.6511      603.5826     177.353856       3.67450
  28     23.16      426.6446        2.3646      599.9927      602.3573     175.712679       3.17351
  27     28.12      427.0592        2.8576      598.2881      601.1456     174.086378       2.76460
  26     33.73      427.4342        3.4072      596.5951      600.0023     172.568075       2.28281
  25     40.54      427.7834        4.0689      594.7727      598.8416     171.058188       1.87318
  24     48.69      428.1039        4.8629      592.7865      597.6494     169.545554       1.56534
  23     57.69      428.3584        5.7310      590.7959      596.5269     168.168473       1.29081
  22     68.43      428.5557        6.7593      588.6191      595.3784     166.822744       1.05792
  21     81.20      428.6437        7.9786      586.2690      594.2475     165.603871       0.80541
  20     96.49      428.6122        9.4222      583.6961      593.1183     164.506091       0.60590
  19     114.6      428.5210       11.1207      580.7708      591.8915     163.370469       0.53026
  18     136.5      428.3680       13.1096      577.4359      590.5455     162.177478       0.45873
  17     162.9      428.1474       15.4438      573.5624      589.0062     160.858777       0.42151
  16     196.4      427.7731       18.4207      568.5907      587.0114     159.238250       0.40791
  15     218.7      427.4984       20.3455      565.0572      585.4027     157.904294       0.50645
  14     243.0      427.1912       22.4101      560.7495      583.1597     155.968450       0.67141
  13     269.0      426.8521       24.6160      555.3947      580.0107     153.158574       0.91151
  12     297.5      426.4855       26.9638      548.9964      575.9602     149.474707       1.09259
  11     328.5      426.1007       29.4600      542.0895      571.5496     145.448900       1.09461
  10     361.9      425.7042       32.1009      534.6242      566.7251     141.020983       1.12031
   9     398.1      425.3046       34.8911      526.4204      561.3115     136.006917       1.16816
   8     437.6      424.9199       37.8292      517.3907      555.2199     130.299991       1.22018
   7     480.5      424.5687       40.9135      507.7216      548.6350     124.066355       1.22426
   6     533.0      424.2503       44.6219      495.9006      540.5225     116.272190       1.25383
   5     589.8      424.1139       48.5139      483.0788      531.5927     107.478757       1.30523
   4     651.6      424.3915       52.5767      468.6907      521.2674      96.875827       1.44998
   3     718.7      425.3962       56.8022      453.2257      510.0280      84.631809       1.53873
   2     792.3      427.9410       61.1686      436.4928      497.6615      69.720459       1.71016
   1     891.5      326.0319      333.9735       45.7395      379.7130      53.681074       1.36487
   0    1013.0      330.5314      326.9283       42.9193      369.8475      39.316089       0.99743



 Wavenumbers:  2600. -  3250. cm-1, ATM      1
 LEVEL PRESSURE   UPWARD FLUX   DIFDOWN FLUX  DIRDOWN FLUX  DOWNWARD FLUX   NET FLUX    HEATING RATE
          mb          W/m2          W/m2          W/m2        W/m2          W/m2       degree/day
  51    .06700        1.1686        0.0000        5.4450        5.4450       4.276454       0.00000
  50    .07753        1.1686        0.0000        5.4450        5.4450       4.276446       0.00640
  49    .09103        1.1686        0.0000        5.4450        5.4450       4.276436       0.00627
  48    0.1069        1.1686        0.0000        5.4450        5.4450       4.276424       0.00613
  47    0.1255        1.1686        0.0000        5.4450        5.4450       4.276411       0.00599
  46    0.1487        1.1686        0.0000        5.4450        5.4450       4.276394       0.00608
  45    0.1794        1.1686        0.0000        5.4450        5.4450       4.276372       0.00625
  44    0.2165        1.1686        0.0000        5.4449        5.4449       4.276345       0.00612
  43    0.2613        1.1686        0.0000        5.4449        5.4449       4.276313       0.00600
  42    0.3336        1.1686        0.0000        5.4448        5.4448       4.276260       0.00617
  41    0.4307        1.1686        0.0000        5.4448        5.4448       4.276189       0.00620
  40    0.5894        1.1686        0.0000        5.4446        5.4446       4.276069       0.00637
  39     1.339        1.1686        0.0000        5.4439        5.4439       4.275361       0.00797
  38     1.782        1.1686        0.0000        5.4434        5.4434       4.274819       0.01034
  37     2.292        1.1686        0.0000        5.4427        5.4427       4.274103       0.01186
  36     2.964        1.1686        0.0000        5.4416        5.4416       4.273064       0.01304
  35     3.853        1.1686        0.0000        5.4402        5.4402       4.271586       0.01402
  34     5.035        1.1686        0.0000        5.4381        5.4381       4.269531       0.01468
  33     6.613        1.1686        0.0000        5.4353        5.4353       4.266750       0.01487
  32     8.786        1.1686        0.0000        5.4317        5.4317       4.263117       0.01411
  31     11.80        1.1686        0.0000        5.4269        5.4269       4.258336       0.01339
  30     15.07        1.1686        0.0000        5.4224        5.4224       4.253808       0.01169
  29     18.79        1.1686        0.0000        5.4180        5.4180       4.249394       0.01001
  28     23.16        1.1686        0.0000        5.4135        5.4135       4.244905       0.00868
  27     28.12        1.1686        0.0000        5.4088        5.4088       4.240252       0.00791
  26     33.73        1.1686        0.0000        5.4036        5.4036       4.235005       0.00789
  25     40.54        1.1686        0.0000        5.3966        5.3967       4.228054       0.00862
  24     48.69        1.1686        0.0000        5.3872        5.3872       4.218561       0.00982
  23     57.69        1.1686        0.0000        5.3754        5.3754       4.206756       0.01107
  22     68.43        1.1687        0.0000        5.3599        5.3599       4.191237       0.01220
  21     81.20        1.1687        0.0000        5.3401        5.3401       4.171359       0.01313
  20     96.49        1.1688        0.0000        5.3155        5.3155       4.146730       0.01359
  19     114.6        1.1689        0.0000        5.2853        5.2854       4.116446       0.01414
  18     136.5        1.1690        0.0001        5.2504        5.2505       4.081416       0.01347
  17     162.9        1.1693        0.0001        5.2111        5.2112       4.041894       0.01263
  16     196.4        1.1696        0.0001        5.1640        5.1641       3.994506       0.01193
  15     218.7        1.1700        0.0001        5.1331        5.1332       3.963239       0.01187
  14     243.0        1.1705        0.0001        5.0962        5.0963       3.925773       0.01299
  13     269.0        1.1714        0.0001        5.0511        5.0512       3.879757       0.01493
  12     297.5        1.1728        0.0001        4.9956        4.9957       3.822913       0.01686
  11     328.5        1.1747        0.0001        4.9304        4.9305       3.755775       0.01825
  10     361.9        1.1774        0.0001        4.8511        4.8512       3.673875       0.02072
   9     398.1        1.1810        0.0002        4.7507        4.7508       3.569820       0.02424
   8     437.6        1.1861        0.0002        4.6220        4.6222       3.436102       0.02859
   7     480.5        1.1932        0.0002        4.4625        4.4627       3.269488       0.03272
   6     533.0        1.2047        0.0002        4.2460        4.2462       3.041513       0.03667
   5     589.8        1.2224        0.0002        3.9954        3.9956       2.773199       0.03983
   4     651.6        1.2517        0.0002        3.7089        3.7091       2.457313       0.04320
   3     718.7        1.3006        0.0002        3.4018        3.4020       2.101453       0.04472
   2     792.3        1.3901        0.0002        3.0564        3.0566       1.666525       0.04988
   1     891.5        0.0102        0.9747        0.2855        1.2602       1.249978       0.03545
   0    1013.0        0.0118        0.8021        0.2304        1.0325       1.020705       0.01592



 Wavenumbers:  3250. -  4000. cm-1, ATM      1
 LEVEL PRESSURE   UPWARD FLUX   DIFDOWN FLUX  DIRDOWN FLUX  DOWNWARD FLUX   NET FLUX    HEATING RATE
          mb          W/m2          W/m2          W/m2        W/m2          W/m2       degree/day
  51    .06700        0.0328        0.0000        9.1795        9.1795       9.146751       0.00000
  50    .07753        0.0328        0.0000        9.1747        9.1747       9.141909       3.88148
  49    .09103        0.0328        0.0000        9.1713        9.1713       9.138521       2.11747
  48    0.1069        0.0328        0.0000        9.1688        9.1688       9.135996       1.34402
  47    0.1255        0.0328        0.0000        9.1665        9.1665       9.133737       1.02422
  46    0.1487        0.0328        0.0000        9.1641        9.1641       9.131295       0.88991
  45    0.1794        0.0328        0.0000        9.1612        9.1612       9.128417       0.79008
  44    0.2165        0.0328        0.0000        9.1583        9.1583       9.125497       0.66430
  43    0.2613        0.0328        0.0000        9.1553        9.1553       9.122524       0.56041
  42    0.3336        0.0328        0.0000        9.1511        9.1511       9.118345       0.48723
  41    0.4307        0.0328        0.0000        9.1464        9.1464       9.113577       0.41459
  40    0.5894        0.0328        0.0000        9.1393        9.1394       9.106571       0.37255
  39     1.339        0.0328        0.0000        9.1127        9.1127       9.079958       0.29962
  38     1.782        0.0328        0.0000        9.1011        9.1011       9.068370       0.22062
  37     2.292        0.0328        0.0000        9.0901        9.0901       9.057303       0.18329
  36     2.964        0.0328        0.0000        9.0776        9.0776       9.044873       0.15603
  35     3.853        0.0328        0.0000        9.0629        9.0629       9.030083       0.14036
  34     5.035        0.0328        0.0000        9.0441        9.0441       9.011344       0.13386
  33     6.613        0.0328        0.0000        9.0191        9.0191       8.986342       0.13366
  32     8.786        0.0328        0.0000        8.9843        8.9843       8.951559       0.13509
  31     11.80        0.0328        0.0000        8.9327        8.9327       8.899942       0.14451
  30     15.07        0.0328        0.0000        8.8758        8.8759       8.843097       0.14676
  29     18.79        0.0328        0.0000        8.8110        8.8110       8.778270       0.14698
  28     23.16        0.0327        0.0000        8.7365        8.7366       8.703825       0.14395
  27     28.12        0.0327        0.0000        8.6554        8.6555       8.622712       0.13789
  26     33.73        0.0327        0.0000        8.5719        8.5719       8.539213       0.12554
  25     40.54        0.0327        0.0001        8.4812        8.4812       8.448489       0.11255
  24     48.69        0.0327        0.0001        8.3838        8.3839       8.351188       0.10069
  23     57.69        0.0327        0.0001        8.2861        8.2862       8.253452       0.09161
  22     68.43        0.0327        0.0001        8.1751        8.1751       8.142456       0.08726
  21     81.20        0.0327        0.0001        8.0457        8.0458       8.013097       0.08548
  20     96.49        0.0327        0.0001        7.8949        7.8950       7.862394       0.08318
  19     114.6        0.0326        0.0001        7.7162        7.7163       7.683684       0.08344
  18     136.5        0.0326        0.0002        7.5193        7.5195       7.486840       0.07569
  17     162.9        0.0326        0.0002        7.2913        7.2915       7.258948       0.07284
  16     196.4        0.0325        0.0002        6.9660        6.9662       6.933673       0.08188
  15     218.7        0.0325        0.0002        6.6648        6.6650       6.632479       0.11435
  14     243.0        0.0325        0.0002        6.2619        6.2622       6.229671       0.13971
  13     269.0        0.0325        0.0003        5.7576        5.7579       5.725338       0.16360
  12     297.5        0.0326        0.0003        5.1719        5.1722       5.139577       0.17373
  11     328.5        0.0327        0.0002        4.5757        4.5760       4.543294       0.16213
  10     361.9        0.0329        0.0002        3.9995        3.9998       3.966915       0.14583
   9     398.1        0.0332        0.0002        3.4655        3.4657       3.432523       0.12450
   8     437.6        0.0337        0.0002        2.9740        2.9743       2.940519       0.10519
   7     480.5        0.0346        0.0002        2.5307        2.5309       2.496246       0.08725
   6     533.0        0.0363        0.0002        2.0614        2.0616       2.025212       0.07577
   5     589.8        0.0395        0.0002        1.6150        1.6151       1.575607       0.06674
   4     651.6        0.0462        0.0001        1.1565        1.1566       1.110429       0.06361
   3     718.7        0.0608        0.0001        0.7390        0.7391       0.678313       0.05430
   2     792.3        0.0997        0.0001        0.3985        0.3985       0.298773       0.04353
   1     891.5        0.0000        0.0411        0.0126        0.0536       0.053613       0.02086
   0    1013.0        0.0003        0.0043        0.0010        0.0053       0.004973       0.00338



 Wavenumbers:  4000. -  4650. cm-1, ATM      1
 LEVEL PRESSURE   UPWARD FLUX   DIFDOWN FLUX  DIRDOWN FLUX  DOWNWARD FLUX   NET FLUX    HEATING RATE
          mb          W/m2          W/m2          W/m2        W/m2          W/m2       degree/day
  51    .06700        4.0623        0.0000       10.7795       10.7795       6.717235       0.00000
  50    .07753        4.0623        0.0000       10.7795       10.7795       6.717234       0.00080
  49    .09103        4.0623        0.0000       10.7795       10.7795       6.717232       0.00078
  48    0.1069        4.0623        0.0000       10.7795       10.7795       6.717231       0.00076
  47    0.1255        4.0623        0.0000       10.7795       10.7795       6.717229       0.00075
  46    0.1487        4.0623        0.0000       10.7795       10.7795       6.717227       0.00076
  45    0.1794        4.0623        0.0000       10.7795       10.7795       6.717224       0.00078
  44    0.2165        4.0623        0.0000       10.7795       10.7795       6.717221       0.00076
  43    0.2613        4.0623        0.0000       10.7795       10.7795       6.717217       0.00075
  42    0.3336        4.0623        0.0000       10.7795       10.7795       6.717210       0.00077
  41    0.4307        4.0623        0.0000       10.7795       10.7795       6.717201       0.00077
  40    0.5894        4.0623        0.0000       10.7795       10.7795       6.717186       0.00080
  39     1.339        4.0623        0.0000       10.7794       10.7794       6.717097       0.00101
  38     1.782        4.0623        0.0000       10.7793       10.7793       6.717027       0.00133
  37     2.292        4.0623        0.0000       10.7792       10.7792       6.716933       0.00156
  36     2.964        4.0623        0.0000       10.7791       10.7791       6.716793       0.00176
  35     3.853        4.0623        0.0000       10.7789       10.7789       6.716584       0.00198
  34     5.035        4.0623        0.0000       10.7786       10.7786       6.716277       0.00219
  33     6.613        4.0623        0.0000       10.7781       10.7781       6.715825       0.00242
  32     8.786        4.0623        0.0000       10.7774       10.7774       6.715157       0.00259
  31     11.80        4.0623        0.0001       10.7763       10.7764       6.714108       0.00294
  30     15.07        4.0623        0.0001       10.7751       10.7752       6.712877       0.00318
  29     18.79        4.0623        0.0001       10.7736       10.7737       6.711388       0.00338
  28     23.16        4.0623        0.0001       10.7717       10.7718       6.709539       0.00358
  27     28.12        4.0623        0.0001       10.7695       10.7696       6.707300       0.00381
  26     33.73        4.0623        0.0001       10.7667       10.7668       6.704538       0.00415
  25     40.54        4.0623        0.0002       10.7629       10.7631       6.700791       0.00465
  24     48.69        4.0623        0.0002       10.7579       10.7581       6.695796       0.00517
  23     57.69        4.0624        0.0003       10.7520       10.7523       6.689872       0.00555
  22     68.43        4.0625        0.0003       10.7446       10.7449       6.682444       0.00584
  21     81.20        4.0626        0.0004       10.7355       10.7359       6.673293       0.00605
  20     96.49        4.0627        0.0004       10.7245       10.7249       6.662150       0.00615
  19     114.6        4.0630        0.0005       10.7107       10.7112       6.648208       0.00651
  18     136.5        4.0634        0.0006       10.6942       10.6948       6.631398       0.00646
  17     162.9        4.0640        0.0007       10.6740       10.6747       6.610771       0.00659
  16     196.4        4.0649        0.0009       10.6464       10.6472       6.582288       0.00717
  15     218.7        4.0658        0.0010       10.6255       10.6264       6.560603       0.00823
  14     243.0        4.0671        0.0011       10.5980       10.5991       6.532011       0.00992
  13     269.0        4.0690        0.0012       10.5611       10.5623       6.493239       0.01258
  12     297.5        4.0718        0.0013       10.5119       10.5132       6.441384       0.01538
  11     328.5        4.0757        0.0014       10.4499       10.4513       6.375552       0.01790
  10     361.9        4.0809        0.0016       10.3702       10.3717       6.290875       0.02142
   9     398.1        4.0873        0.0017       10.2678       10.2695       6.182179       0.02532
   8     437.6        4.0955        0.0018       10.1390       10.1408       6.045301       0.02927
   7     480.5        4.1061        0.0020        9.9877        9.9897       5.883589       0.03176
   6     533.0        4.1224        0.0022        9.7937        9.7959       5.673436       0.03381
   5     589.8        4.1461        0.0024        9.5752        9.5775       5.431438       0.03592
   4     651.6        4.1844        0.0026        9.2958        9.2984       5.113992       0.04341
   3     718.7        4.2489        0.0027        8.9267        8.9295       4.680559       0.05447
   2     792.3        4.3706        0.0029        8.4542        8.4571       4.086542       0.06813
   1     891.5        0.5471        3.1778        0.8614        4.0392       3.492128       0.05058
   0    1013.0        0.5827        2.9186        0.7821        3.7006       3.117945       0.02598



 Wavenumbers:  4650. -  5150. cm-1, ATM      1
 LEVEL PRESSURE   UPWARD FLUX   DIFDOWN FLUX  DIRDOWN FLUX  DOWNWARD FLUX   NET FLUX    HEATING RATE
          mb          W/m2          W/m2          W/m2        W/m2          W/m2       degree/day
  51    .06700        2.7978        0.0000       10.2033       10.2033       7.405578       0.00000
  50    .07753        2.7978        0.0000       10.2031       10.2031       7.405342       0.18901
  49    .09103        2.7978        0.0000       10.2028       10.2028       7.405047       0.18428
  48    0.1069        2.7978        0.0000       10.2025       10.2025       7.404710       0.17931
  47    0.1255        2.7978        0.0000       10.2021       10.2021       7.404326       0.17426
  46    0.1487        2.7978        0.0000       10.2016       10.2016       7.403845       0.17536
  45    0.1794        2.7978        0.0000       10.2010       10.2010       7.403194       0.17850
  44    0.2165        2.7978        0.0000       10.2002       10.2002       7.402435       0.17277
  43    0.2613        2.7978        0.0000       10.1993       10.1993       7.401550       0.16690
  42    0.3336        2.7978        0.0000       10.1979       10.1979       7.400117       0.16702
  41    0.4307        2.7978        0.0000       10.1960       10.1960       7.398277       0.16002
  40    0.5894        2.7978        0.0000       10.1932       10.1932       7.395403       0.15283
  39     1.339        2.7978        0.0000       10.1816       10.1816       7.383811       0.13050
  38     1.782        2.7978        0.0000       10.1760       10.1760       7.378282       0.10526
  37     2.292        2.7978        0.0000       10.1706       10.1706       7.372825       0.09038
  36     2.964        2.7978        0.0000       10.1646       10.1647       7.366902       0.07436
  35     3.853        2.7978        0.0000       10.1584       10.1584       7.360687       0.05898
  34     5.035        2.7978        0.0000       10.1521       10.1521       7.354350       0.04527
  33     6.613        2.7978        0.0000       10.1456       10.1456       7.347890       0.03453
  32     8.786        2.7978        0.0001       10.1386       10.1386       7.340875       0.02724
  31     11.80        2.7978        0.0001       10.1295       10.1296       7.331827       0.02533
  30     15.07        2.7978        0.0001       10.1196       10.1197       7.321937       0.02553
  29     18.79        2.7978        0.0001       10.1076       10.1077       7.309914       0.02726
  28     23.16        2.7978        0.0001       10.0923       10.0924       7.294586       0.02964
  27     28.12        2.7979        0.0002       10.0731       10.0733       7.275460       0.03251
  26     33.73        2.7979        0.0002       10.0500       10.0503       7.252322       0.03479
  25     40.54        2.7980        0.0003       10.0201       10.0204       7.222357       0.03718
  24     48.69        2.7982        0.0003        9.9820        9.9823       7.184096       0.03959
  23     57.69        2.7984        0.0004        9.9384        9.9388       7.140441       0.04092
  22     68.43        2.7986        0.0004        9.8858        9.8862       7.087548       0.04158
  21     81.20        2.7990        0.0005        9.8234        9.8240       7.024932       0.04138
  20     96.49        2.7996        0.0006        9.7518        9.7524       6.952802       0.03981
  19     114.6        2.8003        0.0007        9.6719        9.6726       6.872317       0.03758
  18     136.5        2.8014        0.0008        9.5858        9.5866       6.785278       0.03347
  17     162.9        2.8028        0.0010        9.4940        9.4950       6.692209       0.02975
  16     196.4        2.8051        0.0012        9.3883        9.3895       6.584372       0.02714
  15     218.7        2.8069        0.0013        9.3229        9.3242       6.517349       0.02545
  14     243.0        2.8092        0.0015        9.2520        9.2534       6.444217       0.02536
  13     269.0        2.8123        0.0016        9.1717        9.1733       6.360915       0.02702
  12     297.5        2.8167        0.0018        9.0763        9.0780       6.261304       0.02954
  11     328.5        2.8225        0.0019        8.9650        8.9669       6.144434       0.03178
  10     361.9        2.8299        0.0021        8.8349        8.8370       6.007156       0.03473
   9     398.1        2.8395        0.0023        8.6820        8.6843       5.844809       0.03782
   8     437.6        2.8520        0.0025        8.5028        8.5053       5.653235       0.04096
   7     480.5        2.8684        0.0026        8.2948        8.2975       5.429086       0.04402
   6     533.0        2.8934        0.0029        8.0209        8.0237       5.130377       0.04805
   5     589.8        2.9282        0.0031        7.7063        7.7094       4.781181       0.05183
   4     651.6        2.9799        0.0033        7.3412        7.3445       4.364543       0.05698
   3     718.7        3.0585        0.0034        6.9387        6.9421       3.883597       0.06044
   2     792.3        3.1846        0.0036        6.5066        6.5102       3.325613       0.06399
   1     891.5        0.1394        2.2996        0.6560        2.9557       2.816239       0.04335
   0    1013.0        0.1510        2.0779        0.5860        2.6640       2.512944       0.02106



 Wavenumbers:  5150. -  6150. cm-1, ATM      1
 LEVEL PRESSURE   UPWARD FLUX   DIFDOWN FLUX  DIRDOWN FLUX  DOWNWARD FLUX   NET FLUX    HEATING RATE
          mb          W/m2          W/m2          W/m2        W/m2          W/m2       degree/day
  51    .06700        7.0846        0.0000       25.5798       25.5798      18.495250       0.00000
  50    .07753        7.0846        0.0000       25.5798       25.5798      18.495211       0.03160
  49    .09103        7.0846        0.0000       25.5797       25.5797      18.495159       0.03208
  48    0.1069        7.0846        0.0000       25.5797       25.5797      18.495098       0.03259
  47    0.1255        7.0846        0.0000       25.5796       25.5796      18.495025       0.03309
  46    0.1487        7.0846        0.0000       25.5795       25.5795      18.494930       0.03486
  45    0.1794        7.0846        0.0000       25.5794       25.5794      18.494794       0.03711
  44    0.2165        7.0846        0.0000       25.5792       25.5792      18.494629       0.03767
  43    0.2613        7.0846        0.0000       25.5790       25.5790      18.494426       0.03825
  42    0.3336        7.0846        0.0000       25.5786       25.5786      18.494079       0.04041
  41    0.4307        7.0846        0.0000       25.5782       25.5782      18.493608       0.04095
  40    0.5894        7.0846        0.0000       25.5774       25.5774      18.492819       0.04196
  39     1.339        7.0846        0.0000       25.5735       25.5736      18.489018       0.04280
  38     1.782        7.0845        0.0001       25.5713       25.5714      18.486805       0.04214
  37     2.292        7.0845        0.0001       25.5688       25.5688      18.484300       0.04149
  36     2.964        7.0845        0.0001       25.5656       25.5657      18.481117       0.03995
  35     3.853        7.0845        0.0001       25.5615       25.5616      18.477072       0.03839
  34     5.035        7.0845        0.0001       25.5562       25.5564      18.471862       0.03721
  33     6.613        7.0845        0.0002       25.5494       25.5496      18.465104       0.03613
  32     8.786        7.0845        0.0003       25.5406       25.5409      18.456346       0.03401
  31     11.80        7.0845        0.0003       25.5287       25.5290      18.444500       0.03317
  30     15.07        7.0845        0.0004       25.5167       25.5171      18.432619       0.03067
  29     18.79        7.0845        0.0006       25.5042       25.5047      18.420196       0.02817
  28     23.16        7.0845        0.0007       25.4907       25.4914      18.406812       0.02588
  27     28.12        7.0846        0.0008       25.4764       25.4773      18.392697       0.02399
  26     33.73        7.0846        0.0010       25.4620       25.4630      18.378388       0.02151
  25     40.54        7.0847        0.0012       25.4463       25.4474      18.362734       0.01942
  24     48.69        7.0848        0.0014       25.4294       25.4308      18.345959       0.01736
  23     57.69        7.0850        0.0017       25.4126       25.4143      18.329294       0.01562
  22     68.43        7.0852        0.0020       25.3944       25.3964      18.311186       0.01423
  21     81.20        7.0855        0.0024       25.3744       25.3768      18.291247       0.01318
  20     96.49        7.0859        0.0028       25.3519       25.3548      18.268827       0.01237
  19     114.6        7.0864        0.0034       25.3262       25.3295      18.243104       0.01201
  18     136.5        7.0870        0.0040       25.2962       25.3002      18.213151       0.01152
  17     162.9        7.0878        0.0047       25.2521       25.2568      18.169040       0.01410
  16     196.4        7.0889        0.0057       25.1593       25.1650      18.076127       0.02339
  15     218.7        7.0897        0.0063       25.0159       25.0222      17.932585       0.05450
  14     243.0        7.0907        0.0069       24.7089       24.7159      17.625198       0.10661
  13     269.0        7.0920        0.0076       24.1619       24.1694      17.077424       0.17770
  12     297.5        7.0939        0.0082       23.4544       23.4625      16.368694       0.21020
  11     328.5        7.0963        0.0088       22.7355       22.7443      15.647905       0.19598
  10     361.9        7.0997        0.0094       21.9224       21.9318      14.832137       0.20640
   9     398.1        7.1043        0.0100       20.9939       21.0039      13.899658       0.21725
   8     437.6        7.1107        0.0106       19.9833       19.9939      12.883233       0.21732
   7     480.5        7.1196        0.0111       18.9483       18.9594      11.839805       0.20493
   6     533.0        7.1349        0.0117       17.7796       17.7913      10.656450       0.19036
   5     589.8        7.1597        0.0123       16.6726       16.6849       9.525181       0.16792
   4     651.6        7.2054        0.0129       15.6343       15.6472       8.441851       0.14815
   3     718.7        7.2893        0.0136       14.7738       14.7874       7.498087       0.11860
   2     792.3        7.4570        0.0144       14.0291       14.0435       6.586533       0.10455
   1     891.5        1.1517        5.4436        1.4456        6.8891       5.737433       0.07225
   0    1013.0        1.2017        5.0702        1.3302        6.4004       5.198668       0.03741



 Wavenumbers:  6150. -  7700. cm-1, ATM      1
 LEVEL PRESSURE   UPWARD FLUX   DIFDOWN FLUX  DIRDOWN FLUX  DOWNWARD FLUX   NET FLUX    HEATING RATE
          mb          W/m2          W/m2          W/m2        W/m2          W/m2       degree/day
  51    .06700       11.5400        0.0000       47.3109       47.3109      35.770899       0.00000
  50    .07753       11.5400        0.0000       47.3108       47.3108      35.770842       0.04553
  49    .09103       11.5400        0.0000       47.3107       47.3107      35.770769       0.04583
  48    0.1069       11.5400        0.0000       47.3106       47.3106      35.770682       0.04614
  47    0.1255       11.5400        0.0000       47.3105       47.3105      35.770579       0.04645
  46    0.1487       11.5400        0.0000       47.3104       47.3104      35.770446       0.04852
  45    0.1794       11.5400        0.0000       47.3102       47.3102      35.770260       0.05127
  44    0.2165       11.5399        0.0000       47.3100       47.3100      35.770032       0.05167
  43    0.2613       11.5399        0.0000       47.3097       47.3097      35.769756       0.05210
  42    0.3336       11.5399        0.0000       47.3092       47.3092      35.769287       0.05471
  41    0.4307       11.5399        0.0000       47.3085       47.3086      35.768652       0.05521
  40    0.5894       11.5399        0.0001       47.3074       47.3075      35.767593       0.05633
  39     1.339       11.5398        0.0002       47.3022       47.3024      35.762500       0.05733
  38     1.782       11.5398        0.0002       47.2991       47.2993      35.759530       0.05655
  37     2.292       11.5398        0.0003       47.2956       47.2959      35.756154       0.05591
  36     2.964       11.5397        0.0004       47.2912       47.2915      35.751836       0.05421
  35     3.853       11.5396        0.0005       47.2855       47.2859      35.746302       0.05252
  34     5.035       11.5395        0.0006       47.2780       47.2787      35.739121       0.05129
  33     6.613       11.5394        0.0008       47.2683       47.2691      35.729733       0.05019
  32     8.786       11.5392        0.0011       47.2556       47.2566      35.717434       0.04777
  31     11.80       11.5389        0.0014       47.2380       47.2395      35.700530       0.04732
  30     15.07       11.5387        0.0018       47.2201       47.2219      35.683243       0.04463
  29     18.79       11.5383        0.0023       47.2008       47.2031      35.664763       0.04190
  28     23.16       11.5380        0.0028       47.1795       47.1823      35.644373       0.03943
  27     28.12       11.5375        0.0034       47.1565       47.1599      35.622379       0.03739
  26     33.73       11.5371        0.0041       47.1324       47.1365      35.599457       0.03446
  25     40.54       11.5365        0.0049       47.1054       47.1103      35.573821       0.03181
  24     48.69       11.5358        0.0059       47.0754       47.0813      35.545567       0.02924
  23     57.69       11.5350        0.0070       47.0449       47.0520      35.516945       0.02683
  22     68.43       11.5341        0.0083       47.0110       47.0193      35.485208       0.02495
  21     81.20       11.5330        0.0099       46.9729       46.9827      35.449714       0.02345
  20     96.49       11.5317        0.0117       46.9294       46.9411      35.409373       0.02227
  19     114.6       11.5302        0.0139       46.8790       46.8929      35.362740       0.02177
  18     136.5       11.5284        0.0165       46.8200       46.8365      35.308118       0.02100
  17     162.9       11.5262        0.0196       46.7361       46.7557      35.229498       0.02513
  16     196.4       11.5236        0.0236       46.5703       46.5939      35.070305       0.04007
  15     218.7       11.5219        0.0262       46.3473       46.3735      34.851550       0.08305
  14     243.0       11.5204        0.0289       45.9299       45.9587      34.438327       0.14332
  13     269.0       11.5193        0.0316       45.1708       45.2023      33.683046       0.24501
  12     297.5       11.5191        0.0342       44.0115       44.0457      32.526557       0.34300
  11     328.5       11.5201        0.0369       42.7242       42.7611      31.240944       0.34955
  10     361.9       11.5230        0.0395       41.3539       41.3935      29.870441       0.34675
   9     398.1       11.5289        0.0422       39.7953       39.8374      28.308524       0.36389
   8     437.6       11.5396        0.0446       37.9948       38.0394      26.499783       0.38672
   7     480.5       11.5573        0.0469       36.0647       36.1116      24.554285       0.38209
   6     533.0       11.5915        0.0493       33.7773       33.8266      22.235094       0.37308
   5     589.8       11.6521        0.0515       31.4082       31.4597      19.807589       0.36032
   4     651.6       11.7700        0.0532       28.8834       28.9366      17.166569       0.36117
   3     718.7       11.9955        0.0546       26.4104       26.4650      14.469463       0.33895
   2     792.3       12.4703        0.0557       24.0056       24.0613      11.591027       0.33012
   1     891.5        2.2109        8.9701        2.3465       11.3166       9.105706       0.21149
   0    1013.0        2.3755        8.0191        2.0570       10.0760       7.700498       0.09757



 Wavenumbers:  7700. -  8050. cm-1, ATM      1
 LEVEL PRESSURE   UPWARD FLUX   DIFDOWN FLUX  DIRDOWN FLUX  DOWNWARD FLUX   NET FLUX    HEATING RATE
          mb          W/m2          W/m2          W/m2        W/m2          W/m2       degree/day
  51    .06700        6.6633        0.0000       11.1810       11.1810       4.517647       0.00000
  50    .07753        6.6633        0.0000       11.1809       11.1809       4.517625       0.01792
  49    .09103        6.6633        0.0000       11.1809       11.1809       4.517597       0.01756
  48    0.1069        6.6633        0.0000       11.1809       11.1809       4.517565       0.01719
  47    0.1255        6.6633        0.0000       11.1809       11.1809       4.517528       0.01682
  46    0.1487        6.6633        0.0000       11.1808       11.1808       4.517481       0.01707
  45    0.1794        6.6634        0.0000       11.1808       11.1808       4.517417       0.01757
  44    0.2165        6.6634        0.0000       11.1807       11.1807       4.517341       0.01723
  43    0.2613        6.6634        0.0000       11.1806       11.1806       4.517251       0.01691
  42    0.3336        6.6634        0.0000       11.1805       11.1805       4.517103       0.01730
  41    0.4307        6.6635        0.0000       11.1803       11.1804       4.516906       0.01711
  40    0.5894        6.6635        0.0000       11.1801       11.1801       4.516585       0.01709
  39     1.339        6.6638        0.0001       11.1788       11.1789       4.515064       0.01712
  38     1.782        6.6640        0.0001       11.1781       11.1782       4.514171       0.01701
  37     2.292        6.6642        0.0001       11.1772       11.1773       4.513136       0.01713
  36     2.964        6.6645        0.0002       11.1761       11.1762       4.511779       0.01704
  35     3.853        6.6648        0.0002       11.1746       11.1748       4.509985       0.01702
  34     5.035        6.6653        0.0003       11.1726       11.1729       4.507603       0.01702
  33     6.613        6.6659        0.0004       11.1700       11.1703       4.504420       0.01701
  32     8.786        6.6668        0.0005       11.1664       11.1669       4.500133       0.01665
  31     11.80        6.6680        0.0007       11.1613       11.1620       4.494003       0.01716
  30     15.07        6.6693        0.0009       11.1558       11.1567       4.487427       0.01698
  29     18.79        6.6707        0.0011       11.1497       11.1508       4.480004       0.01683
  28     23.16        6.6725        0.0013       11.1425       11.1438       4.471344       0.01674
  27     28.12        6.6745        0.0016       11.1343       11.1359       4.461456       0.01681
  26     33.73        6.6767        0.0019       11.1252       11.1271       4.450409       0.01661
  25     40.54        6.6794        0.0023       11.1142       11.1165       4.437090       0.01652
  24     48.69        6.6827        0.0028       11.1010       11.1038       4.421077       0.01657
  23     57.69        6.6863        0.0033       11.0866       11.0899       4.403542       0.01644
  22     68.43        6.6907        0.0039       11.0695       11.0734       4.382734       0.01636
  21     81.20        6.6959        0.0046       11.0494       11.0540       4.358055       0.01631
  20     96.49        6.7022        0.0054       11.0255       11.0310       4.328803       0.01614
  19     114.6        6.7097        0.0065       10.9975       11.0040       4.294288       0.01612
  18     136.5        6.7188        0.0077       10.9648       10.9724       4.253672       0.01562
  17     162.9        6.7297        0.0091       10.9263       10.9354       4.205701       0.01533
  16     196.4        6.7441        0.0109       10.8773       10.8882       4.144089       0.01551
  15     218.7        6.7538        0.0122       10.8455       10.8577       4.103937       0.01524
  14     243.0        6.7644        0.0135       10.8114       10.8249       4.060508       0.01506
  13     269.0        6.7762        0.0149       10.7749       10.7898       4.013608       0.01521
  12     297.5        6.7892        0.0165       10.7357       10.7522       3.962979       0.01502
  11     328.5        6.8036        0.0181       10.6937       10.7119       3.908269       0.01488
  10     361.9        6.8196        0.0199       10.6489       10.6688       3.849208       0.01494
   9     398.1        6.8374        0.0218       10.6008       10.6226       3.785236       0.01490
   8     437.6        6.8573        0.0239       10.5491       10.5730       3.715659       0.01488
   7     480.5        6.8797        0.0261       10.4934       10.5196       3.639821       0.01489
   6     533.0        6.9090        0.0288       10.4243       10.4531       3.544144       0.01539
   5     589.8        6.9431        0.0318       10.3479       10.3797       3.436555       0.01597
   4     651.6        6.9841        0.0349       10.2613       10.2962       3.312146       0.01701
   3     718.7        7.0344        0.0382       10.1618       10.2000       3.165595       0.01842
   2     792.3        7.0984        0.0418       10.0439       10.0856       2.987249       0.02045
   1     891.5        3.6006        5.2911        1.0902        6.3813       2.780713       0.01758
   0    1013.0        3.6775        5.1755        1.0624        6.2379       2.560409       0.01530



 Wavenumbers:  8050. - 12850. cm-1, ATM      1
 LEVEL PRESSURE   UPWARD FLUX   DIFDOWN FLUX  DIRDOWN FLUX  DOWNWARD FLUX   NET FLUX    HEATING RATE
          mb          W/m2          W/m2          W/m2        W/m2          W/m2       degree/day
  51    .06700      100.9273        0.0000      156.5418      156.5418      55.614402       0.00000
  50    .07753      100.9273        0.0000      156.5417      156.5417      55.614402       0.00000
  49    .09103      100.9273        0.0001      156.5417      156.5417      55.614402      -0.00000
  48    0.1069      100.9273        0.0001      156.5416      156.5417      55.614402       0.00000
  47    0.1255      100.9273        0.0002      156.5415      156.5417      55.614402       0.00000
  46    0.1487      100.9273        0.0002      156.5414      156.5417      55.614402       0.00000
  45    0.1794      100.9272        0.0003      156.5413      156.5416      55.614402       0.00000
  44    0.2165      100.9272        0.0004      156.5412      156.5416      55.614402      -0.00000
  43    0.2613      100.9271        0.0006      156.5410      156.5415      55.614402       0.00000
  42    0.3336      100.9271        0.0008      156.5407      156.5415      55.614402       0.00000
  41    0.4307      100.9270        0.0011      156.5403      156.5414      55.614402      -0.00000
  40    0.5894      100.9268        0.0015      156.5397      156.5412      55.614402       0.00000
  39     1.339      100.9260        0.0037      156.5367      156.5404      55.614402       0.00000
  38     1.782      100.9256        0.0050      156.5350      156.5400      55.614402      -0.00000
  37     2.292      100.9250        0.0064      156.5330      156.5394      55.614402       0.00000
  36     2.964      100.9243        0.0084      156.5303      156.5387      55.614402       0.00000
  35     3.853      100.9234        0.0109      156.5268      156.5378      55.614402      -0.00000
  34     5.035      100.9222        0.0144      156.5222      156.5366      55.614402      -0.00000
  33     6.613      100.9205        0.0189      156.5160      156.5349      55.614402      -0.00000
  32     8.786      100.9183        0.0250      156.5076      156.5327      55.614402       0.00000
  31     11.80      100.9151        0.0338      156.4957      156.5295      55.614402       0.00000
  30     15.07      100.9117        0.0433      156.4828      156.5261      55.614402       0.00000
  29     18.79      100.9078        0.0540      156.4682      156.5222      55.614402      -0.00000
  28     23.16      100.9033        0.0665      156.4512      156.5177      55.614402      -0.00000
  27     28.12      100.8981        0.0808      156.4317      156.5125      55.614402       0.00000
  26     33.73      100.8923        0.0968      156.4099      156.5067      55.614402      -0.00000
  25     40.54      100.8853        0.1162      156.3834      156.4997      55.614402       0.00000
  24     48.69      100.8768        0.1397      156.3515      156.4912      55.614402      -0.00000
  23     57.69      100.8675        0.1654      156.3164      156.4819      55.614402       0.00000
  22     68.43      100.8563        0.1962      156.2746      156.4707      55.614402      -0.00000
  21     81.20      100.8430        0.2329      156.2246      156.4574      55.614402       0.00000
  20     96.49      100.8272        0.2766      156.1649      156.4416      55.614402       0.00000
  19     114.6      100.8085        0.3287      156.0879      156.4167      55.608156       0.00292
  18     136.5      100.7864        0.3906      155.9962      156.3868      55.600410       0.00298
  17     162.9      100.7599        0.4644      155.8831      156.3475      55.587562       0.00411
  16     196.4      100.7257        0.5604      155.7199      156.2804      55.554661       0.00828
  15     218.7      100.7036        0.6236      155.5733      156.1969      55.493338       0.02328
  14     243.0      100.6803        0.6922      155.3367      156.0289      55.348587       0.05020
  13     269.0      100.6572        0.7665      154.9514      155.7179      55.060683       0.09339
  12     297.5      100.6363        0.8464      154.3896      155.2360      54.599745       0.13671
  11     328.5      100.6188        0.9326      153.7151      154.6477      54.028869       0.15522
  10     361.9      100.6077        1.0251      152.9087      153.9339      53.326194       0.17778
   9     398.1      100.6074        1.1241      151.8986      153.0227      52.415284       0.21222
   8     437.6      100.6261        1.2294      150.6031      151.8325      51.206455       0.25846
   7     480.5      100.6733        1.3407      149.0014      150.3421      49.668802       0.30199
   6     533.0      100.7831        1.4754      146.7375      148.2130      47.429860       0.36017
   5     589.8      100.9974        1.6166      143.8730      145.4896      44.492196       0.43605
   4     651.6      101.4329        1.7615      140.0955      141.8571      40.424108       0.55632
   3     718.7      102.2585        1.9087      135.5278      137.4365      35.177959       0.65930
   2     792.3      103.8900        2.0544      130.0690      132.1235      28.233449       0.79646
   1     891.5       70.5414       77.2654       13.4960       90.7614      20.220017       0.68190
   0    1013.0       73.4293       73.2952       12.4819       85.7770      12.347772       0.54661



 Wavenumbers: 12850. - 16000. cm-1, ATM      1
 LEVEL PRESSURE   UPWARD FLUX   DIFDOWN FLUX  DIRDOWN FLUX  DOWNWARD FLUX   NET FLUX    HEATING RATE
          mb          W/m2          W/m2          W/m2        W/m2          W/m2       degree/day
  51    .06700       80.6948        0.0000       98.0872       98.0872      17.392414       0.00000
  50    .07753       80.6948        0.0001       98.0864       98.0864      17.391622       0.63504
  49    .09103       80.6948        0.0002       98.0853       98.0855      17.390626       0.62204
  48    0.1069       80.6948        0.0003       98.0841       98.0843      17.389483       0.60880
  47    0.1255       80.6948        0.0004       98.0826       98.0830      17.388168       0.59587
  46    0.1487       80.6949        0.0005       98.0809       98.0814      17.386509       0.60481
  45    0.1794       80.6949        0.0007       98.0784       98.0792      17.384251       0.61982
  44    0.2165       80.6950        0.0010       98.0756       98.0766      17.381594       0.60437
  43    0.2613       80.6951        0.0013       98.0723       98.0736      17.378469       0.58915
  42    0.3336       80.6954        0.0017       98.0670       98.0687      17.373365       0.59504
  41    0.4307       80.6958        0.0024       98.0602       98.0626      17.366762       0.57416
  40    0.5894       80.6966        0.0034       98.0496       98.0530      17.356348       0.55380
  39     1.339       80.7035        0.0082       98.0043       98.0126      17.309029       0.53272
  38     1.782       80.7098        0.0111       97.9793       97.9904      17.280537       0.54245
  37     2.292       80.7191        0.0144       97.9498       97.9641      17.244992       0.58872
  36     2.964       80.7346        0.0187       97.9088       97.9275      17.192936       0.65345
  35     3.853       80.7594        0.0244       97.8503       97.8747      17.115349       0.73631
  34     5.035       80.7967        0.0319       97.7680       97.7999      17.003230       0.80093
  33     6.613       80.8488        0.0421       97.6562       97.6982      16.849420       0.82227
  32     8.786       80.9167        0.0557       97.5107       97.5663      16.649639       0.77587
  31     11.80       81.0051        0.0751       97.3179       97.3930      16.387854       0.73292
  30     15.07       81.0899        0.0960       97.1283       97.2243      16.134367       0.65446
  29     18.79       81.1767        0.1195       96.9300       97.0496      15.872891       0.59285
  28     23.16       81.2675        0.1470       96.7166       96.8636      15.596127       0.53517
  27     28.12       81.3590        0.1784       96.4935       96.6719      15.312885       0.48149
  26     33.73       81.4440        0.2136       96.2731       96.4867      15.042697       0.40623
  25     40.54       81.5263        0.2561       96.0408       96.2968      14.770530       0.33765
  24     48.69       81.6058        0.3073       95.7946       96.1019      14.496008       0.28409
  23     57.69       81.6741        0.3636       95.5573       95.9208      14.246714       0.23368
  22     68.43       81.7348        0.4306       95.3106       95.7412      14.006474       0.18886
  21     81.20       81.7787        0.5106       95.0643       95.5750      13.796302       0.13888
  20     96.49       81.8048        0.6061       94.8153       95.4213      13.616549       0.09921
  19     114.6       81.8358        0.7206       94.5411       95.2616      13.425791       0.08907
  18     136.5       81.8610        0.8563       94.2320       95.0883      13.227286       0.07633
  17     162.9       81.8805        1.0179       93.8753       94.8932      13.012739       0.06858
  16     196.4       81.8832        1.2275       93.4347       94.6622      12.778990       0.05884
  15     218.7       81.8769        1.3652       93.1513       94.5164      12.639489       0.05296
  14     243.0       81.8669        1.5148       92.8439       94.3587      12.491842       0.05121
  13     269.0       81.8530        1.6769       92.5111       94.1881      12.335069       0.05086
  12     297.5       81.8359        1.8522       92.1495       94.0017      12.165715       0.05023
  11     328.5       81.8179        2.0415       91.7554       93.7969      11.979037       0.05076
  10     361.9       81.7999        2.2454       91.3262       93.5716      11.771723       0.05245
   9     398.1       81.7836        2.4648       90.8575       93.3223      11.538720       0.05428
   8     437.6       81.7723        2.7003       90.3418       93.0421      11.269769       0.05750
   7     480.5       81.7693        2.9526       89.7728       92.7254      10.956070       0.06161
   6     533.0       81.7832        3.2628       89.0428       92.3056      10.522452       0.06976
   5     589.8       81.8308        3.5963       88.2038       91.8001       9.969279       0.08211
   4     651.6       81.9486        3.9526       87.1979       91.1506       9.202014       0.10493
   3     718.7       82.1635        4.3303       86.0161       90.3465       8.182975       0.12807
   2     792.3       82.5579        4.7255       84.5970       89.3225       6.764683       0.16266
   1     891.5       67.0785       62.7956        9.1098       71.9054       4.826896       0.16490
   0    1013.0       68.1643       61.7178        8.7983       70.5161       2.351797       0.17186



 Wavenumbers: 16000. - 22650. cm-1, ATM      1
 LEVEL PRESSURE   UPWARD FLUX   DIFDOWN FLUX  DIRDOWN FLUX  DOWNWARD FLUX   NET FLUX    HEATING RATE
          mb          W/m2          W/m2          W/m2        W/m2          W/m2       degree/day
  51    .06700      140.6880        0.0000      156.3892      156.3892      15.701258       0.00000
  50    .07753      140.6880        0.0004      156.3887      156.3891      15.701111       0.11816
  49    .09103      140.6879        0.0009      156.3879      156.3888      15.700896       0.13402
  48    0.1069      140.6879        0.0015      156.3871      156.3885      15.700609       0.15283
  47    0.1255      140.6880        0.0021      156.3861      156.3882      15.700225       0.17420
  46    0.1487      140.6880        0.0030      156.3847      156.3877      15.699659       0.20643
  45    0.1794      140.6881        0.0041      156.3828      156.3869      15.698773       0.24305
  44    0.2165      140.6884        0.0054      156.3805      156.3859      15.697572       0.27316
  43    0.2613      140.6887        0.0070      156.3776      156.3846      15.695943       0.30710
  42    0.3336      140.6894        0.0096      156.3726      156.3823      15.692846       0.36115
  41    0.4307      140.6907        0.0131      156.3657      156.3789      15.688177       0.40597
  40    0.5894      140.6932        0.0188      156.3537      156.3725      15.679272       0.47354
  39     1.339      140.7157        0.0458      156.2834      156.3292      15.613483       0.74067
  38     1.782      140.7366        0.0616      156.2324      156.2940      15.557438       1.06699
  37     2.292      140.7678        0.0800      156.1641      156.2441      15.476314       1.34364
  36     2.964      140.8196        0.1040      156.0605      156.1645      15.344891       1.64975
  35     3.853      140.9035        0.1358      155.9041      156.0398      15.136356       1.97904
  34     5.035      141.0300        0.1779      155.6774      155.8553      14.825238       2.22249
  33     6.613      141.2069        0.2341      155.3656      155.5998      14.392877       2.31140
  32     8.786      141.4372        0.3098      154.9577      155.2675      13.830281       2.18492
  31     11.80      141.7369        0.4179      154.4153      154.8332      13.096243       2.05507
  30     15.07      142.0241        0.5338      153.8804      154.4142      12.390129       1.82305
  29     18.79      142.3172        0.6646      153.3191      153.9836      11.666434       1.64084
  28     23.16      142.6236        0.8170      152.7126      153.5296      10.906024       1.47039
  27     28.12      142.9317        0.9911      152.0755      153.0666      10.134849       1.31095
  26     33.73      143.2162        1.1857      151.4409      152.6267       9.410491       1.08909
  25     40.54      143.4898        1.4207      150.7637      152.1844       8.694573       0.88818
  24     48.69      143.7516        1.7036      150.0338      151.7374       7.985810       0.73346
  23     57.69      143.9735        2.0140      149.3151      151.3292       7.355654       0.59068
  22     68.43      144.1668        2.3833      148.5476      150.9309       6.764111       0.46503
  21     81.20      144.2999        2.8230      147.7517      150.5747       6.274771       0.32335
  20     96.49      144.3683        3.3464      146.9127      150.2591       5.890767       0.21194
  19     114.6      144.4032        3.9661      145.9763      149.9424       5.539196       0.16416
  18     136.5      144.4133        4.6978      144.9088      149.6066       5.193345       0.13299
  17     162.9      144.3967        5.5651      143.6785      149.2436       4.846905       0.11074
  16     196.4      144.3138        6.6841      142.1651      148.8491       4.535321       0.07843
  15     218.7      144.2368        7.4153      141.2033      148.6187       4.381820       0.05828
  14     243.0      144.1428        8.2068      140.1753      148.3821       4.239248       0.04945
  13     269.0      144.0303        9.0606      139.0797      148.1403       4.110013       0.04192
  12     297.5      143.8984        9.9788      137.9141      147.8929       3.994490       0.03426
  11     328.5      143.7513       10.9658      136.6676      147.6334       3.882046       0.03057
  10     361.9      143.5888       12.0224      135.3392      147.3616       3.772816       0.02764
   9     398.1      143.4102       13.1527      133.9235      147.0761       3.665898       0.02491
   8     437.6      143.2167       14.3586      132.4163      146.7749       3.558133       0.02304
   7     480.5      143.0079       15.6424      130.8147      146.4571       3.449213       0.02139
   6     533.0      142.7510       17.2104      128.8599      146.0703       3.319282       0.02090
   5     589.8      142.4783       18.8857      126.7679      145.6536       3.175278       0.02138
   4     651.6      142.1964       20.6699      124.5274      145.1974       3.000927       0.02384
   3     718.7      141.9117       22.5649      122.1285      144.6933       2.781578       0.02757
   2     792.3      141.6415       24.5683      119.5548      144.1231       2.481583       0.03441
   1     891.5      123.1555      112.3429       12.8221      125.1651       2.009596       0.04016
   0    1013.0      123.3936      112.3746       12.3563      124.7309       1.337325       0.04668



 Wavenumbers: 22650. - 29000. cm-1, ATM      1
 LEVEL PRESSURE   UPWARD FLUX   DIFDOWN FLUX  DIRDOWN FLUX  DOWNWARD FLUX   NET FLUX    HEATING RATE
          mb          W/m2          W/m2          W/m2        W/m2          W/m2       degree/day
  51    .06700       58.6808        0.0000       59.0156       59.0156       0.334804       0.00000
  50    .07753       58.6807        0.0005       59.0151       59.0155       0.334804       0.00000
  49    .09103       58.6806        0.0010       59.0144       59.0154       0.334804      -0.00000
  48    0.1069       58.6805        0.0017       59.0136       59.0153       0.334804       0.00000
  47    0.1255       58.6803        0.0025       59.0127       59.0151       0.334804      -0.00000
  46    0.1487       58.6801        0.0035       59.0115       59.0149       0.334804      -0.00000
  45    0.1794       58.6799        0.0048       59.0099       59.0147       0.334804       0.00000
  44    0.2165       58.6796        0.0063       59.0080       59.0144       0.334804      -0.00000
  43    0.2613       58.6792        0.0082       59.0058       59.0140       0.334804       0.00000
  42    0.3336       58.6786        0.0113       59.0022       59.0134       0.334804       0.00000
  41    0.4307       58.6778        0.0154       58.9973       59.0127       0.334804      -0.00000
  40    0.5894       58.6766        0.0220       58.9894       59.0114       0.334804       0.00000
  39     1.339       58.6705        0.0535       58.9518       59.0053       0.334804       0.00000
  38     1.782       58.6669        0.0720       58.9297       59.0017       0.334804      -0.00000
  37     2.292       58.6628        0.0934       58.9042       58.9976       0.334804       0.00000
  36     2.964       58.6574        0.1216       58.8706       58.9922       0.334804       0.00000
  35     3.853       58.6503        0.1587       58.8264       58.9851       0.334804       0.00000
  34     5.035       58.6408        0.2080       58.7676       58.9756       0.334804       0.00000
  33     6.613       58.6281        0.2738       58.6891       58.9629       0.334804       0.00000
  32     8.786       58.6110        0.3624       58.5834       58.9458       0.334804       0.00000
  31     11.80       58.5867        0.4890       58.4324       58.9215       0.334804      -0.00000
  30     15.07       58.5605        0.6247       58.2706       58.8953       0.334804       0.00000
  29     18.79       58.5311        0.7776       58.0882       58.8659       0.334804       0.00000
  28     23.16       58.4968        0.9559       57.8757       58.8316       0.334804      -0.00000
  27     28.12       58.4576        1.1591       57.6333       58.7924       0.334804       0.00000
  26     33.73       58.4140        1.3857       57.3631       58.7488       0.334804       0.00000
  25     40.54       58.3615        1.6584       57.0379       58.6963       0.334804      -0.00000
  24     48.69       58.2985        1.9854       56.6479       58.6333       0.334804       0.00000
  23     57.69       58.2297        2.3424       56.2221       58.5645       0.334804      -0.00000
  22     68.43       58.1483        2.7646       55.7186       58.4831       0.334804      -0.00000
  21     81.20       58.0523        3.2631       55.1239       58.3871       0.334804       0.00000
  20     96.49       57.9390        3.8510       54.4228       58.2738       0.334804       0.00000
  19     114.6       57.8061        4.5399       53.6010       58.1409       0.334804       0.00000
  18     136.5       57.6510        5.3441       52.6418       57.9858       0.334804       0.00000
  17     162.9       57.4697        6.2841       51.5203       57.8045       0.334804      -0.00000
  16     196.4       57.2398        7.4752       50.0994       57.5746       0.334804       0.00000
  15     218.7       57.0920        8.2406       49.1863       57.4268       0.334804      -0.00000
  14     243.0       56.9342        9.0577       48.2113       57.2690       0.334804       0.00000
  13     269.0       56.7664        9.9262       47.1749       57.1012       0.334804       0.00000
  12     297.5       56.5887       10.8452       46.0783       56.9235       0.334804       0.00000
  11     328.5       56.4009       11.8162       44.9195       56.7357       0.334804      -0.00000
  10     361.9       56.2035       12.8364       43.7018       56.5383       0.334804       0.00000
   9     398.1       55.9963       13.9061       42.4250       56.3311       0.334804       0.00000
   8     437.6       55.7799       15.0230       41.0916       56.1147       0.334804       0.00000
   7     480.5       55.5546       16.1849       39.7045       55.8894       0.334804       0.00000
   6     533.0       55.2863       17.5669       38.0543       55.6211       0.334804       0.00000
   5     589.8       55.0079       18.9997       36.3431       55.3427       0.334804       0.00000
   4     651.6       54.7207       20.4760       34.5795       55.0555       0.334804      -0.00000
   3     718.7       54.4257       21.9903       32.7702       54.7605       0.334804      -0.00000
   2     792.3       54.1245       23.5337       30.9256       54.4593       0.334804       0.00000
   1     891.5       49.4348       46.6118        3.1576       49.7694       0.334597       0.00002
   0    1013.0       49.3771       46.8427        2.8691       49.7117       0.334597      -0.00000



 Wavenumbers: 29000. - 38000. cm-1, ATM      1
 LEVEL PRESSURE   UPWARD FLUX   DIFDOWN FLUX  DIRDOWN FLUX  DOWNWARD FLUX   NET FLUX    HEATING RATE
          mb          W/m2          W/m2          W/m2        W/m2          W/m2       degree/day
  51    .06700        8.7698        0.0000       20.8114       20.8114      12.041600       0.00000
  50    .07753        8.7696        0.0003       20.8070       20.8074      12.037793       3.05156
  49    .09103        8.7693        0.0007       20.8009       20.8016      12.032256       3.46086
  48    0.1069        8.7691        0.0012       20.7928       20.7939      12.024846       3.94430
  47    0.1255        8.7688        0.0017       20.7820       20.7837      12.014941       4.49035
  46    0.1487        8.7685        0.0024       20.7665       20.7688      12.000378       5.30845
  45    0.1794        8.7680        0.0033       20.7424       20.7457      11.977713       6.22205
  44    0.2165        8.7675        0.0044       20.7103       20.7147      11.947190       6.94342
  43    0.2613        8.7669        0.0056       20.6675       20.6731      11.906195       7.72734
  42    0.3336        8.7660        0.0077       20.5880       20.5957      11.829634       8.92627
  41    0.4307        8.7649        0.0104       20.4722       20.4826      11.717681       9.73405
  40    0.5894        8.7634        0.0147       20.2637       20.2784      11.514997      10.77849
  39     1.339        8.7600        0.0331       19.0984       19.1315      10.371516      12.87353
  38     1.782        8.7605        0.0427       18.4394       18.4821       9.721587      12.37358
  37     2.292        8.7632        0.0530       17.7714       17.8244       9.061237      10.93712
  36     2.964        8.7697        0.0657       17.0421       17.1078       8.338104       9.07750
  35     3.853        8.7826        0.0816       16.2678       16.3495       7.566911       7.31876
  34     5.035        8.8037        0.1018       15.4803       15.5821       6.778397       5.63282
  33     6.613        8.8345        0.1276       14.7157       14.8433       6.008785       4.11435
  32     8.786        8.8752        0.1614       13.9936       14.1550       5.279798       2.83112
  31     11.80        8.9282        0.2085       13.2835       13.4920       4.563784       2.00461
  30     15.07        8.9794        0.2573       12.7394       12.9966       4.017257       1.41102
  29     18.79        9.0322        0.3114       12.2666       12.5780       3.545753       1.06905
  28     23.16        9.0884        0.3729       11.8300       12.2030       3.114547       0.83381
  27     28.12        9.1460        0.4419       11.4279       11.8697       2.723780       0.66428
  26     33.73        9.1991        0.5178       11.0695       11.5873       2.388197       0.50456
  25     40.54        9.2495        0.6086       10.7209       11.3295       2.079946       0.38242
  24     48.69        9.2972        0.7163       10.3742       11.0905       1.793299       0.29664
  23     57.69        9.3363        0.8328       10.0549       10.8877       1.551449       0.22670
  22     68.43        9.3680        0.9696        9.7327       10.7023       1.334320       0.17069
  21     81.20        9.3833        1.1311        9.4134       10.5445       1.161171       0.11441
  20     96.49        9.3803        1.3209        9.0887       10.4096       1.029357       0.07275
  19     114.6        9.3670        1.5402        8.7388       10.2790       0.912019       0.05479
  18     136.5        9.3464        1.7910        8.3549       10.1458       0.799424       0.04330
  17     162.9        9.3188        2.0768        7.9311       10.0079       0.689171       0.03524
  16     196.4        9.2721        2.4309        7.4333        9.8642       0.592120       0.02443
  15     218.7        9.2384        2.6536        7.1295        9.7832       0.544782       0.01797
  14     243.0        9.2015        2.8865        6.8161        9.7025       0.501068       0.01516
  13     269.0        9.1611        3.1286        6.4943        9.6229       0.461814       0.01273
  12     297.5        9.1174        3.3789        6.1657        9.5446       0.427207       0.01026
  11     328.5        9.0718        3.6364        5.8295        9.4659       0.394072       0.00901
  10     361.9        9.0247        3.8987        5.4886        9.3873       0.362557       0.00797
   9     398.1        8.9763        4.1650        5.1440        9.3090       0.332689       0.00696
   8     437.6        8.9272        4.4341        4.7969        9.2310       0.303892       0.00616
   7     480.5        8.8775        4.7037        4.4504        9.1540       0.276556       0.00537
   6     533.0        8.8206        5.0111        4.0563        9.0673       0.246753       0.00479
   5     589.8        8.7645        5.3142        3.6682        8.9824       0.217892       0.00428
   4     651.6        8.7103        5.6094        3.2905        8.9000       0.189653       0.00386
   3     718.7        8.6584        5.8952        2.9252        8.8203       0.161990       0.00348
   2     792.3        8.6095        6.1680        2.5764        8.7444       0.134907       0.00311
   1     891.5        8.1563        8.0198        0.2393        8.2591       0.102803       0.00273
   0    1013.0        8.1599        8.0343        0.1937        8.2280       0.068021       0.00242



 Wavenumbers: 38000. - 50000. cm-1, ATM      1
 LEVEL PRESSURE   UPWARD FLUX   DIFDOWN FLUX  DIRDOWN FLUX  DOWNWARD FLUX   NET FLUX    HEATING RATE
          mb          W/m2          W/m2          W/m2        W/m2          W/m2       degree/day
  51    .06700        0.0061        0.0000        1.2836        1.2836       1.277518       0.00000
  50    .07753        0.0061        0.0001        1.2812        1.2812       1.275183       1.87150
  49    .09103        0.0060        0.0002        1.2777        1.2778       1.271851       2.08247
  48    0.1069        0.0059        0.0002        1.2731        1.2734       1.267473       2.33059
  47    0.1255        0.0058        0.0004        1.2672        1.2675       1.261717       2.60908
  46    0.1487        0.0057        0.0005        1.2586        1.2591       1.253391       3.03499
  45    0.1794        0.0055        0.0007        1.2455        1.2462       1.240623       3.50520
  44    0.2165        0.0054        0.0009        1.2282        1.2291       1.223697       3.85037
  43    0.2613        0.0052        0.0011        1.2054        1.2065       1.201348       4.21261
  42    0.3336        0.0049        0.0015        1.1639        1.1654       1.160524       4.75970
  41    0.4307        0.0045        0.0020        1.1051        1.1070       1.102565       5.03943
  40    0.5894        0.0039        0.0026        1.0039        1.0064       1.002524       5.32007
  39     1.339        0.0022        0.0035        0.5438        0.5473       0.545104       5.14971
  38     1.782        0.0016        0.0032        0.3635        0.3666       0.365006       3.42879
  37     2.292        0.0012        0.0027        0.2356        0.2383       0.237058       2.11916
  36     2.964        0.0009        0.0022        0.1455        0.1477       0.146786       1.13318
  35     3.853        0.0006        0.0017        0.0858        0.0875       0.086906       0.56828
  34     5.035        0.0004        0.0013        0.0488        0.0501       0.049701       0.26578
  33     6.613        0.0003        0.0010        0.0273        0.0282       0.027974       0.11615
  32     8.786        0.0002        0.0007        0.0144        0.0151       0.014928       0.05067
  31     11.80        0.0001        0.0004        0.0065        0.0070       0.006903       0.02247
  30     15.07        0.0000        0.0003        0.0031        0.0034       0.003329       0.00923
  29     18.79        0.0000        0.0002        0.0014        0.0016       0.001583       0.00396
  28     23.16        0.0000        0.0001        0.0006        0.0007       0.000720       0.00167
  27     28.12        0.0000        0.0001        0.0003        0.0003       0.000317       0.00069
  26     33.73        0.0000        0.0000        0.0001        0.0001       0.000140       0.00027
  25     40.54        0.0000        0.0000        0.0000        0.0001       0.000057       0.00010
  24     48.69        0.0000        0.0000        0.0000        0.0000       0.000021       0.00004
  23     57.69        0.0000        0.0000        0.0000        0.0000       0.000008       0.00001
  22     68.43        0.0000        0.0000        0.0000        0.0000       0.000003       0.00000
  21     81.20        0.0000        0.0000        0.0000        0.0000       0.000001       0.00000
  20     96.49        0.0000        0.0000        0.0000        0.0000       0.000000       0.00000
  19     114.6        0.0000        0.0000        0.0000        0.0000       0.000000       0.00000
  18     136.5        0.0000        0.0000        0.0000        0.0000       0.000000       0.00000
  17     162.9        0.0000        0.0000        0.0000        0.0000       0.000000       0.00000
  16     196.4        0.0000        0.0000        0.0000        0.0000       0.000000       0.00000
  15     218.7        0.0000        0.0000        0.0000        0.0000       0.000000       0.00000
  14     243.0        0.0000        0.0000        0.0000        0.0000       0.000000       0.00000
  13     269.0        0.0000        0.0000        0.0000        0.0000       0.000000       0.00000
  12     297.5        0.0000        0.0000        0.0000        0.0000       0.000000       0.00000
  11     328.5        0.0000        0.0000        0.0000        0.0000       0.000000       0.00000
  10     361.9        0.0000        0.0000        0.0000        0.0000       0.000000       0.00000
   9     398.1        0.0000        0.0000        0.0000        0.0000       0.000000       0.00000
   8     437.6        0.0000        0.0000        0.0000        0.0000       0.000000       0.00000
   7     480.5        0.0000        0.0000        0.0000        0.0000       0.000000       0.00000
   6     533.0        0.0000        0.0000        0.0000        0.0000       0.000000       0.00000
   5     589.8        0.0000        0.0000        0.0000        0.0000       0.000000       0.00000
   4     651.6        0.0000        0.0000        0.0000        0.0000       0.000000       0.00000
   3     718.7        0.0000        0.0000        0.0000        0.0000       0.000000       0.00000
   2     792.3        0.0000        0.0000        0.0000        0.0000       0.000000       0.00000
   1     891.5        0.0000        0.0000        0.0000        0.0000       0.000000       0.00000
   0    1013.0        0.0000        0.0000        0.0000        0.0000       0.000000       0.00000



 Wavenumbers:   820. -  2600. cm-1, ATM      1
 LEVEL PRESSURE   UPWARD FLUX   DIFDOWN FLUX  DIRDOWN FLUX  DOWNWARD FLUX   NET FLUX    HEATING RATE
          mb          W/m2          W/m2          W/m2        W/m2          W/m2       degree/day
  51    .06700        0.9086        0.0000        6.0047        6.0047       5.096075       0.00000
  50    .07753        0.9086        0.0000        6.0008        6.0008       5.092222       3.08822
  49    .09103        0.9086        0.0000        5.9999        5.9999       5.091336       0.55359
  48    0.1069        0.9086        0.0000        5.9989        5.9989       5.090347       0.52653
  47    0.1255        0.9086        0.0000        5.9978        5.9978       5.089230       0.50651
  46    0.1487        0.9086        0.0000        5.9964        5.9964       5.087873       0.49458
  45    0.1794        0.9086        0.0000        5.9947        5.9947       5.086154       0.47201
  44    0.2165        0.9086        0.0000        5.9929        5.9929       5.084311       0.41912
  43    0.2613        0.9086        0.0000        5.9909        5.9909       5.082352       0.36934
  42    0.3336        0.9086        0.0000        5.9880        5.9880       5.079473       0.33558
  41    0.4307        0.9086        0.0000        5.9846        5.9846       5.076004       0.30167
  40    0.5894        0.9086        0.0000        5.9791        5.9791       5.070498       0.29278
  39     1.339        0.9086        0.0000        5.9536        5.9536       5.045009       0.28696
  38     1.782        0.9086        0.0000        5.9395        5.9395       5.030870       0.26919
  37     2.292        0.9086        0.0000        5.9237        5.9237       5.015118       0.26090
  36     2.964        0.9086        0.0000        5.9039        5.9039       4.995342       0.24824
  35     3.853        0.9086        0.0000        5.8793        5.8793       4.970684       0.23401
  34     5.035        0.9086        0.0000        5.8487        5.8487       4.940118       0.21835
  33     6.613        0.9086        0.0000        5.8108        5.8108       4.902149       0.20298
  32     8.786        0.9086        0.0000        5.7631        5.7631       4.854520       0.18497
  31     11.80        0.9086        0.0000        5.7039        5.7039       4.795255       0.16592
  30     15.07        0.9087        0.0000        5.6539        5.6539       4.745207       0.12922
  29     18.79        0.9087        0.0000        5.6127        5.6127       4.704060       0.09329
  28     23.16        0.9087        0.0000        5.5794        5.5794       4.670670       0.06457
  27     28.12        0.9087        0.0000        5.5518        5.5518       4.643086       0.04689
  26     33.73        0.9088        0.0000        5.5268        5.5268       4.618012       0.03770
  25     40.54        0.9088        0.0000        5.4993        5.4993       4.590541       0.03408
  24     48.69        0.9088        0.0000        5.4678        5.4678       4.558966       0.03268
  23     57.69        0.9089        0.0000        5.4340        5.4340       4.525139       0.03171
  22     68.43        0.9089        0.0000        5.3947        5.3948       4.485816       0.03091
  21     81.20        0.9090        0.0000        5.3497        5.3497       4.440722       0.02980
  20     96.49        0.9091        0.0000        5.2982        5.2982       4.389132       0.02847
  19     114.6        0.9092        0.0000        5.2389        5.2389       4.329715       0.02774
  18     136.5        0.9093        0.0000        5.1716        5.1717       4.262338       0.02591
  17     162.9        0.9095        0.0000        5.0890        5.0890       4.179534       0.02647
  16     196.4        0.9098        0.0000        4.9668        4.9668       4.056994       0.03084
  15     218.7        0.9102        0.0000        4.8585        4.8585       3.948319       0.04126
  14     243.0        0.9107        0.0000        4.7078        4.7079       3.797197       0.05241
  13     269.0        0.9114        0.0000        4.5343        4.5343       3.622864       0.05655
  12     297.5        0.9126        0.0000        4.3419        4.3420       3.429339       0.05740
  11     328.5        0.9142        0.0000        4.1281        4.1281       3.213898       0.05858
  10     361.9        0.9164        0.0000        3.8786        3.8787       2.962282       0.06366
   9     398.1        0.9192        0.0000        3.6159        3.6160       2.696772       0.06186
   8     437.6        0.9228        0.0000        3.3759        3.3759       2.453107       0.05210
   7     480.5        0.9272        0.0000        3.1957        3.1958       2.268589       0.03624
   6     533.0        0.9339        0.0000        3.0467        3.0467       2.112812       0.02506
   5     589.8        0.9438        0.0000        2.9023        2.9023       1.958557       0.02290
   4     651.6        0.9609        0.0000        2.7183        2.7184       1.757479       0.02750
   3     718.7        0.9904        0.0000        2.5058        2.5059       1.515437       0.03042
   2     792.3        1.0469        0.0000        2.2756        2.2757       1.228770       0.03288
   1     891.5        0.0055        0.7400        0.2169        0.9569       0.951355       0.02361
   0    1013.0        0.0067        0.5961        0.1710        0.7671       0.760435       0.01326

  Modules and versions used in this calculation:

       rrtmg_sw.1col.f90:  $Revision$                    rrtmg_sw_init.f90:  $Revision$        
     rrtmgsw_cldprop.f90:  $Revision$                  rrtmgsw_cldprmc.f90:  NOT USED          
     rrtmg_sw_reftra.f90:  $Revision$                  rrtmg_sw_spcvrt.f90:  NOT USED          
     rrtmg_sw_spcvmc.f90:  NOT USED                    rrtmgsw_setcoef.f90:  NOT USED          
     rrtmg_sw_taumol.f90:  $Revision$                  rrtmg_sw_vrtqdr.f90:  NOT USED          
                rrtatm.f:  NOT USED                             util_xxx.f:  NOT USED          
                 extra.f:  NOT USED                       rrtmg_sw_k_g.f90:  $Revision$        

