

 Wavenumbers:   820. - 50000. cm-1, ATM      1
 LEVEL PRESSURE   UPWARD FLUX   DIFDOWN FLUX  DIRDOWN FLUX  DOWNWARD FLUX   NET FLUX    HEATING RATE
          mb          W/m2          W/m2          W/m2        W/m2          W/m2       degree/day
  51    .06700      469.2793        0.0000      617.8126      617.8126     148.533253       0.00000
  50    .07753      469.2790        0.0014      617.7947      617.7961     148.517108      12.94047
  49    .09103      469.2785        0.0031      617.7778      617.7808     148.502292       9.26070
  48    0.1069      469.2781        0.0050      617.7581      617.7631     148.485022       9.19290
  47    0.1255      469.2776        0.0073      617.7340      617.7412     148.463666       9.68157
  46    0.1487      469.2770        0.0101      617.7009      617.7110     148.433965      10.82629
  45    0.1794      469.2763        0.0140      617.6521      617.6660     148.389711      12.14874
  44    0.2165      469.2756        0.0185      617.5895      617.6080     148.332360      13.04644
  43    0.2613      469.2750        0.0239      617.5089      617.5328     148.257808      14.05280
  42    0.3336      469.2742        0.0328      617.3641      617.3969     148.122649      15.75812
  41    0.4307      469.2737        0.0445      617.1591      617.2036     147.929918      16.75755
  40    0.5894      469.2738        0.0633      616.8005      616.8638     147.590026      18.07503
  39     1.339      469.2928        0.1486      614.9443      615.0929     145.800014      20.15229
  38     1.782      469.3170        0.1966      613.9670      614.1636     144.846603      18.15141
  37     2.292      469.3567        0.2512      613.0059      613.2571     143.900352      15.67239
  36     2.964      469.4266        0.3222      611.9577      612.2799     142.853252      13.14427
  35     3.853      469.5436        0.4153      610.8024      611.2177     141.674108      11.19029
  34     5.035      469.7233        0.5382      609.5327      610.0709     140.347578       9.47618
  33     6.613      469.9763        0.7013      608.1464      608.8477     138.871398       7.89166
  32     8.786      470.3059        0.9201      606.6250      607.5451     137.239169       6.33899
  31     11.80      470.7331        1.2316      604.8486      606.0803     135.347127       5.29712
  30     15.07      471.1401        1.5641      603.2440      604.8080     133.667882       4.33548
  29     18.79      471.5537        1.9382      601.6511      603.5893     132.035533       3.70104
  28     23.16      471.9837        2.3728      599.9927      602.3655     130.381856       3.19768
  27     28.12      472.4130        2.8676      598.2881      601.1557     128.742627       2.78658
  26     33.73      472.8025        3.4192      596.5951      600.0143     127.211841       2.30158
  25     40.54      473.1669        4.0834      594.7727      598.8561     125.689165       1.88905
  24     48.69      473.5036        4.8804      592.7865      597.6669     124.163302       1.57903
  23     57.69      473.7738        5.7517      590.7959      596.5476     122.773772       1.30248
  22     68.43      473.9875        6.7839      588.6191      595.4030     121.415448       1.06782
  21     81.20      474.0921        8.0078      586.2690      594.2768     120.184695       0.81326
  20     96.49      474.0775        9.4570      583.6961      593.1531     119.075587       0.61215
  19     114.6      474.0030       11.1621      580.7708      591.9329     117.929839       0.53498
  18     136.5      473.8697       13.1587      577.4359      590.5946     116.724921       0.46332
  17     162.9      473.6729       15.5022      573.5624      589.0646     115.391707       0.42615
  16     196.4      473.3299       18.4912      568.5907      587.0819     113.752004       0.41273
  15     218.7      473.0770       20.4241      565.0572      585.4813     112.404255       0.51169
  14     243.0      472.7959       22.4974      560.7495      583.2469     110.451012       0.67745
  13     269.0      472.4895       24.7127      555.3947      580.1074     107.617907       0.91905
  12     297.5      472.1659       27.0708      548.9964      576.0671     103.901214       1.10233
  11     328.5      471.8369       29.5781      542.0895      571.6676      99.830692       1.10676
  10     361.9      471.5134       32.2309      534.6242      566.8551      95.341706       1.13576
   9     398.1      471.2113       35.0340      526.4204      561.4544      90.243129       1.18785
   8     437.6      470.9604       37.9859      517.3907      555.3766      84.416182       1.24584
   7     480.5      470.7939       41.0848      507.7216      548.8064      78.012540       1.25765
   6     533.0      470.7816       44.8113      495.9006      540.7119      69.930342       1.30017
   5     589.8      471.1228       48.7223      483.0788      531.8011      60.678326       1.37330
   4     651.6      472.2357       52.8048      468.6907      521.4955      49.259785       1.56152
   3     718.7      474.7352       57.0507      453.2257      510.2765      35.541318       1.72403
   2     792.3      480.3055       61.4377      436.4928      497.9305      17.625041       2.05480
   1     891.5      197.1493      206.4520        0.0000      206.4520       9.302734       0.70819
   0    1013.0      197.8648      205.4226        0.0000      205.4226       7.557767       0.12116



 Wavenumbers:  2600. -  3250. cm-1, ATM      1
 LEVEL PRESSURE   UPWARD FLUX   DIFDOWN FLUX  DIRDOWN FLUX  DOWNWARD FLUX   NET FLUX    HEATING RATE
          mb          W/m2          W/m2          W/m2        W/m2          W/m2       degree/day
  51    .06700        2.2755        0.0000        5.4450        5.4450       3.169524       0.00000
  50    .07753        2.2755        0.0000        5.4450        5.4450       3.169516       0.00640
  49    .09103        2.2755        0.0000        5.4450        5.4450       3.169506       0.00627
  48    0.1069        2.2755        0.0000        5.4450        5.4450       3.169495       0.00613
  47    0.1255        2.2755        0.0000        5.4450        5.4450       3.169481       0.00599
  46    0.1487        2.2755        0.0000        5.4450        5.4450       3.169465       0.00608
  45    0.1794        2.2755        0.0000        5.4450        5.4450       3.169442       0.00625
  44    0.2165        2.2755        0.0000        5.4449        5.4449       3.169415       0.00612
  43    0.2613        2.2755        0.0000        5.4449        5.4449       3.169383       0.00600
  42    0.3336        2.2755        0.0000        5.4448        5.4448       3.169330       0.00617
  41    0.4307        2.2755        0.0000        5.4448        5.4448       3.169259       0.00620
  40    0.5894        2.2755        0.0000        5.4446        5.4446       3.169139       0.00637
  39     1.339        2.2755        0.0000        5.4439        5.4439       3.168432       0.00797
  38     1.782        2.2755        0.0000        5.4434        5.4434       3.167889       0.01034
  37     2.292        2.2755        0.0000        5.4427        5.4427       3.167173       0.01186
  36     2.964        2.2755        0.0000        5.4416        5.4416       3.166134       0.01304
  35     3.853        2.2755        0.0000        5.4402        5.4402       3.164656       0.01402
  34     5.035        2.2755        0.0000        5.4381        5.4381       3.162601       0.01469
  33     6.613        2.2755        0.0000        5.4353        5.4353       3.159819       0.01487
  32     8.786        2.2755        0.0000        5.4317        5.4317       3.156186       0.01411
  31     11.80        2.2755        0.0000        5.4269        5.4269       3.151403       0.01339
  30     15.07        2.2755        0.0000        5.4224        5.4224       3.146873       0.01170
  29     18.79        2.2755        0.0000        5.4180        5.4180       3.142456       0.01002
  28     23.16        2.2755        0.0000        5.4135        5.4135       3.137962       0.00869
  27     28.12        2.2755        0.0000        5.4088        5.4088       3.133303       0.00792
  26     33.73        2.2756        0.0000        5.4036        5.4036       3.128047       0.00790
  25     40.54        2.2756        0.0000        5.3966        5.3967       3.121081       0.00864
  24     48.69        2.2756        0.0000        5.3872        5.3872       3.111566       0.00985
  23     57.69        2.2757        0.0000        5.3754        5.3754       3.099731       0.01109
  22     68.43        2.2758        0.0000        5.3599        5.3599       3.084168       0.01223
  21     81.20        2.2759        0.0000        5.3401        5.3401       3.064229       0.01318
  20     96.49        2.2760        0.0000        5.3155        5.3155       3.039512       0.01364
  19     114.6        2.2762        0.0001        5.2853        5.2854       3.009109       0.01420
  18     136.5        2.2766        0.0001        5.2504        5.2505       2.973912       0.01353
  17     162.9        2.2770        0.0001        5.2111        5.2112       2.934151       0.01271
  16     196.4        2.2778        0.0001        5.1640        5.1641       2.886367       0.01203
  15     218.7        2.2785        0.0001        5.1331        5.1332       2.854715       0.01202
  14     243.0        2.2797        0.0001        5.0962        5.0963       2.816613       0.01322
  13     269.0        2.2816        0.0001        5.0511        5.0512       2.769617       0.01525
  12     297.5        2.2845        0.0001        4.9956        4.9957       2.711281       0.01730
  11     328.5        2.2885        0.0001        4.9304        4.9305       2.642049       0.01882
  10     361.9        2.2940        0.0002        4.8511        4.8513       2.557253       0.02145
   9     398.1        2.3017        0.0002        4.7507        4.7509       2.449170       0.02518
   8     437.6        2.3124        0.0002        4.6220        4.6222       2.309806       0.02980
   7     480.5        2.3274        0.0002        4.4625        4.4627       2.135284       0.03428
   6     533.0        2.3520        0.0002        4.2460        4.2463       1.894270       0.03877
   5     589.8        2.3899        0.0002        3.9954        3.9956       1.605767       0.04282
   4     651.6        2.4532        0.0002        3.7089        3.7091       1.255850       0.04785
   3     718.7        2.5600        0.0002        3.4018        3.4021       0.842054       0.05200
   2     792.3        2.7597        0.0002        3.0564        3.0567       0.296950       0.06252
   1     891.5        0.0006        0.0720        0.0000        0.0720       0.071439       0.01919
   0    1013.0        0.0007        0.0639        0.0000        0.0639       0.063228       0.00057



 Wavenumbers:  3250. -  4000. cm-1, ATM      1
 LEVEL PRESSURE   UPWARD FLUX   DIFDOWN FLUX  DIRDOWN FLUX  DOWNWARD FLUX   NET FLUX    HEATING RATE
          mb          W/m2          W/m2          W/m2        W/m2          W/m2       degree/day
  51    .06700        0.0961        0.0000        9.1795        9.1795       9.083475       0.00000
  50    .07753        0.0961        0.0000        9.1747        9.1747       9.078632       3.88148
  49    .09103        0.0961        0.0000        9.1713        9.1713       9.075244       2.11747
  48    0.1069        0.0961        0.0000        9.1688        9.1688       9.072719       1.34402
  47    0.1255        0.0961        0.0000        9.1665        9.1665       9.070460       1.02422
  46    0.1487        0.0961        0.0000        9.1641        9.1641       9.068019       0.88991
  45    0.1794        0.0961        0.0000        9.1612        9.1612       9.065141       0.79008
  44    0.2165        0.0961        0.0000        9.1583        9.1583       9.062220       0.66430
  43    0.2613        0.0961        0.0000        9.1553        9.1553       9.059247       0.56041
  42    0.3336        0.0961        0.0000        9.1511        9.1511       9.055068       0.48723
  41    0.4307        0.0961        0.0000        9.1464        9.1464       9.050300       0.41459
  40    0.5894        0.0961        0.0000        9.1393        9.1394       9.043295       0.37255
  39     1.339        0.0961        0.0000        9.1127        9.1127       9.016681       0.29962
  38     1.782        0.0961        0.0000        9.1011        9.1011       9.005093       0.22062
  37     2.292        0.0961        0.0000        9.0901        9.0901       8.994026       0.18329
  36     2.964        0.0961        0.0000        9.0776        9.0776       8.981596       0.15603
  35     3.853        0.0961        0.0000        9.0629        9.0629       8.966806       0.14036
  34     5.035        0.0960        0.0000        9.0441        9.0441       8.948067       0.13386
  33     6.613        0.0960        0.0000        9.0191        9.0191       8.923066       0.13366
  32     8.786        0.0960        0.0000        8.9843        8.9843       8.888282       0.13509
  31     11.80        0.0960        0.0000        8.9327        8.9327       8.836666       0.14451
  30     15.07        0.0960        0.0000        8.8758        8.8759       8.779821       0.14676
  29     18.79        0.0960        0.0000        8.8110        8.8110       8.714993       0.14698
  28     23.16        0.0960        0.0000        8.7365        8.7366       8.640549       0.14395
  27     28.12        0.0960        0.0000        8.6554        8.6555       8.559435       0.13789
  26     33.73        0.0960        0.0000        8.5719        8.5719       8.475936       0.12554
  25     40.54        0.0960        0.0001        8.4812        8.4812       8.385212       0.11255
  24     48.69        0.0960        0.0001        8.3838        8.3839       8.287910       0.10069
  23     57.69        0.0960        0.0001        8.2861        8.2862       8.190175       0.09161
  22     68.43        0.0960        0.0001        8.1751        8.1751       8.079178       0.08726
  21     81.20        0.0960        0.0001        8.0457        8.0458       7.949820       0.08548
  20     96.49        0.0959        0.0001        7.8949        7.8951       7.799116       0.08318
  19     114.6        0.0959        0.0001        7.7162        7.7163       7.620406       0.08345
  18     136.5        0.0959        0.0002        7.5193        7.5195       7.423561       0.07569
  17     162.9        0.0959        0.0002        7.2913        7.2915       7.195667       0.07284
  16     196.4        0.0958        0.0002        6.9660        6.9662       6.870387       0.08188
  15     218.7        0.0958        0.0002        6.6648        6.6650       6.569182       0.11436
  14     243.0        0.0958        0.0002        6.2619        6.2622       6.166347       0.13972
  13     269.0        0.0959        0.0003        5.7576        5.7579       5.661949       0.16362
  12     297.5        0.0961        0.0003        5.1719        5.1722       5.076049       0.17377
  11     328.5        0.0965        0.0002        4.5757        4.5760       4.479524       0.16219
  10     361.9        0.0970        0.0002        3.9995        3.9998       3.902743       0.14593
   9     398.1        0.0980        0.0002        3.4655        3.4657       3.367695       0.12465
   8     437.6        0.0997        0.0002        2.9740        2.9743       2.874597       0.10543
   7     480.5        0.1023        0.0002        2.5307        2.5309       2.428554       0.08760
   6     533.0        0.1075        0.0002        2.0614        2.0616       1.954106       0.07632
   5     589.8        0.1169        0.0002        1.6150        1.6151       1.498262       0.06766
   4     651.6        0.1365        0.0001        1.1565        1.1566       1.020037       0.06540
   3     718.7        0.1800        0.0001        0.7390        0.7391       0.559098       0.05793
   2     792.3        0.2969        0.0001        0.3985        0.3985       0.101651       0.05246
   1     891.5        0.0000        0.0002        0.0000        0.0002       0.000225       0.00863
   0    1013.0        0.0000        0.0000        0.0000        0.0000       0.000022       0.00001



 Wavenumbers:  4000. -  4650. cm-1, ATM      1
 LEVEL PRESSURE   UPWARD FLUX   DIFDOWN FLUX  DIRDOWN FLUX  DOWNWARD FLUX   NET FLUX    HEATING RATE
          mb          W/m2          W/m2          W/m2        W/m2          W/m2       degree/day
  51    .06700        7.2102        0.0000       10.7795       10.7795       3.569298       0.00000
  50    .07753        7.2102        0.0000       10.7795       10.7795       3.569297       0.00080
  49    .09103        7.2102        0.0000       10.7795       10.7795       3.569296       0.00078
  48    0.1069        7.2102        0.0000       10.7795       10.7795       3.569295       0.00077
  47    0.1255        7.2102        0.0000       10.7795       10.7795       3.569293       0.00075
  46    0.1487        7.2102        0.0000       10.7795       10.7795       3.569291       0.00076
  45    0.1794        7.2102        0.0000       10.7795       10.7795       3.569288       0.00078
  44    0.2165        7.2102        0.0000       10.7795       10.7795       3.569285       0.00076
  43    0.2613        7.2102        0.0000       10.7795       10.7795       3.569281       0.00075
  42    0.3336        7.2102        0.0000       10.7795       10.7795       3.569274       0.00077
  41    0.4307        7.2102        0.0000       10.7795       10.7795       3.569265       0.00078
  40    0.5894        7.2102        0.0000       10.7795       10.7795       3.569250       0.00080
  39     1.339        7.2102        0.0000       10.7794       10.7794       3.569161       0.00101
  38     1.782        7.2102        0.0000       10.7793       10.7793       3.569090       0.00133
  37     2.292        7.2102        0.0000       10.7792       10.7792       3.568996       0.00156
  36     2.964        7.2102        0.0000       10.7791       10.7791       3.568855       0.00177
  35     3.853        7.2102        0.0000       10.7789       10.7789       3.568646       0.00198
  34     5.035        7.2102        0.0000       10.7786       10.7786       3.568338       0.00220
  33     6.613        7.2102        0.0000       10.7781       10.7781       3.567885       0.00243
  32     8.786        7.2102        0.0000       10.7774       10.7775       3.567215       0.00260
  31     11.80        7.2102        0.0001       10.7763       10.7764       3.566161       0.00295
  30     15.07        7.2102        0.0001       10.7751       10.7752       3.564924       0.00319
  29     18.79        7.2103        0.0001       10.7736       10.7737       3.563427       0.00340
  28     23.16        7.2103        0.0001       10.7717       10.7718       3.561566       0.00360
  27     28.12        7.2103        0.0001       10.7695       10.7696       3.559310       0.00384
  26     33.73        7.2103        0.0002       10.7667       10.7668       3.556524       0.00419
  25     40.54        7.2104        0.0002       10.7629       10.7631       3.552739       0.00469
  24     48.69        7.2105        0.0002       10.7579       10.7582       3.547688       0.00523
  23     57.69        7.2106        0.0003       10.7520       10.7523       3.541686       0.00563
  22     68.43        7.2108        0.0004       10.7446       10.7450       3.534145       0.00593
  21     81.20        7.2111        0.0004       10.7355       10.7359       3.524834       0.00615
  20     96.49        7.2115        0.0005       10.7245       10.7250       3.513467       0.00627
  19     114.6        7.2121        0.0006       10.7107       10.7113       3.499201       0.00666
  18     136.5        7.2129        0.0007       10.6942       10.6949       3.481943       0.00664
  17     162.9        7.2142        0.0008       10.6740       10.6748       3.460678       0.00680
  16     196.4        7.2162        0.0010       10.6464       10.6474       3.431147       0.00743
  15     218.7        7.2180        0.0011       10.6255       10.6266       3.408556       0.00858
  14     243.0        7.2206        0.0012       10.5980       10.5993       3.378670       0.01037
  13     269.0        7.2244        0.0014       10.5611       10.5624       3.338018       0.01319
  12     297.5        7.2300        0.0015       10.5119       10.5134       3.283447       0.01619
  11     328.5        7.2376        0.0016       10.4499       10.4515       3.213907       0.01891
  10     361.9        7.2476        0.0018       10.3702       10.3720       3.124368       0.02265
   9     398.1        7.2602        0.0020       10.2678       10.2698       3.009513       0.02676
   8     437.6        7.2765        0.0021       10.1390       10.1411       2.864663       0.03097
   7     480.5        7.2975        0.0023        9.9877        9.9900       2.692554       0.03380
   6     533.0        7.3302        0.0026        9.7937        9.7962       2.466051       0.03644
   5     589.8        7.3782        0.0028        9.5752        9.5779       2.199748       0.03953
   4     651.6        7.4572        0.0030        9.2958        9.2988       1.841597       0.04898
   3     718.7        7.5938        0.0032        8.9267        8.9300       1.336177       0.06352
   2     792.3        7.8616        0.0034        8.4542        8.4577       0.596083       0.08488
   1     891.5        0.0429        0.3146        0.0000        0.3146       0.271707       0.02760
   0    1013.0        0.0447        0.2996        0.0000        0.2996       0.254899       0.00117



 Wavenumbers:  4650. -  5150. cm-1, ATM      1
 LEVEL PRESSURE   UPWARD FLUX   DIFDOWN FLUX  DIRDOWN FLUX  DOWNWARD FLUX   NET FLUX    HEATING RATE
          mb          W/m2          W/m2          W/m2        W/m2          W/m2       degree/day
  51    .06700        5.2233        0.0000       10.2033       10.2033       4.980061       0.00000
  50    .07753        5.2233        0.0000       10.2031       10.2031       4.979825       0.18901
  49    .09103        5.2233        0.0000       10.2028       10.2028       4.979530       0.18428
  48    0.1069        5.2233        0.0000       10.2025       10.2025       4.979194       0.17931
  47    0.1255        5.2233        0.0000       10.2021       10.2021       4.978809       0.17426
  46    0.1487        5.2233        0.0000       10.2016       10.2016       4.978328       0.17536
  45    0.1794        5.2233        0.0000       10.2010       10.2010       4.977678       0.17850
  44    0.2165        5.2233        0.0000       10.2002       10.2002       4.976918       0.17277
  43    0.2613        5.2233        0.0000       10.1993       10.1993       4.976033       0.16690
  42    0.3336        5.2233        0.0000       10.1979       10.1979       4.974600       0.16702
  41    0.4307        5.2233        0.0000       10.1960       10.1960       4.972760       0.16002
  40    0.5894        5.2233        0.0000       10.1932       10.1932       4.969886       0.15283
  39     1.339        5.2233        0.0000       10.1816       10.1816       4.958294       0.13051
  38     1.782        5.2233        0.0000       10.1760       10.1760       4.952764       0.10527
  37     2.292        5.2233        0.0000       10.1706       10.1706       4.947307       0.09039
  36     2.964        5.2233        0.0000       10.1646       10.1647       4.941382       0.07437
  35     3.853        5.2233        0.0000       10.1584       10.1584       4.935164       0.05900
  34     5.035        5.2233        0.0000       10.1521       10.1521       4.928824       0.04529
  33     6.613        5.2233        0.0000       10.1456       10.1456       4.922358       0.03456
  32     8.786        5.2233        0.0001       10.1386       10.1386       4.915333       0.02728
  31     11.80        5.2233        0.0001       10.1295       10.1296       4.906265       0.02539
  30     15.07        5.2234        0.0001       10.1196       10.1197       4.896349       0.02560
  29     18.79        5.2234        0.0001       10.1076       10.1077       4.884289       0.02734
  28     23.16        5.2235        0.0002       10.0923       10.0924       4.868910       0.02974
  27     28.12        5.2236        0.0002       10.0731       10.0734       4.849713       0.03263
  26     33.73        5.2238        0.0002       10.0500       10.0503       4.826483       0.03493
  25     40.54        5.2240        0.0003       10.0201       10.0204       4.796386       0.03734
  24     48.69        5.2244        0.0004        9.9820        9.9823       4.757939       0.03979
  23     57.69        5.2248        0.0004        9.9384        9.9389       4.714048       0.04114
  22     68.43        5.2254        0.0005        9.8858        9.8863       4.660828       0.04184
  21     81.20        5.2263        0.0006        9.8234        9.8240       4.597762       0.04167
  20     96.49        5.2274        0.0007        9.7518        9.7525       4.525013       0.04015
  19     114.6        5.2291        0.0008        9.6719        9.6727       4.443680       0.03798
  18     136.5        5.2313        0.0010        9.5858        9.5868       4.355476       0.03392
  17     162.9        5.2344        0.0011        9.4940        9.4952       4.260797       0.03026
  16     196.4        5.2391        0.0014        9.3883        9.3896       4.150502       0.02776
  15     218.7        5.2429        0.0015        9.3229        9.3244       4.081557       0.02618
  14     243.0        5.2477        0.0017        9.2520        9.2536       4.005958       0.02622
  13     269.0        5.2541        0.0018        9.1717        9.1735       3.919373       0.02809
  12     297.5        5.2631        0.0020        9.0763        9.0783       3.815222       0.03089
  11     328.5        5.2747        0.0022        8.9650        8.9672       3.692456       0.03338
  10     361.9        5.2897        0.0024        8.8349        8.8373       3.547583       0.03665
   9     398.1        5.3093        0.0026        8.6820        8.6846       3.375369       0.04012
   8     437.6        5.3347        0.0028        8.5028        8.5056       3.170948       0.04371
   7     480.5        5.3678        0.0031        8.2948        8.2979       2.930037       0.04731
   6     533.0        5.4186        0.0033        8.0209        8.0242       2.605632       0.05219
   5     589.8        5.4895        0.0036        7.7063        7.7099       2.220448       0.05717
   4     651.6        5.5951        0.0038        7.3412        7.3450       1.749913       0.06435
   3     718.7        5.7570        0.0040        6.9387        6.9427       1.185701       0.07091
   2     792.3        6.0218        0.0042        6.5066        6.5108       0.489086       0.07989
   1     891.5        0.0098        0.2046        0.0000        0.2046       0.194859       0.02504
   0    1013.0        0.0103        0.1926        0.0000        0.1926       0.182309       0.00087



 Wavenumbers:  5150. -  6150. cm-1, ATM      1
 LEVEL PRESSURE   UPWARD FLUX   DIFDOWN FLUX  DIRDOWN FLUX  DOWNWARD FLUX   NET FLUX    HEATING RATE
          mb          W/m2          W/m2          W/m2        W/m2          W/m2       degree/day
  51    .06700       12.3168        0.0000       25.5798       25.5798      13.263054       0.00000
  50    .07753       12.3168        0.0000       25.5798       25.5798      13.263014       0.03164
  49    .09103       12.3168        0.0000       25.5797       25.5797      13.262963       0.03212
  48    0.1069       12.3168        0.0000       25.5797       25.5797      13.262902       0.03263
  47    0.1255       12.3168        0.0000       25.5796       25.5796      13.262829       0.03313
  46    0.1487       12.3168        0.0000       25.5795       25.5795      13.262733       0.03490
  45    0.1794       12.3168        0.0000       25.5794       25.5794      13.262597       0.03714
  44    0.2165       12.3168        0.0000       25.5792       25.5792      13.262432       0.03771
  43    0.2613       12.3168        0.0000       25.5790       25.5790      13.262229       0.03828
  42    0.3336       12.3168        0.0000       25.5786       25.5786      13.261882       0.04045
  41    0.4307       12.3168        0.0000       25.5782       25.5782      13.261410       0.04099
  40    0.5894       12.3168        0.0000       25.5774       25.5774      13.260620       0.04200
  39     1.339       12.3168        0.0000       25.5735       25.5736      13.256815       0.04285
  38     1.782       12.3168        0.0001       25.5713       25.5714      13.254598       0.04220
  37     2.292       12.3168        0.0001       25.5688       25.5689      13.252088       0.04157
  36     2.964       12.3168        0.0001       25.5656       25.5657      13.248899       0.04004
  35     3.853       12.3168        0.0001       25.5615       25.5616      13.244844       0.03848
  34     5.035       12.3168        0.0002       25.5562       25.5564      13.239619       0.03732
  33     6.613       12.3168        0.0002       25.5494       25.5496      13.232839       0.03625
  32     8.786       12.3168        0.0003       25.5406       25.5409      13.224048       0.03414
  31     11.80       12.3169        0.0004       25.5287       25.5291      13.212150       0.03331
  30     15.07       12.3170        0.0005       25.5167       25.5172      13.200209       0.03083
  29     18.79       12.3171        0.0006       25.5042       25.5048      13.187713       0.02833
  28     23.16       12.3172        0.0008       25.4907       25.4914      13.174237       0.02606
  27     28.12       12.3174        0.0009       25.4764       25.4774      13.160010       0.02418
  26     33.73       12.3176        0.0011       25.4620       25.4631      13.145562       0.02172
  25     40.54       12.3179        0.0013       25.4463       25.4476      13.129718       0.01966
  24     48.69       12.3183        0.0016       25.4294       25.4310      13.112687       0.01762
  23     57.69       12.3188        0.0019       25.4126       25.4145      13.095715       0.01591
  22     68.43       12.3194        0.0022       25.3944       25.3967      13.077217       0.01454
  21     81.20       12.3203        0.0027       25.3744       25.3771      13.056792       0.01350
  20     96.49       12.3213        0.0032       25.3519       25.3551      13.033770       0.01271
  19     114.6       12.3226        0.0037       25.3262       25.3299      13.007309       0.01236
  18     136.5       12.3242        0.0045       25.2962       25.3006      12.976453       0.01186
  17     162.9       12.3262        0.0053       25.2521       25.2574      12.931229       0.01446
  16     196.4       12.3289        0.0064       25.1593       25.1657      12.836799       0.02377
  15     218.7       12.3308        0.0071       25.0159       25.0230      12.692180       0.05491
  14     243.0       12.3332        0.0078       24.7089       24.7167      12.383485       0.10707
  13     269.0       12.3363        0.0085       24.1619       24.1703      11.834067       0.17823
  12     297.5       12.3404        0.0092       23.4544       23.4636      11.123139       0.21085
  11     328.5       12.3459        0.0099       22.7355       22.7454      10.399499       0.19676
  10     361.9       12.3531        0.0107       21.9224       21.9331       9.579978       0.20735
   9     398.1       12.3628        0.0114       20.9939       21.0053       8.642453       0.21842
   8     437.6       12.3764        0.0121       19.9833       19.9954       7.618997       0.21882
   7     480.5       12.3953        0.0128       18.9483       18.9611       6.565779       0.20685
   6     533.0       12.4275        0.0135       17.7796       17.7931       5.365675       0.19306
   5     589.8       12.4799        0.0143       16.6726       16.6869       4.206998       0.17199
   4     651.6       12.5766        0.0151       15.6343       15.6495       3.072862       0.15510
   3     718.7       12.7557        0.0161       14.7738       14.7898       2.034147       0.13054
   2     792.3       13.1231        0.0170       14.0291       14.0461       0.923082       0.12743
   1     891.5        0.0975        0.5775        0.0000        0.5775       0.480051       0.03770
   0    1013.0        0.0997        0.5608        0.0000        0.5608       0.461060       0.00132



 Wavenumbers:  6150. -  7700. cm-1, ATM      1
 LEVEL PRESSURE   UPWARD FLUX   DIFDOWN FLUX  DIRDOWN FLUX  DOWNWARD FLUX   NET FLUX    HEATING RATE
          mb          W/m2          W/m2          W/m2        W/m2          W/m2       degree/day
  51    .06700       19.9293        0.0000       47.3109       47.3109      27.381574       0.00000
  50    .07753       19.9293        0.0000       47.3108       47.3108      27.381518       0.04553
  49    .09103       19.9293        0.0000       47.3107       47.3107      27.381444       0.04583
  48    0.1069       19.9293        0.0000       47.3106       47.3106      27.381358       0.04614
  47    0.1255       19.9293        0.0000       47.3105       47.3105      27.381255       0.04645
  46    0.1487       19.9293        0.0000       47.3104       47.3104      27.381122       0.04852
  45    0.1794       19.9293        0.0000       47.3102       47.3102      27.380935       0.05127
  44    0.2165       19.9293        0.0000       47.3100       47.3100      27.380708       0.05167
  43    0.2613       19.9293        0.0000       47.3097       47.3097      27.380432       0.05210
  42    0.3336       19.9293        0.0000       47.3092       47.3092      27.379963       0.05471
  41    0.4307       19.9293        0.0000       47.3085       47.3086      27.379328       0.05521
  40    0.5894       19.9292        0.0001       47.3074       47.3075      27.378268       0.05634
  39     1.339       19.9292        0.0002       47.3022       47.3024      27.373176       0.05733
  38     1.782       19.9292        0.0002       47.2991       47.2994      27.370206       0.05655
  37     2.292       19.9291        0.0003       47.2956       47.2959      27.366830       0.05591
  36     2.964       19.9291        0.0004       47.2912       47.2916      27.362512       0.05421
  35     3.853       19.9290        0.0005       47.2855       47.2860      27.356977       0.05252
  34     5.035       19.9289        0.0007       47.2780       47.2787      27.349796       0.05130
  33     6.613       19.9288        0.0009       47.2683       47.2692      27.340408       0.05019
  32     8.786       19.9286        0.0012       47.2556       47.2568      27.328109       0.04777
  31     11.80       19.9284        0.0016       47.2380       47.2396      27.311204       0.04733
  30     15.07       19.9282        0.0020       47.2201       47.2221      27.293916       0.04464
  29     18.79       19.9279        0.0025       47.2008       47.2033      27.275434       0.04190
  28     23.16       19.9276        0.0031       47.1795       47.1826      27.255042       0.03943
  27     28.12       19.9272        0.0038       47.1565       47.1603      27.233046       0.03739
  26     33.73       19.9268        0.0045       47.1324       47.1369      27.210121       0.03447
  25     40.54       19.9263        0.0054       47.1054       47.1108      27.184480       0.03181
  24     48.69       19.9257        0.0065       47.0754       47.0820      27.156220       0.02924
  23     57.69       19.9251        0.0077       47.0449       47.0527      27.127590       0.02684
  22     68.43       19.9243        0.0092       47.0110       47.0202      27.095843       0.02496
  21     81.20       19.9234        0.0109       46.9729       46.9838      27.060335       0.02346
  20     96.49       19.9223        0.0129       46.9294       46.9423      27.019974       0.02228
  19     114.6       19.9211        0.0154       46.8790       46.8944      26.973312       0.02179
  18     136.5       19.9196        0.0182       46.8200       46.8382      26.918646       0.02102
  17     162.9       19.9178        0.0217       46.7361       46.7578      26.839949       0.02515
  16     196.4       19.9158        0.0261       46.5703       46.5963      26.680559       0.04012
  15     218.7       19.9147        0.0289       46.3473       46.3762      26.461555       0.08315
  14     243.0       19.9140        0.0319       45.9299       45.9618      26.047824       0.14350
  13     269.0       19.9143        0.0350       45.1708       45.2057      25.291466       0.24536
  12     297.5       19.9166        0.0379       44.0115       44.0494      24.132809       0.34364
  11     328.5       19.9217        0.0410       42.7242       42.7652      22.843565       0.35054
  10     361.9       19.9308        0.0441       41.3539       41.3980      21.467232       0.34823
   9     398.1       19.9464        0.0472       39.7953       39.8424      19.896060       0.36605
   8     437.6       19.9724        0.0501       37.9948       38.0449      18.072512       0.38989
   7     480.5       20.0136        0.0529       36.0647       36.1176      16.104005       0.38661
   6     533.0       20.0910        0.0560       33.7773       33.8333      13.742276       0.37993
   5     589.8       20.2259        0.0588       31.4082       31.4670      11.241133       0.37125
   4     651.6       20.4874        0.0612       28.8834       28.9446       8.457192       0.38071
   3     718.7       20.9944        0.0634       26.4104       26.4737       5.479316       0.37424
   2     792.3       22.1072        0.0652       24.0056       24.0708       1.963591       0.40321
   1     891.5        0.1952        0.9060        0.0000        0.9060       0.710791       0.10661
   0    1013.0        0.2030        0.8614        0.0000        0.8614       0.658387       0.00364



 Wavenumbers:  7700. -  8050. cm-1, ATM      1
 LEVEL PRESSURE   UPWARD FLUX   DIFDOWN FLUX  DIRDOWN FLUX  DOWNWARD FLUX   NET FLUX    HEATING RATE
          mb          W/m2          W/m2          W/m2        W/m2          W/m2       degree/day
  51    .06700        8.9772        0.0000       11.1810       11.1810       2.203797       0.00000
  50    .07753        8.9772        0.0000       11.1809       11.1809       2.203773       0.01937
  49    .09103        8.9772        0.0000       11.1809       11.1809       2.203743       0.01898
  48    0.1069        8.9772        0.0000       11.1809       11.1809       2.203708       0.01859
  47    0.1255        8.9772        0.0000       11.1809       11.1809       2.203668       0.01819
  46    0.1487        8.9772        0.0000       11.1808       11.1808       2.203617       0.01845
  45    0.1794        8.9772        0.0000       11.1808       11.1808       2.203548       0.01899
  44    0.2165        8.9773        0.0000       11.1807       11.1807       2.203466       0.01863
  43    0.2613        8.9773        0.0000       11.1806       11.1806       2.203369       0.01828
  42    0.3336        8.9773        0.0000       11.1805       11.1805       2.203209       0.01870
  41    0.4307        8.9774        0.0000       11.1803       11.1804       2.202996       0.01850
  40    0.5894        8.9775        0.0000       11.1801       11.1801       2.202648       0.01848
  39     1.339        8.9779        0.0001       11.1788       11.1789       2.201004       0.01851
  38     1.782        8.9781        0.0001       11.1781       11.1782       2.200038       0.01839
  37     2.292        8.9784        0.0001       11.1772       11.1773       2.198920       0.01852
  36     2.964        8.9788        0.0002       11.1761       11.1763       2.197452       0.01843
  35     3.853        8.9793        0.0002       11.1746       11.1748       2.195512       0.01841
  34     5.035        8.9800        0.0003       11.1726       11.1729       2.192936       0.01841
  33     6.613        8.9809        0.0004       11.1700       11.1704       2.189493       0.01840
  32     8.786        8.9821        0.0005       11.1664       11.1669       2.184855       0.01801
  31     11.80        8.9838        0.0007       11.1613       11.1620       2.178222       0.01857
  30     15.07        8.9857        0.0009       11.1558       11.1568       2.171104       0.01838
  29     18.79        8.9878        0.0012       11.1497       11.1509       2.163068       0.01822
  28     23.16        8.9903        0.0014       11.1425       11.1440       2.153689       0.01814
  27     28.12        8.9931        0.0018       11.1343       11.1361       2.142974       0.01821
  26     33.73        8.9963        0.0021       11.1252       11.1273       2.130999       0.01800
  25     40.54        9.0002        0.0025       11.1142       11.1167       2.116554       0.01792
  24     48.69        9.0049        0.0030       11.1010       11.1040       2.099175       0.01799
  23     57.69        9.0101        0.0036       11.0866       11.0902       2.080130       0.01785
  22     68.43        9.0163        0.0043       11.0695       11.0738       2.057511       0.01778
  21     81.20        9.0238        0.0051       11.0494       11.0544       2.030655       0.01775
  20     96.49        9.0327        0.0060       11.0255       11.0315       1.998784       0.01759
  19     114.6        9.0435        0.0071       10.9975       11.0047       1.961124       0.01758
  18     136.5        9.0565        0.0084       10.9648       10.9732       1.916730       0.01707
  17     162.9        9.0721        0.0100       10.9263       10.9363       1.864189       0.01679
  16     196.4        9.0928        0.0121       10.8773       10.8893       1.796531       0.01703
  15     218.7        9.1066        0.0134       10.8455       10.8589       1.752334       0.01678
  14     243.0        9.1219        0.0149       10.8114       10.8263       1.704431       0.01661
  13     269.0        9.1387        0.0164       10.7749       10.7913       1.652588       0.01682
  12     297.5        9.1574        0.0181       10.7357       10.7539       1.596490       0.01664
  11     328.5        9.1780        0.0200       10.6937       10.7137       1.535714       0.01652
  10     361.9        9.2009        0.0220       10.6489       10.6708       1.469922       0.01665
   9     398.1        9.2264        0.0241       10.6008       10.6249       1.398448       0.01665
   8     437.6        9.2550        0.0264       10.5491       10.5755       1.320464       0.01667
   7     480.5        9.2871        0.0288       10.4934       10.5223       1.235178       0.01675
   6     533.0        9.3290        0.0319       10.4243       10.4562       1.127166       0.01738
   5     589.8        9.3778        0.0351       10.3479       10.3830       1.005176       0.01811
   4     651.6        9.4365        0.0386       10.2613       10.2999       0.863437       0.01938
   3     718.7        9.5085        0.0423       10.1618       10.2041       0.695547       0.02110
   2     792.3        9.6003        0.0462       10.0439       10.0901       0.489819       0.02359
   1     891.5        0.4579        0.8204        0.0000        0.8204       0.362456       0.01084
   0    1013.0        0.4669        0.8041        0.0000        0.8041       0.337139       0.00176



 Wavenumbers:  8050. - 12850. cm-1, ATM      1
 LEVEL PRESSURE   UPWARD FLUX   DIFDOWN FLUX  DIRDOWN FLUX  DOWNWARD FLUX   NET FLUX    HEATING RATE
          mb          W/m2          W/m2          W/m2        W/m2          W/m2       degree/day
  51    .06700      118.6205        0.0000      156.5418      156.5418      37.921293       0.00000
  50    .07753      118.6204        0.0000      156.5417      156.5417      37.921293      -0.00000
  49    .09103      118.6204        0.0001      156.5417      156.5417      37.921293       0.00000
  48    0.1069      118.6204        0.0001      156.5416      156.5417      37.921293       0.00000
  47    0.1255      118.6204        0.0002      156.5415      156.5417      37.921293      -0.00000
  46    0.1487      118.6204        0.0002      156.5414      156.5417      37.921293       0.00000
  45    0.1794      118.6204        0.0003      156.5413      156.5416      37.921293       0.00000
  44    0.2165      118.6203        0.0005      156.5412      156.5416      37.921293      -0.00000
  43    0.2613      118.6203        0.0006      156.5410      156.5416      37.921293       0.00000
  42    0.3336      118.6202        0.0008      156.5407      156.5415      37.921293       0.00000
  41    0.4307      118.6201        0.0011      156.5403      156.5414      37.921293      -0.00000
  40    0.5894      118.6200        0.0016      156.5397      156.5413      37.921293       0.00000
  39     1.339      118.6193        0.0039      156.5367      156.5406      37.921293       0.00000
  38     1.782      118.6189        0.0052      156.5350      156.5402      37.921293      -0.00000
  37     2.292      118.6185        0.0068      156.5330      156.5398      37.921293       0.00000
  36     2.964      118.6179        0.0088      156.5303      156.5392      37.921293       0.00000
  35     3.853      118.6171        0.0115      156.5268      156.5384      37.921293      -0.00000
  34     5.035      118.6160        0.0151      156.5222      156.5373      37.921293      -0.00000
  33     6.613      118.6146        0.0199      156.5160      156.5359      37.921293      -0.00000
  32     8.786      118.6127        0.0263      156.5076      156.5340      37.921293      -0.00000
  31     11.80      118.6100        0.0356      156.4957      156.5313      37.921293       0.00000
  30     15.07      118.6070        0.0455      156.4828      156.5283      37.921293       0.00000
  29     18.79      118.6037        0.0568      156.4682      156.5250      37.921293      -0.00000
  28     23.16      118.5998        0.0699      156.4512      156.5211      37.921293      -0.00000
  27     28.12      118.5954        0.0850      156.4317      156.5167      37.921293      -0.00000
  26     33.73      118.5904        0.1019      156.4099      156.5117      37.921293       0.00000
  25     40.54      118.5844        0.1223      156.3834      156.5057      37.921293       0.00000
  24     48.69      118.5771        0.1469      156.3515      156.4984      37.921293      -0.00000
  23     57.69      118.5691        0.1740      156.3164      156.4904      37.921293       0.00000
  22     68.43      118.5596        0.2063      156.2746      156.4809      37.921293       0.00000
  21     81.20      118.5482        0.2449      156.2246      156.4695      37.921293       0.00000
  20     96.49      118.5346        0.2910      156.1649      156.4559      37.921293      -0.00000
  19     114.6      118.5187        0.3458      156.0879      156.4337      37.914982       0.00295
  18     136.5      118.4999        0.4109      155.9962      156.4070      37.907159       0.00301
  17     162.9      118.4774        0.4885      155.8831      156.3716      37.894201       0.00414
  16     196.4      118.4484        0.5895      155.7199      156.3095      37.861083       0.00834
  15     218.7      118.4299        0.6560      155.5733      156.2293      37.799366       0.02343
  14     243.0      118.4113        0.7282      155.3367      156.0649      37.653562       0.05057
  13     269.0      118.3947        0.8063      154.9514      155.7578      37.363043       0.09424
  12     297.5      118.3837        0.8905      154.3896      155.2801      36.896475       0.13838
  11     328.5      118.3804        0.9813      153.7151      154.6964      36.315950       0.15784
  10     361.9      118.3899        1.0787      152.9087      153.9875      35.597609       0.18175
   9     398.1      118.4200        1.1830      151.8986      153.0816      34.661658       0.21806
   8     437.6      118.4845        1.2940      150.6031      151.8972      33.412658       0.26704
   7     480.5      118.6003        1.4115      149.0014      150.4129      31.812613       0.31424
   6     533.0      118.8314        1.5537      146.7375      148.2912      29.459886       0.37848
   5     589.8      119.2463        1.7028      143.8730      145.5758      26.329526       0.46465
   4     651.6      120.0515        1.8559      140.0955      141.9515      21.899980       0.60575
   3     718.7      121.5615        2.0114      135.5278      137.5391      15.977601       0.74428
   2     792.3      124.5962        2.1651      130.0690      132.2341       7.637882       0.95647
   1     891.5       16.9563       20.6237        0.0000       20.6237       3.667411       0.33787
   0    1013.0       17.2595       20.2054        0.0000       20.2054       2.945950       0.05009



 Wavenumbers: 12850. - 16000. cm-1, ATM      1
 LEVEL PRESSURE   UPWARD FLUX   DIFDOWN FLUX  DIRDOWN FLUX  DOWNWARD FLUX   NET FLUX    HEATING RATE
          mb          W/m2          W/m2          W/m2        W/m2          W/m2       degree/day
  51    .06700       83.9793        0.0000       98.0872       98.0872      14.107944       0.00000
  50    .07753       83.9793        0.0001       98.0864       98.0864      14.107150       0.63626
  49    .09103       83.9793        0.0002       98.0853       98.0855      14.106153       0.62342
  48    0.1069       83.9793        0.0003       98.0841       98.0843      14.105006       0.61037
  47    0.1255       83.9793        0.0004       98.0826       98.0830      14.103688       0.59766
  46    0.1487       83.9794        0.0005       98.0809       98.0814      14.102023       0.60694
  45    0.1794       83.9794        0.0007       98.0784       98.0792      14.099756       0.62232
  44    0.2165       83.9795        0.0010       98.0756       98.0766      14.097087       0.60718
  43    0.2613       83.9797        0.0013       98.0723       98.0736      14.093945       0.59231
  42    0.3336       83.9800        0.0018       98.0670       98.0688      14.088809       0.59876
  41    0.4307       83.9804        0.0024       98.0602       98.0626      14.082157       0.57834
  40    0.5894       83.9814        0.0034       98.0496       98.0530      14.071652       0.55868
  39     1.339       83.9891        0.0084       98.0043       98.0127      14.023655       0.54036
  38     1.782       83.9960        0.0113       97.9793       97.9905      13.994585       0.55345
  37     2.292       84.0062        0.0146       97.9498       97.9644      13.958203       0.60257
  36     2.964       84.0230        0.0190       97.9088       97.9278      13.904793       0.67047
  35     3.853       84.0501        0.0248       97.8503       97.8751      13.825053       0.75674
  34     5.035       84.0908        0.0325       97.7680       97.8005      13.709718       0.82391
  33     6.613       84.1476        0.0428       97.6562       97.6990      13.551427       0.84622
  32     8.786       84.2215        0.0566       97.5107       97.5673      13.345799       0.79858
  31     11.80       84.3180        0.0764       97.3179       97.3943      13.076353       0.75436
  30     15.07       84.4106        0.0977       97.1283       97.2260      12.815462       0.67357
  29     18.79       84.5053        0.1217       96.9300       97.0517      12.546361       0.61013
  28     23.16       84.6047        0.1496       96.7166       96.8662      12.261543       0.55075
  27     28.12       84.7050        0.1816       96.4935       96.6751      11.970086       0.49546
  26     33.73       84.7984        0.2174       96.2731       96.4905      11.692133       0.41791
  25     40.54       84.8892        0.2607       96.0408       96.3014      11.412234       0.34725
  24     48.69       84.9774        0.3128       95.7946       96.1074      11.129970       0.29210
  23     57.69       85.0537        0.3701       95.5573       95.9274      10.873668       0.24024
  22     68.43       85.1223        0.4384       95.3106       95.7490      10.626672       0.19417
  21     81.20       85.1736        0.5199       95.0643       95.5842      10.410647       0.14275
  20     96.49       85.2065        0.6171       94.8153       95.4324      10.225913       0.10196
  19     114.6       85.2425        0.7336       94.5411       95.2746      10.032133       0.09048
  18     136.5       85.2735        0.8717       94.2320       95.1037       9.830151       0.07767
  17     162.9       85.3000        1.0361       93.8753       94.9114       9.611433       0.06991
  16     196.4       85.3116        1.2493       93.4347       94.6840       9.372390       0.06017
  15     218.7       85.3114        1.3894       93.1513       94.5407       9.229262       0.05434
  14     243.0       85.3082        1.5416       92.8439       94.3856       9.077347       0.05269
  13     269.0       85.3023        1.7066       92.5111       94.2178       8.915447       0.05252
  12     297.5       85.2947        1.8849       92.1495       94.0344       8.739739       0.05211
  11     328.5       85.2878        2.0776       91.7554       93.8330       8.545134       0.05291
  10     361.9       85.2834        2.2850       91.3262       93.6112       8.327826       0.05498
   9     398.1       85.2836        2.5081       90.8575       93.3657       8.082061       0.05726
   8     437.6       85.2930        2.7476       90.3418       93.0894       7.796427       0.06107
   7     480.5       85.3161        3.0041       89.7728       92.7769       7.460812       0.06591
   6     533.0       85.3692        3.3194       89.0428       92.3623       6.993064       0.07525
   5     589.8       85.4712        3.6581       88.2038       91.8619       6.390735       0.08941
   4     651.6       85.6709        4.0197       87.1979       91.2176       5.546690       0.11543
   3     718.7       86.0083        4.4027       86.0161       90.4189       4.410624       0.14277
   2     792.3       86.5992        4.8034       84.5970       89.4004       2.801247       0.18458
   1     891.5       34.0849       35.8303        0.0000       35.8303       1.745395       0.08985
   0    1013.0       34.3356       35.5441        0.0000       35.5441       1.208500       0.03728



 Wavenumbers: 16000. - 22650. cm-1, ATM      1
 LEVEL PRESSURE   UPWARD FLUX   DIFDOWN FLUX  DIRDOWN FLUX  DOWNWARD FLUX   NET FLUX    HEATING RATE
          mb          W/m2          W/m2          W/m2        W/m2          W/m2       degree/day
  51    .06700      141.3809        0.0000      156.3892      156.3892      15.008339       0.00000
  50    .07753      141.3809        0.0004      156.3887      156.3891      15.008191       0.11862
  49    .09103      141.3809        0.0009      156.3879      156.3888      15.007976       0.13454
  48    0.1069      141.3809        0.0015      156.3871      156.3885      15.007688       0.15342
  47    0.1255      141.3809        0.0021      156.3861      156.3882      15.007302       0.17488
  46    0.1487      141.3809        0.0030      156.3847      156.3877      15.006733       0.20722
  45    0.1794      141.3811        0.0041      156.3828      156.3869      15.005845       0.24399
  44    0.2165      141.3813        0.0054      156.3805      156.3859      15.004639       0.27422
  43    0.2613      141.3816        0.0070      156.3776      156.3846      15.003004       0.30829
  42    0.3336      141.3824        0.0097      156.3726      156.3823      14.999894       0.36254
  41    0.4307      141.3837        0.0132      156.3657      156.3789      14.995207       0.40754
  40    0.5894      141.3863        0.0189      156.3537      156.3725      14.986268       0.47537
  39     1.339      141.4091        0.0459      156.2834      156.3293      14.920224       0.74353
  38     1.782      141.4301        0.0617      156.2324      156.2941      14.863962       1.07113
  37     2.292      141.4617        0.0801      156.1641      156.2442      14.782523       1.34885
  36     2.964      141.5141        0.1042      156.0605      156.1647      14.650590       1.65615
  35     3.853      141.5988        0.1360      155.9041      156.0400      14.441245       1.98673
  34     5.035      141.7266        0.1782      155.6774      155.8555      14.128915       2.23115
  33     6.613      141.9052        0.2345      155.3656      155.6001      13.694865       2.32043
  32     8.786      142.1379        0.3103      154.9577      155.2679      13.130063       2.19349
  31     11.80      142.4407        0.4185      154.4153      154.8338      12.393131       2.06318
  30     15.07      142.7308        0.5346      153.8804      154.4150      11.684217       1.83028
  29     18.79      143.0270        0.6655      153.3191      153.9846      10.957635       1.64739
  28     23.16      143.3366        0.8182      152.7126      153.5308      10.194172       1.47629
  27     28.12      143.6482        0.9926      152.0755      153.0681       9.419882       1.31624
  26     33.73      143.9358        1.1875      151.4409      152.6284       8.692579       1.09352
  25     40.54      144.2127        1.4228      150.7637      152.1865       7.973731       0.89181
  24     48.69      144.4779        1.7061      150.0338      151.7400       7.262048       0.73648
  23     57.69      144.7029        2.0170      149.3151      151.3322       6.629281       0.59312
  22     68.43      144.8992        2.3869      148.5476      150.9345       6.035271       0.46697
  21     81.20      145.0351        2.8273      147.7517      150.5790       5.543878       0.32470
  20     96.49      145.1059        3.3515      146.9127      150.2642       5.158253       0.21284
  19     114.6      145.1431        3.9722      145.9763      149.9485       4.805414       0.16475
  18     136.5      145.1555        4.7051      144.9088      149.6138       4.458308       0.13347
  17     162.9      145.1416        5.5737      143.6785      149.2523       4.110603       0.11114
  16     196.4      145.0617        6.6945      142.1651      148.8596       3.797872       0.07872
  15     218.7      144.9865        7.4269      141.2033      148.6303       3.643794       0.05850
  14     243.0      144.8944        8.2197      140.1753      148.3950       3.500663       0.04964
  13     269.0      144.7838        9.0750      139.0797      148.1546       3.370867       0.04211
  12     297.5      144.6541        9.9947      137.9141      147.9088       3.254746       0.03444
  11     328.5      144.5094       10.9834      136.6676      147.6510       3.141612       0.03076
  10     361.9      144.3494       12.0418      135.3392      147.3810       3.031570       0.02784
   9     398.1      144.1739       13.1741      133.9235      147.0975       2.923658       0.02514
   8     437.6      143.9837       14.3821      132.4163      146.7984       2.814620       0.02331
   7     480.5      143.7788       15.6682      130.8147      146.4829       2.704060       0.02171
   6     533.0      143.5273       17.2390      128.8599      146.0989       2.571617       0.02131
   5     589.8      143.2612       18.9173      126.7679      145.6852       2.424020       0.02191
   4     651.6      142.9882       20.7048      124.5274      145.2322       2.244016       0.02462
   3     718.7      142.7157       22.6032      122.1285      144.7316       2.015961       0.02866
   2     792.3      142.4629       24.6103      119.5548      144.1651       1.702190       0.03599
   1     891.5       95.1649       96.5355        0.0000       96.5355       1.370635       0.02821
   0    1013.0       95.3088       96.3591        0.0000       96.3591       1.050314       0.02224



 Wavenumbers: 22650. - 29000. cm-1, ATM      1
 LEVEL PRESSURE   UPWARD FLUX   DIFDOWN FLUX  DIRDOWN FLUX  DOWNWARD FLUX   NET FLUX    HEATING RATE
          mb          W/m2          W/m2          W/m2        W/m2          W/m2       degree/day
  51    .06700       58.7126        0.0000       59.0156       59.0156       0.303030       0.00000
  50    .07753       58.7125        0.0005       59.0151       59.0155       0.303030      -0.00000
  49    .09103       58.7124        0.0010       59.0144       59.0154       0.303030       0.00000
  48    0.1069       58.7123        0.0017       59.0136       59.0153       0.303030       0.00000
  47    0.1255       58.7121        0.0025       59.0127       59.0151       0.303030      -0.00000
  46    0.1487       58.7119        0.0035       59.0115       59.0149       0.303030       0.00000
  45    0.1794       58.7117        0.0048       59.0099       59.0147       0.303030      -0.00000
  44    0.2165       58.7114        0.0063       59.0080       59.0144       0.303030       0.00000
  43    0.2613       58.7110        0.0082       59.0058       59.0140       0.303030      -0.00000
  42    0.3336       58.7104        0.0113       59.0022       59.0134       0.303030       0.00000
  41    0.4307       58.7096        0.0154       58.9973       59.0127       0.303030      -0.00000
  40    0.5894       58.7083        0.0220       58.9894       59.0114       0.303030       0.00000
  39     1.339       58.7023        0.0535       58.9518       59.0053       0.303030       0.00000
  38     1.782       58.6987        0.0720       58.9297       59.0018       0.303030       0.00000
  37     2.292       58.6946        0.0935       58.9042       58.9976       0.303030      -0.00000
  36     2.964       58.6892        0.1216       58.8706       58.9922       0.303030       0.00000
  35     3.853       58.6821        0.1587       58.8264       58.9851       0.303030      -0.00000
  34     5.035       58.6726        0.2080       58.7676       58.9756       0.303030       0.00000
  33     6.613       58.6599        0.2739       58.6891       58.9630       0.303030       0.00000
  32     8.786       58.6429        0.3625       58.5834       58.9459       0.303030      -0.00000
  31     11.80       58.6185        0.4891       58.4324       58.9216       0.303030       0.00000
  30     15.07       58.5924        0.6248       58.2706       58.8955       0.303030       0.00000
  29     18.79       58.5630        0.7778       58.0882       58.8661       0.303030       0.00000
  28     23.16       58.5287        0.9561       57.8757       58.8318       0.303030       0.00000
  27     28.12       58.4897        1.1593       57.6333       58.7927       0.303030      -0.00000
  26     33.73       58.4461        1.3860       57.3631       58.7491       0.303030       0.00000
  25     40.54       58.3936        1.6587       57.0379       58.6966       0.303030       0.00000
  24     48.69       58.3307        1.9858       56.6479       58.6337       0.303030       0.00000
  23     57.69       58.2620        2.3429       56.2221       58.5650       0.303030      -0.00000
  22     68.43       58.1807        2.7652       55.7186       58.4838       0.303030       0.00000
  21     81.20       58.0848        3.2639       55.1239       58.3878       0.303030       0.00000
  20     96.49       57.9716        3.8518       54.4228       58.2746       0.303030      -0.00000
  19     114.6       57.8389        4.5410       53.6010       58.1420       0.303030       0.00000
  18     136.5       57.6841        5.3453       52.6418       57.9871       0.303030      -0.00000
  17     162.9       57.5029        6.2856       51.5203       57.8060       0.303030       0.00000
  16     196.4       57.2734        7.4770       50.0994       57.5764       0.303030       0.00000
  15     218.7       57.1258        8.2425       49.1863       57.4288       0.303030       0.00000
  14     243.0       56.9682        9.0599       48.2113       57.2712       0.303030      -0.00000
  13     269.0       56.8006        9.9287       47.1749       57.1036       0.303030      -0.00000
  12     297.5       56.6232       10.8479       46.0783       56.9262       0.303030       0.00000
  11     328.5       56.4357       11.8192       44.9195       56.7387       0.303030      -0.00000
  10     361.9       56.2385       12.8397       43.7018       56.5416       0.303030       0.00000
   9     398.1       56.0317       13.9097       42.4250       56.3347       0.303030      -0.00000
   8     437.6       55.8156       15.0270       41.0916       56.1187       0.303030       0.00000
   7     480.5       55.5907       16.1893       39.7045       55.8937       0.303030       0.00000
   6     533.0       55.3229       17.5717       38.0543       55.6260       0.303030      -0.00000
   5     589.8       55.0451       19.0050       36.3431       55.3481       0.303030       0.00000
   4     651.6       54.7584       20.4819       34.5795       55.0614       0.303030       0.00000
   3     718.7       54.4640       21.9968       32.7702       54.7670       0.303030       0.00000
   2     792.3       54.1634       23.5409       30.9256       54.4665       0.303030      -0.00000
   1     891.5       43.5891       43.8875        0.0000       43.8875       0.298364       0.00040
   0    1013.0       43.5787       43.8771        0.0000       43.8771       0.298364       0.00000



 Wavenumbers: 29000. - 38000. cm-1, ATM      1
 LEVEL PRESSURE   UPWARD FLUX   DIFDOWN FLUX  DIRDOWN FLUX  DOWNWARD FLUX   NET FLUX    HEATING RATE
          mb          W/m2          W/m2          W/m2        W/m2          W/m2       degree/day
  51    .06700        8.7869        0.0000       20.8114       20.8114      12.024447       0.00000
  50    .07753        8.7867        0.0003       20.8070       20.8074      12.020640       3.05161
  49    .09103        8.7865        0.0007       20.8009       20.8016      12.015103       3.46091
  48    0.1069        8.7862        0.0012       20.7928       20.7939      12.007693       3.94436
  47    0.1255        8.7860        0.0017       20.7820       20.7837      11.997788       4.49042
  46    0.1487        8.7856        0.0024       20.7665       20.7688      11.983224       5.30854
  45    0.1794        8.7852        0.0033       20.7424       20.7457      11.960559       6.22216
  44    0.2165        8.7846        0.0044       20.7103       20.7147      11.930036       6.94354
  43    0.2613        8.7841        0.0056       20.6675       20.6731      11.889040       7.72748
  42    0.3336        8.7832        0.0077       20.5880       20.5957      11.812478       8.92644
  41    0.4307        8.7821        0.0104       20.4722       20.4826      11.700523       9.73424
  40    0.5894        8.7806        0.0147       20.2637       20.2784      11.497834      10.77872
  39     1.339        8.7772        0.0332       19.0984       19.1315      10.354321      12.87388
  38     1.782        8.7777        0.0427       18.4394       18.4821       9.704366      12.37410
  37     2.292        8.7805        0.0530       17.7714       17.8244       9.043977      10.93776
  36     2.964        8.7871        0.0657       17.0421       17.1079       8.320782       9.07828
  35     3.853        8.8000        0.0817       16.2678       16.3495       7.549491       7.31970
  34     5.035        8.8213        0.1019       15.4803       15.5822       6.760828       5.63388
  33     6.613        8.8523        0.1277       14.7157       14.8434       5.991006       4.11547
  32     8.786        8.8933        0.1615       13.9936       14.1550       5.261737       2.83222
  31     11.80        8.9468        0.2086       13.2835       13.4921       4.545337       2.00570
  30     15.07        8.9984        0.2574       12.7394       12.9968       3.998415       1.41205
  29     18.79        9.0517        0.3116       12.2666       12.5782       3.526479       1.07002
  28     23.16        9.1084        0.3732       11.8300       12.2032       3.094786       0.83475
  27     28.12        9.1666        0.4422       11.4279       11.8700       2.703484       0.66519
  26     33.73        9.2203        0.5182       11.0695       11.5877       2.367356       0.50538
  25     40.54        9.2714        0.6091       10.7209       11.3299       2.058522       0.38314
  24     48.69        9.3198        0.7168       10.3742       11.0910       1.771246       0.29729
  23     57.69        9.3596        0.8335       10.0549       10.8884       1.528790       0.22727
  22     68.43        9.3921        0.9704        9.7327       10.7031       1.311044       0.17118
  21     81.20        9.4081        1.1321        9.4134       10.5455       1.137345       0.11478
  20     96.49        9.4058        1.3221        9.0887       10.4108       1.005069       0.07301
  19     114.6        9.3932        1.5417        8.7388       10.2805       0.887281       0.05500
  18     136.5        9.3735        1.7928        8.3549       10.1477       0.774213       0.04348
  17     162.9        9.3467        2.0790        7.9311       10.0102       0.663451       0.03540
  16     196.4        9.3011        2.4337        7.4333        9.8670       0.565905       0.02455
  15     218.7        9.2680        2.6568        7.1295        9.7863       0.518306       0.01807
  14     243.0        9.2318        2.8900        6.8161        9.7061       0.474338       0.01525
  13     269.0        9.1921        3.1326        6.4943        9.6269       0.434842       0.01281
  12     297.5        9.1491        3.3834        6.1657        9.5491       0.400010       0.01033
  11     328.5        9.1043        3.6415        5.8295        9.4709       0.366647       0.00907
  10     361.9        9.0580        3.9043        5.4886        9.3929       0.334902       0.00803
   9     398.1        9.0105        4.1713        5.1440        9.3153       0.304802       0.00701
   8     437.6        8.9622        4.4411        4.7969        9.2380       0.275770       0.00621
   7     480.5        8.9136        4.7114        4.4504        9.1618       0.248196       0.00542
   6     533.0        8.8579        5.0198        4.0563        9.0760       0.218116       0.00484
   5     589.8        8.8032        5.3240        3.6682        8.9922       0.188968       0.00433
   4     651.6        8.7504        5.6203        3.2905        8.9108       0.160427       0.00390
   3     718.7        8.7000        5.9073        2.9252        8.8325       0.132446       0.00352
   2     792.3        8.6529        6.1815        2.5764        8.7579       0.105029       0.00314
   1     891.5        6.5498        6.6281        0.0000        6.6281       0.078229       0.00228
   0    1013.0        6.5565        6.6114        0.0000        6.6114       0.054875       0.00162



 Wavenumbers: 38000. - 50000. cm-1, ATM      1
 LEVEL PRESSURE   UPWARD FLUX   DIFDOWN FLUX  DIRDOWN FLUX  DOWNWARD FLUX   NET FLUX    HEATING RATE
          mb          W/m2          W/m2          W/m2        W/m2          W/m2       degree/day
  51    .06700        0.0061        0.0000        1.2836        1.2836       1.277518       0.00000
  50    .07753        0.0061        0.0001        1.2812        1.2812       1.275183       1.87150
  49    .09103        0.0060        0.0002        1.2777        1.2778       1.271851       2.08247
  48    0.1069        0.0059        0.0002        1.2731        1.2734       1.267473       2.33059
  47    0.1255        0.0058        0.0004        1.2672        1.2675       1.261717       2.60908
  46    0.1487        0.0057        0.0005        1.2586        1.2591       1.253391       3.03499
  45    0.1794        0.0055        0.0007        1.2455        1.2462       1.240623       3.50520
  44    0.2165        0.0054        0.0009        1.2282        1.2291       1.223697       3.85037
  43    0.2613        0.0052        0.0011        1.2054        1.2065       1.201348       4.21261
  42    0.3336        0.0049        0.0015        1.1639        1.1654       1.160524       4.75970
  41    0.4307        0.0045        0.0020        1.1051        1.1070       1.102565       5.03943
  40    0.5894        0.0039        0.0026        1.0039        1.0064       1.002524       5.32007
  39     1.339        0.0022        0.0035        0.5438        0.5473       0.545104       5.14971
  38     1.782        0.0016        0.0032        0.3635        0.3666       0.365006       3.42879
  37     2.292        0.0012        0.0027        0.2356        0.2383       0.237058       2.11916
  36     2.964        0.0009        0.0022        0.1455        0.1477       0.146786       1.13318
  35     3.853        0.0006        0.0017        0.0858        0.0875       0.086906       0.56828
  34     5.035        0.0004        0.0013        0.0488        0.0501       0.049701       0.26578
  33     6.613        0.0003        0.0010        0.0273        0.0282       0.027974       0.11615
  32     8.786        0.0002        0.0007        0.0144        0.0151       0.014928       0.05067
  31     11.80        0.0001        0.0004        0.0065        0.0070       0.006903       0.02247
  30     15.07        0.0000        0.0003        0.0031        0.0034       0.003329       0.00923
  29     18.79        0.0000        0.0002        0.0014        0.0016       0.001583       0.00396
  28     23.16        0.0000        0.0001        0.0006        0.0007       0.000720       0.00167
  27     28.12        0.0000        0.0001        0.0003        0.0003       0.000317       0.00069
  26     33.73        0.0000        0.0000        0.0001        0.0001       0.000140       0.00027
  25     40.54        0.0000        0.0000        0.0000        0.0001       0.000057       0.00010
  24     48.69        0.0000        0.0000        0.0000        0.0000       0.000021       0.00004
  23     57.69        0.0000        0.0000        0.0000        0.0000       0.000008       0.00001
  22     68.43        0.0000        0.0000        0.0000        0.0000       0.000003       0.00000
  21     81.20        0.0000        0.0000        0.0000        0.0000       0.000001       0.00000
  20     96.49        0.0000        0.0000        0.0000        0.0000       0.000000       0.00000
  19     114.6        0.0000        0.0000        0.0000        0.0000       0.000000       0.00000
  18     136.5        0.0000        0.0000        0.0000        0.0000       0.000000       0.00000
  17     162.9        0.0000        0.0000        0.0000        0.0000       0.000000       0.00000
  16     196.4        0.0000        0.0000        0.0000        0.0000       0.000000       0.00000
  15     218.7        0.0000        0.0000        0.0000        0.0000       0.000000       0.00000
  14     243.0        0.0000        0.0000        0.0000        0.0000       0.000000       0.00000
  13     269.0        0.0000        0.0000        0.0000        0.0000       0.000000       0.00000
  12     297.5        0.0000        0.0000        0.0000        0.0000       0.000000       0.00000
  11     328.5        0.0000        0.0000        0.0000        0.0000       0.000000       0.00000
  10     361.9        0.0000        0.0000        0.0000        0.0000       0.000000       0.00000
   9     398.1        0.0000        0.0000        0.0000        0.0000       0.000000       0.00000
   8     437.6        0.0000        0.0000        0.0000        0.0000       0.000000       0.00000
   7     480.5        0.0000        0.0000        0.0000        0.0000       0.000000       0.00000
   6     533.0        0.0000        0.0000        0.0000        0.0000       0.000000       0.00000
   5     589.8        0.0000        0.0000        0.0000        0.0000       0.000000       0.00000
   4     651.6        0.0000        0.0000        0.0000        0.0000       0.000000       0.00000
   3     718.7        0.0000        0.0000        0.0000        0.0000       0.000000       0.00000
   2     792.3        0.0000        0.0000        0.0000        0.0000       0.000000       0.00000
   1     891.5        0.0000        0.0000        0.0000        0.0000       0.000000       0.00000
   0    1013.0        0.0000        0.0000        0.0000        0.0000       0.000000       0.00000



 Wavenumbers:   820. -  2600. cm-1, ATM      1
 LEVEL PRESSURE   UPWARD FLUX   DIFDOWN FLUX  DIRDOWN FLUX  DOWNWARD FLUX   NET FLUX    HEATING RATE
          mb          W/m2          W/m2          W/m2        W/m2          W/m2       degree/day
  51    .06700        1.7648        0.0000        6.0047        6.0047       4.239899       0.00000
  50    .07753        1.7648        0.0000        6.0008        6.0008       4.236046       3.08826
  49    .09103        1.7648        0.0000        5.9999        5.9999       4.235160       0.55363
  48    0.1069        1.7648        0.0000        5.9989        5.9989       4.234171       0.52657
  47    0.1255        1.7648        0.0000        5.9978        5.9978       4.233053       0.50655
  46    0.1487        1.7648        0.0000        5.9964        5.9964       4.231696       0.49462
  45    0.1794        1.7648        0.0000        5.9947        5.9947       4.229977       0.47206
  44    0.2165        1.7648        0.0000        5.9929        5.9929       4.228134       0.41916
  43    0.2613        1.7648        0.0000        5.9909        5.9909       4.226174       0.36939
  42    0.3336        1.7648        0.0000        5.9880        5.9880       4.223296       0.33563
  41    0.4307        1.7648        0.0000        5.9846        5.9846       4.219826       0.30171
  40    0.5894        1.7648        0.0000        5.9791        5.9791       4.214319       0.29283
  39     1.339        1.7648        0.0000        5.9536        5.9536       4.188825       0.28701
  38     1.782        1.7648        0.0000        5.9395        5.9395       4.174683       0.26924
  37     2.292        1.7648        0.0000        5.9237        5.9237       4.158928       0.26095
  36     2.964        1.7648        0.0000        5.9039        5.9039       4.139148       0.24829
  35     3.853        1.7648        0.0000        5.8793        5.8793       4.114485       0.23406
  34     5.035        1.7648        0.0000        5.8487        5.8487       4.083912       0.21840
  33     6.613        1.7648        0.0000        5.8108        5.8108       4.045934       0.20303
  32     8.786        1.7649        0.0000        5.7631        5.7631       3.998292       0.18502
  31     11.80        1.7649        0.0000        5.7039        5.7039       3.939009       0.16597
  30     15.07        1.7649        0.0000        5.6539        5.6539       3.888942       0.12926
  29     18.79        1.7650        0.0000        5.6127        5.6127       3.847773       0.09334
  28     23.16        1.7650        0.0000        5.5794        5.5794       3.814357       0.06462
  27     28.12        1.7651        0.0000        5.5518        5.5518       3.786744       0.04694
  26     33.73        1.7651        0.0000        5.5268        5.5268       3.761638       0.03775
  25     40.54        1.7652        0.0000        5.4993        5.4993       3.734129       0.03413
  24     48.69        1.7653        0.0000        5.4678        5.4678       3.702508       0.03272
  23     57.69        1.7654        0.0000        5.4340        5.4340       3.668629       0.03176
  22     68.43        1.7655        0.0000        5.3947        5.3948       3.629245       0.03096
  21     81.20        1.7657        0.0000        5.3497        5.3497       3.584076       0.02985
  20     96.49        1.7658        0.0000        5.2982        5.2982       3.532392       0.02853
  19     114.6        1.7661        0.0000        5.2389        5.2389       3.472861       0.02780
  18     136.5        1.7663        0.0000        5.1716        5.1717       3.405339       0.02596
  17     162.9        1.7667        0.0000        5.0890        5.0891       3.322331       0.02653
  16     196.4        1.7674        0.0000        4.9668        4.9668       3.199434       0.03093
  15     218.7        1.7681        0.0000        4.8585        4.8585       3.090417       0.04139
  14     243.0        1.7691        0.0000        4.7078        4.7079       2.938744       0.05261
  13     269.0        1.7707        0.0000        4.5343        4.5343       2.763601       0.05682
  12     297.5        1.7732        0.0000        4.3419        4.3420       2.568779       0.05778
  11     328.5        1.7765        0.0000        4.1281        4.1281       2.351606       0.05905
  10     361.9        1.7810        0.0000        3.8786        3.8787       2.097692       0.06424
   9     398.1        1.7867        0.0000        3.6159        3.6160       1.829212       0.06255
   8     437.6        1.7942        0.0000        3.3759        3.3759       1.581691       0.05292
   7     480.5        1.8034        0.0000        3.1957        3.1958       1.392439       0.03717
   6     533.0        1.8173        0.0000        3.0467        3.0467       1.229453       0.02622
   5     589.8        1.8378        0.0001        2.9023        2.9023       1.064515       0.02448
   4     651.6        1.8736        0.0001        2.7183        2.7184       0.844755       0.03005
   3     718.7        1.9363        0.0001        2.5058        2.5059       0.569616       0.03458
   2     792.3        2.0603        0.0001        2.2756        2.2757       0.215400       0.04062
   1     891.5        0.0003        0.0515        0.0000        0.0515       0.051171       0.01398
   0    1013.0        0.0003        0.0431        0.0000        0.0431       0.042721       0.00059

  Modules and versions used in this calculation:

       rrtmg_sw.1col.f90:  $Revision$                    rrtmg_sw_init.f90:  $Revision$        
     rrtmgsw_cldprop.f90:  $Revision$                  rrtmgsw_cldprmc.f90:  NOT USED          
     rrtmg_sw_reftra.f90:  $Revision$                  rrtmg_sw_spcvrt.f90:  NOT USED          
     rrtmg_sw_spcvmc.f90:  NOT USED                    rrtmgsw_setcoef.f90:  NOT USED          
     rrtmg_sw_taumol.f90:  $Revision$                  rrtmg_sw_vrtqdr.f90:  NOT USED          
                rrtatm.f:  NOT USED                             util_xxx.f:  NOT USED          
                 extra.f:  NOT USED                       rrtmg_sw_k_g.f90:  $Revision$        

