

 Wavenumbers:   820. - 50000. cm-1, ATM      1
 LEVEL PRESSURE   UPWARD FLUX   DIFDOWN FLUX  DIRDOWN FLUX  DOWNWARD FLUX   NET FLUX    HEATING RATE
          mb          W/m2          W/m2          W/m2        W/m2          W/m2       degree/day
  51    .06700      452.9974        0.0000      617.8126      617.8126     164.815205       0.00000
  50    .07753      452.9970        0.0014      617.7947      617.7961     164.799062      12.93909
  49    .09103      452.9966        0.0031      617.7778      617.7808     164.784248       9.25922
  48    0.1069      452.9961        0.0050      617.7581      617.7631     164.766981       9.19129
  47    0.1255      452.9956        0.0072      617.7340      617.7412     164.745629       9.67982
  46    0.1487      452.9950        0.0101      617.7009      617.7110     164.715934      10.82429
  45    0.1794      452.9943        0.0139      617.6521      617.6660     164.671688      12.14645
  44    0.2165      452.9936        0.0185      617.5895      617.6080     164.614348      13.04394
  43    0.2613      452.9930        0.0239      617.5089      617.5328     164.539810      14.05006
  42    0.3336      452.9922        0.0327      617.3641      617.3968     164.404679      15.75497
  41    0.4307      452.9915        0.0444      617.1591      617.2035     164.211988      16.75408
  40    0.5894      452.9915        0.0632      616.8005      616.8637     163.872170      18.07105
  39     1.339      453.0099        0.1484      614.9443      615.0926     162.082686      20.14634
  38     1.782      453.0336        0.1963      613.9670      614.1633     161.129714      18.14306
  37     2.292      453.0726        0.2508      613.0059      613.2567     160.184090      15.66200
  36     2.964      453.1414        0.3217      611.9577      612.2794     159.137997      13.13163
  35     3.853      453.2566        0.4146      610.8024      611.2170     157.960442      11.17521
  34     5.035      453.4337        0.5373      609.5327      610.0700     156.636278       9.45928
  33     6.613      453.6832        0.7001      608.1464      608.8466     155.163393       7.87404
  32     8.786      454.0081        0.9185      606.6250      607.5436     153.535478       6.32223
  31     11.80      454.4291        1.2295      604.8486      606.0782     151.649120       5.28121
  30     15.07      454.8300        1.5614      603.2440      604.8054     149.975409       4.32120
  29     18.79      455.2372        1.9348      601.6511      603.5860     148.348804       3.68801
  28     23.16      455.6602        2.3688      599.9927      602.3615     146.701250       3.18584
  27     28.12      456.0824        2.8627      598.2881      601.1507     145.068336       2.77584
  26     33.73      456.4648        3.4133      596.5951      600.0084     143.543616       2.29246
  25     40.54      456.8218        4.0763      594.7727      598.8490     142.027110       1.88140
  24     48.69      457.1507        4.8718      592.7865      597.6583     140.507566       1.57249
  23     57.69      457.4134        5.7415      590.7959      596.5373     139.123905       1.29697
  22     68.43      457.6195        6.7718      588.6191      595.3909     137.771407       1.06324
  21     81.20      457.7164        7.9934      586.2690      594.2623     136.545966       0.80975
  20     96.49      457.6942        9.4398      583.6961      593.1359     135.441690       0.60948
  19     114.6      457.6123       11.1416      580.7708      591.9124     134.300118       0.53303
  18     136.5      457.4703       13.1344      577.4359      590.5703     133.099951       0.46149
  17     162.9      457.2634       15.4733      573.5624      589.0357     131.772332       0.42436
  16     196.4      456.9073       18.4562      568.5907      587.0469     130.139636       0.41097
  15     218.7      456.6455       20.3851      565.0572      585.4423     128.796735       0.50985
  14     243.0      456.3541       22.4541      560.7495      583.2036     126.849468       0.67538
  13     269.0      456.0352       24.6647      555.3947      580.0594     124.024191       0.91651
  12     297.5      455.6956       27.0176      548.9964      576.0140     120.318412       1.09909
  11     328.5      455.3462       29.5194      542.0895      571.6089     116.262692       1.10274
  10     361.9      454.9965       32.1662      534.6242      566.7904     111.793897       1.13065
   9     398.1      454.6599       34.9628      526.4204      561.3832     106.723294       1.18134
   8     437.6      454.3623       37.9078      517.3907      555.2985     100.936196       1.23732
   7     480.5      454.1317       40.9993      507.7216      548.7209      94.589196       1.24653
   6     533.0      454.0140       44.7167      495.9006      540.6173      86.603321       1.28467
   5     589.8      454.1915       48.6180      483.0788      531.6969      77.505344       1.35044
   4     651.6      455.0187       52.6904      468.6907      521.3811      66.362408       1.52383
   3     718.7      457.0051       56.9257      453.2257      510.1515      53.146321       1.66090
   2     792.3      461.5212       61.3017      436.4928      497.7945      36.273366       1.93514
   1     891.5      268.9872      293.3688        0.0008      293.3696      24.382419       1.01186
   0    1013.0      271.1219      289.7627        0.0007      289.7634      18.641482       0.39862



 Wavenumbers:  2600. -  3250. cm-1, ATM      1
 LEVEL PRESSURE   UPWARD FLUX   DIFDOWN FLUX  DIRDOWN FLUX  DOWNWARD FLUX   NET FLUX    HEATING RATE
          mb          W/m2          W/m2          W/m2        W/m2          W/m2       degree/day
  51    .06700        1.9824        0.0000        5.4450        5.4450       3.462627       0.00000
  50    .07753        1.9824        0.0000        5.4450        5.4450       3.462619       0.00640
  49    .09103        1.9824        0.0000        5.4450        5.4450       3.462609       0.00627
  48    0.1069        1.9824        0.0000        5.4450        5.4450       3.462598       0.00613
  47    0.1255        1.9824        0.0000        5.4450        5.4450       3.462585       0.00599
  46    0.1487        1.9824        0.0000        5.4450        5.4450       3.462568       0.00608
  45    0.1794        1.9824        0.0000        5.4450        5.4450       3.462545       0.00625
  44    0.2165        1.9824        0.0000        5.4449        5.4449       3.462518       0.00612
  43    0.2613        1.9824        0.0000        5.4449        5.4449       3.462486       0.00600
  42    0.3336        1.9824        0.0000        5.4448        5.4448       3.462433       0.00617
  41    0.4307        1.9824        0.0000        5.4448        5.4448       3.462362       0.00620
  40    0.5894        1.9824        0.0000        5.4446        5.4446       3.462242       0.00637
  39     1.339        1.9824        0.0000        5.4439        5.4439       3.461535       0.00797
  38     1.782        1.9824        0.0000        5.4434        5.4434       3.460992       0.01034
  37     2.292        1.9824        0.0000        5.4427        5.4427       3.460276       0.01186
  36     2.964        1.9824        0.0000        5.4416        5.4416       3.459237       0.01304
  35     3.853        1.9824        0.0000        5.4402        5.4402       3.457760       0.01402
  34     5.035        1.9824        0.0000        5.4381        5.4381       3.455704       0.01469
  33     6.613        1.9824        0.0000        5.4353        5.4353       3.452922       0.01487
  32     8.786        1.9824        0.0000        5.4317        5.4317       3.449289       0.01411
  31     11.80        1.9824        0.0000        5.4269        5.4269       3.444507       0.01339
  30     15.07        1.9824        0.0000        5.4224        5.4224       3.439978       0.01169
  29     18.79        1.9824        0.0000        5.4180        5.4180       3.435561       0.01001
  28     23.16        1.9824        0.0000        5.4135        5.4135       3.431069       0.00869
  27     28.12        1.9824        0.0000        5.4088        5.4088       3.426412       0.00792
  26     33.73        1.9824        0.0000        5.4036        5.4036       3.421159       0.00790
  25     40.54        1.9825        0.0000        5.3966        5.3967       3.414197       0.00864
  24     48.69        1.9825        0.0000        5.3872        5.3872       3.404689       0.00984
  23     57.69        1.9825        0.0000        5.3754        5.3754       3.392863       0.01109
  22     68.43        1.9826        0.0000        5.3599        5.3599       3.377314       0.01222
  21     81.20        1.9827        0.0000        5.3401        5.3401       3.357393       0.01316
  20     96.49        1.9828        0.0000        5.3155        5.3155       3.332702       0.01363
  19     114.6        1.9830        0.0001        5.2853        5.2854       3.302335       0.01418
  18     136.5        1.9833        0.0001        5.2504        5.2505       3.267187       0.01352
  17     162.9        1.9837        0.0001        5.2111        5.2112       3.227498       0.01269
  16     196.4        1.9843        0.0001        5.1640        5.1641       3.179831       0.01200
  15     218.7        1.9849        0.0001        5.1331        5.1332       3.148292       0.01197
  14     243.0        1.9859        0.0001        5.0962        5.0963       3.110376       0.01315
  13     269.0        1.9875        0.0001        5.0511        5.0512       3.063667       0.01515
  12     297.5        1.9900        0.0001        4.9956        4.9957       3.005768       0.01717
  11     328.5        1.9934        0.0001        4.9304        4.9305       2.937152       0.01866
  10     361.9        1.9980        0.0002        4.8511        4.8513       2.853211       0.02124
   9     398.1        2.0045        0.0002        4.7507        4.7509       2.746322       0.02490
   8     437.6        2.0136        0.0002        4.6220        4.6222       2.608640       0.02944
   7     480.5        2.0262        0.0002        4.4625        4.4627       2.436486       0.03381
   6     533.0        2.0468        0.0002        4.2460        4.2462       2.199401       0.03814
   5     589.8        2.0786        0.0002        3.9954        3.9956       1.917025       0.04191
   4     651.6        2.1315        0.0002        3.7089        3.7091       1.577543       0.04643
   3     718.7        2.2203        0.0002        3.4018        3.4020       1.181768       0.04974
   2     792.3        2.3850        0.0002        3.0564        3.0567       0.671704       0.05850
   1     891.5        0.0027        0.3547        0.0000        0.3547       0.351988       0.02721
   0    1013.0        0.0031        0.2991        0.0000        0.2991       0.296058       0.00388



 Wavenumbers:  3250. -  4000. cm-1, ATM      1
 LEVEL PRESSURE   UPWARD FLUX   DIFDOWN FLUX  DIRDOWN FLUX  DOWNWARD FLUX   NET FLUX    HEATING RATE
          mb          W/m2          W/m2          W/m2        W/m2          W/m2       degree/day
  51    .06700        0.0715        0.0000        9.1795        9.1795       9.108035       0.00000
  50    .07753        0.0715        0.0000        9.1747        9.1747       9.103193       3.88148
  49    .09103        0.0715        0.0000        9.1713        9.1713       9.099805       2.11747
  48    0.1069        0.0715        0.0000        9.1688        9.1688       9.097280       1.34402
  47    0.1255        0.0715        0.0000        9.1665        9.1665       9.095021       1.02422
  46    0.1487        0.0715        0.0000        9.1641        9.1641       9.092579       0.88991
  45    0.1794        0.0715        0.0000        9.1612        9.1612       9.089701       0.79008
  44    0.2165        0.0715        0.0000        9.1583        9.1583       9.086781       0.66430
  43    0.2613        0.0715        0.0000        9.1553        9.1553       9.083808       0.56041
  42    0.3336        0.0715        0.0000        9.1511        9.1511       9.079629       0.48723
  41    0.4307        0.0715        0.0000        9.1464        9.1464       9.074861       0.41459
  40    0.5894        0.0715        0.0000        9.1393        9.1394       9.067855       0.37255
  39     1.339        0.0715        0.0000        9.1127        9.1127       9.041242       0.29962
  38     1.782        0.0715        0.0000        9.1011        9.1011       9.029653       0.22062
  37     2.292        0.0715        0.0000        9.0901        9.0901       9.018587       0.18329
  36     2.964        0.0715        0.0000        9.0776        9.0776       9.006157       0.15603
  35     3.853        0.0715        0.0000        9.0629        9.0629       8.991367       0.14036
  34     5.035        0.0715        0.0000        9.0441        9.0441       8.972628       0.13386
  33     6.613        0.0715        0.0000        9.0191        9.0191       8.947626       0.13366
  32     8.786        0.0715        0.0000        8.9843        8.9843       8.912843       0.13509
  31     11.80        0.0715        0.0000        8.9327        8.9327       8.861226       0.14451
  30     15.07        0.0715        0.0000        8.8758        8.8759       8.804381       0.14676
  29     18.79        0.0715        0.0000        8.8110        8.8110       8.739554       0.14698
  28     23.16        0.0715        0.0000        8.7365        8.7366       8.665109       0.14395
  27     28.12        0.0715        0.0000        8.6554        8.6555       8.583996       0.13789
  26     33.73        0.0714        0.0000        8.5719        8.5719       8.500496       0.12554
  25     40.54        0.0714        0.0001        8.4812        8.4812       8.409773       0.11255
  24     48.69        0.0714        0.0001        8.3838        8.3839       8.312471       0.10069
  23     57.69        0.0714        0.0001        8.2861        8.2862       8.214736       0.09161
  22     68.43        0.0714        0.0001        8.1751        8.1751       8.103739       0.08726
  21     81.20        0.0714        0.0001        8.0457        8.0458       7.974381       0.08548
  20     96.49        0.0714        0.0001        7.8949        7.8951       7.823677       0.08318
  19     114.6        0.0714        0.0001        7.7162        7.7163       7.644967       0.08344
  18     136.5        0.0713        0.0002        7.5193        7.5195       7.448122       0.07569
  17     162.9        0.0713        0.0002        7.2913        7.2915       7.220229       0.07284
  16     196.4        0.0713        0.0002        6.9660        6.9662       6.894951       0.08188
  15     218.7        0.0713        0.0002        6.6648        6.6650       6.593750       0.11435
  14     243.0        0.0713        0.0002        6.2619        6.2622       6.190926       0.13971
  13     269.0        0.0713        0.0003        5.7576        5.7579       5.686554       0.16362
  12     297.5        0.0715        0.0003        5.1719        5.1722       5.100707       0.17376
  11     328.5        0.0717        0.0002        4.5757        4.5760       4.504276       0.16217
  10     361.9        0.0721        0.0002        3.9995        3.9998       3.927651       0.14589
   9     398.1        0.0729        0.0002        3.4655        3.4657       3.392858       0.12459
   8     437.6        0.0741        0.0002        2.9740        2.9743       2.900185       0.10534
   7     480.5        0.0760        0.0002        2.5307        2.5309       2.454829       0.08747
   6     533.0        0.0799        0.0002        2.0614        2.0616       1.981707       0.07611
   5     589.8        0.0868        0.0002        1.6150        1.6151       1.528287       0.06730
   4     651.6        0.1015        0.0001        1.1565        1.1566       1.055133       0.06471
   3     718.7        0.1337        0.0001        0.7390        0.7391       0.605414       0.05652
   2     792.3        0.2200        0.0001        0.3985        0.3985       0.178551       0.04896
   1     891.5        0.0000        0.0083        0.0000        0.0083       0.008309       0.01449
   0    1013.0        0.0001        0.0009        0.0000        0.0009       0.000803       0.00052



 Wavenumbers:  4000. -  4650. cm-1, ATM      1
 LEVEL PRESSURE   UPWARD FLUX   DIFDOWN FLUX  DIRDOWN FLUX  DOWNWARD FLUX   NET FLUX    HEATING RATE
          mb          W/m2          W/m2          W/m2        W/m2          W/m2       degree/day
  51    .06700        6.3637        0.0000       10.7795       10.7795       4.415819       0.00000
  50    .07753        6.3637        0.0000       10.7795       10.7795       4.415818       0.00080
  49    .09103        6.3637        0.0000       10.7795       10.7795       4.415817       0.00078
  48    0.1069        6.3637        0.0000       10.7795       10.7795       4.415815       0.00077
  47    0.1255        6.3637        0.0000       10.7795       10.7795       4.415814       0.00075
  46    0.1487        6.3637        0.0000       10.7795       10.7795       4.415811       0.00076
  45    0.1794        6.3637        0.0000       10.7795       10.7795       4.415809       0.00078
  44    0.2165        6.3637        0.0000       10.7795       10.7795       4.415805       0.00076
  43    0.2613        6.3637        0.0000       10.7795       10.7795       4.415801       0.00075
  42    0.3336        6.3637        0.0000       10.7795       10.7795       4.415795       0.00077
  41    0.4307        6.3637        0.0000       10.7795       10.7795       4.415786       0.00078
  40    0.5894        6.3637        0.0000       10.7795       10.7795       4.415771       0.00080
  39     1.339        6.3637        0.0000       10.7794       10.7794       4.415681       0.00101
  38     1.782        6.3637        0.0000       10.7793       10.7793       4.415611       0.00133
  37     2.292        6.3637        0.0000       10.7792       10.7792       4.415517       0.00156
  36     2.964        6.3637        0.0000       10.7791       10.7791       4.415376       0.00177
  35     3.853        6.3637        0.0000       10.7789       10.7789       4.415168       0.00198
  34     5.035        6.3637        0.0000       10.7786       10.7786       4.414860       0.00220
  33     6.613        6.3637        0.0000       10.7781       10.7781       4.414407       0.00242
  32     8.786        6.3637        0.0000       10.7774       10.7775       4.413738       0.00260
  31     11.80        6.3637        0.0001       10.7763       10.7764       4.412686       0.00295
  30     15.07        6.3637        0.0001       10.7751       10.7752       4.411451       0.00319
  29     18.79        6.3637        0.0001       10.7736       10.7737       4.409956       0.00339
  28     23.16        6.3637        0.0001       10.7717       10.7718       4.408099       0.00359
  27     28.12        6.3637        0.0001       10.7695       10.7696       4.405848       0.00383
  26     33.73        6.3638        0.0002       10.7667       10.7668       4.403070       0.00418
  25     40.54        6.3638        0.0002       10.7629       10.7631       4.399297       0.00468
  24     48.69        6.3639        0.0002       10.7579       10.7582       4.394264       0.00521
  23     57.69        6.3640        0.0003       10.7520       10.7523       4.388286       0.00560
  22     68.43        6.3642        0.0003       10.7446       10.7449       4.380781       0.00590
  21     81.20        6.3644        0.0004       10.7355       10.7359       4.371520       0.00612
  20     96.49        6.3647        0.0005       10.7245       10.7249       4.360223       0.00624
  19     114.6        6.3652        0.0006       10.7107       10.7113       4.346056       0.00661
  18     136.5        6.3659        0.0007       10.6942       10.6949       4.328935       0.00658
  17     162.9        6.3669        0.0008       10.6740       10.6748       4.307864       0.00674
  16     196.4        6.3687        0.0010       10.6464       10.6473       4.278649       0.00735
  15     218.7        6.3702        0.0011       10.6255       10.6265       4.256327       0.00847
  14     243.0        6.3724        0.0012       10.5980       10.5992       4.226824       0.01023
  13     269.0        6.3757        0.0013       10.5611       10.5624       4.186725       0.01301
  12     297.5        6.3804        0.0014       10.5119       10.5134       4.132949       0.01595
  11     328.5        6.3870        0.0016       10.4499       10.4515       4.064493       0.01861
  10     361.9        6.3955        0.0017       10.3702       10.3719       3.976376       0.02229
   9     398.1        6.4063        0.0019       10.2678       10.2697       3.863331       0.02634
   8     437.6        6.4202        0.0021       10.1390       10.1411       3.720840       0.03047
   7     480.5        6.4381        0.0022        9.9877        9.9899       3.551837       0.03319
   6     533.0        6.4659        0.0025        9.7937        9.7961       3.330267       0.03564
   5     589.8        6.5064        0.0027        9.5752        9.5778       3.071395       0.03843
   4     651.6        6.5728        0.0029        9.2958        9.2987       2.725917       0.04725
   3     718.7        6.6864        0.0031        8.9267        8.9298       2.243436       0.06063
   2     792.3        6.9060        0.0033        8.4542        8.4575       1.551492       0.07936
   1     891.5        0.1661        1.2660        0.0000        1.2661       1.099966       0.03842
   0    1013.0        0.1758        1.1773        0.0000        1.1773       1.001506       0.00684



 Wavenumbers:  4650. -  5150. cm-1, ATM      1
 LEVEL PRESSURE   UPWARD FLUX   DIFDOWN FLUX  DIRDOWN FLUX  DOWNWARD FLUX   NET FLUX    HEATING RATE
          mb          W/m2          W/m2          W/m2        W/m2          W/m2       degree/day
  51    .06700        4.5933        0.0000       10.2033       10.2033       5.610077       0.00000
  50    .07753        4.5933        0.0000       10.2031       10.2031       5.609841       0.18901
  49    .09103        4.5933        0.0000       10.2028       10.2028       5.609546       0.18428
  48    0.1069        4.5933        0.0000       10.2025       10.2025       5.609209       0.17931
  47    0.1255        4.5933        0.0000       10.2021       10.2021       5.608825       0.17426
  46    0.1487        4.5933        0.0000       10.2016       10.2016       5.608344       0.17536
  45    0.1794        4.5933        0.0000       10.2010       10.2010       5.607694       0.17850
  44    0.2165        4.5933        0.0000       10.2002       10.2002       5.606934       0.17277
  43    0.2613        4.5933        0.0000       10.1993       10.1993       5.606049       0.16690
  42    0.3336        4.5933        0.0000       10.1979       10.1979       5.604616       0.16702
  41    0.4307        4.5933        0.0000       10.1960       10.1960       5.602776       0.16002
  40    0.5894        4.5933        0.0000       10.1932       10.1932       5.599902       0.15283
  39     1.339        4.5933        0.0000       10.1816       10.1816       5.588310       0.13051
  38     1.782        4.5933        0.0000       10.1760       10.1760       5.582780       0.10527
  37     2.292        4.5933        0.0000       10.1706       10.1706       5.577323       0.09039
  36     2.964        4.5933        0.0000       10.1646       10.1647       5.571399       0.07437
  35     3.853        4.5933        0.0000       10.1584       10.1584       5.565182       0.05900
  34     5.035        4.5933        0.0000       10.1521       10.1521       5.558842       0.04529
  33     6.613        4.5933        0.0000       10.1456       10.1456       5.552379       0.03456
  32     8.786        4.5933        0.0001       10.1386       10.1386       5.545356       0.02727
  31     11.80        4.5933        0.0001       10.1295       10.1296       5.536294       0.02537
  30     15.07        4.5933        0.0001       10.1196       10.1197       5.526385       0.02558
  29     18.79        4.5934        0.0001       10.1076       10.1077       5.514336       0.02732
  28     23.16        4.5934        0.0002       10.0923       10.0924       5.498972       0.02971
  27     28.12        4.5935        0.0002       10.0731       10.0733       5.479796       0.03260
  26     33.73        4.5937        0.0002       10.0500       10.0503       5.456592       0.03489
  25     40.54        4.5939        0.0003       10.0201       10.0204       5.426533       0.03729
  24     48.69        4.5942        0.0003        9.9820        9.9823       5.388140       0.03973
  23     57.69        4.5945        0.0004        9.9384        9.9388       5.344318       0.04108
  22     68.43        4.5950        0.0005        9.8858        9.8862       5.291192       0.04176
  21     81.20        4.5958        0.0006        9.8234        9.8240       5.228256       0.04159
  20     96.49        4.5967        0.0007        9.7518        9.7524       5.155686       0.04005
  19     114.6        4.5981        0.0008        9.6719        9.6727       5.074598       0.03786
  18     136.5        4.6000        0.0009        9.5858        9.5867       4.986731       0.03379
  17     162.9        4.6026        0.0011        9.4940        9.4952       4.892516       0.03011
  16     196.4        4.6067        0.0013        9.3883        9.3896       4.782931       0.02758
  15     218.7        4.6098        0.0015        9.3229        9.3244       4.714540       0.02597
  14     243.0        4.6139        0.0016        9.2520        9.2536       4.639651       0.02597
  13     269.0        4.6194        0.0018        9.1717        9.1734       4.554007       0.02778
  12     297.5        4.6271        0.0020        9.0763        9.0782       4.451155       0.03050
  11     328.5        4.6370        0.0021        8.9650        8.9671       4.330074       0.03292
  10     361.9        4.6499        0.0023        8.8349        8.8372       4.187373       0.03610
   9     398.1        4.6666        0.0025        8.6820        8.6846       4.017982       0.03946
   8     437.6        4.6883        0.0027        8.5028        8.5055       3.817240       0.04292
   7     480.5        4.7166        0.0030        8.2948        8.2978       3.581142       0.04637
   6     533.0        4.7600        0.0032        8.0209        8.0241       3.264134       0.05100
   5     589.8        4.8204        0.0034        7.7063        7.7098       2.889357       0.05563
   4     651.6        4.9104        0.0037        7.3412        7.3449       2.434518       0.06220
   3     718.7        5.0477        0.0039        6.9387        6.9425       1.894864       0.06782
   2     792.3        5.2705        0.0041        6.5066        6.5107       1.240184       0.07508
   1     891.5        0.0401        0.8807        0.0000        0.8807       0.840637       0.03400
   0    1013.0        0.0431        0.8055        0.0000        0.8055       0.762450       0.00543



 Wavenumbers:  5150. -  6150. cm-1, ATM      1
 LEVEL PRESSURE   UPWARD FLUX   DIFDOWN FLUX  DIRDOWN FLUX  DOWNWARD FLUX   NET FLUX    HEATING RATE
          mb          W/m2          W/m2          W/m2        W/m2          W/m2       degree/day
  51    .06700       10.8844        0.0000       25.5798       25.5798      14.695421       0.00000
  50    .07753       10.8844        0.0000       25.5798       25.5798      14.695381       0.03162
  49    .09103       10.8844        0.0000       25.5797       25.5797      14.695330       0.03211
  48    0.1069       10.8844        0.0000       25.5797       25.5797      14.695269       0.03262
  47    0.1255       10.8844        0.0000       25.5796       25.5796      14.695196       0.03312
  46    0.1487       10.8844        0.0000       25.5795       25.5795      14.695100       0.03489
  45    0.1794       10.8844        0.0000       25.5794       25.5794      14.694965       0.03713
  44    0.2165       10.8844        0.0000       25.5792       25.5792      14.694799       0.03770
  43    0.2613       10.8844        0.0000       25.5790       25.5790      14.694596       0.03827
  42    0.3336       10.8844        0.0000       25.5786       25.5786      14.694249       0.04044
  41    0.4307       10.8844        0.0000       25.5782       25.5782      14.693778       0.04098
  40    0.5894       10.8844        0.0000       25.5774       25.5774      14.692988       0.04199
  39     1.339       10.8844        0.0000       25.5735       25.5736      14.689184       0.04283
  38     1.782       10.8844        0.0001       25.5713       25.5714      14.686968       0.04218
  37     2.292       10.8844        0.0001       25.5688       25.5688      14.684460       0.04154
  36     2.964       10.8844        0.0001       25.5656       25.5657      14.681272       0.04001
  35     3.853       10.8844        0.0001       25.5615       25.5616      14.677220       0.03846
  34     5.035       10.8844        0.0002       25.5562       25.5564      14.672000       0.03729
  33     6.613       10.8844        0.0002       25.5494       25.5496      14.665226       0.03621
  32     8.786       10.8844        0.0003       25.5406       25.5409      14.656444       0.03410
  31     11.80       10.8845        0.0004       25.5287       25.5290      14.644562       0.03327
  30     15.07       10.8845        0.0005       25.5167       25.5172      14.632638       0.03079
  29     18.79       10.8846        0.0006       25.5042       25.5048      14.620163       0.02828
  28     23.16       10.8847        0.0007       25.4907       25.4914      14.606714       0.02601
  27     28.12       10.8848        0.0009       25.4764       25.4773      14.592520       0.02413
  26     33.73       10.8850        0.0011       25.4620       25.4631      14.578112       0.02166
  25     40.54       10.8852        0.0013       25.4463       25.4475      14.562323       0.01959
  24     48.69       10.8856        0.0016       25.4294       25.4309      14.545366       0.01755
  23     57.69       10.8860        0.0018       25.4126       25.4144      14.528483       0.01583
  22     68.43       10.8865        0.0022       25.3944       25.3966      14.510098       0.01445
  21     81.20       10.8872        0.0026       25.3744       25.3770      14.489814       0.01340
  20     96.49       10.8880        0.0031       25.3519       25.3550      14.466967       0.01261
  19     114.6       10.8891        0.0036       25.3262       25.3298      14.440720       0.01226
  18     136.5       10.8904        0.0043       25.2962       25.3005      14.410126       0.01176
  17     162.9       10.8920        0.0051       25.2521       25.2572      14.365225       0.01435
  16     196.4       10.8942        0.0062       25.1593       25.1655      14.271236       0.02366
  15     218.7       10.8959        0.0069       25.0159       25.0228      14.126931       0.05479
  14     243.0       10.8978        0.0075       24.7089       24.7165      13.818619       0.10693
  13     269.0       10.9004        0.0082       24.1619       24.1701      13.269685       0.17807
  12     297.5       10.9039        0.0089       23.4544       23.4633      12.559410       0.21066
  11     328.5       10.9085        0.0096       22.7355       22.7451      11.836623       0.19652
  10     361.9       10.9145        0.0103       21.9224       21.9327      11.018231       0.20706
   9     398.1       10.9227        0.0110       20.9939       21.0049      10.082235       0.21807
   8     437.6       10.9341        0.0117       19.9833       19.9950       9.060924       0.21836
   7     480.5       10.9499        0.0123       18.9483       18.9606       8.010711       0.20626
   6     533.0       10.9769        0.0130       17.7796       17.7926       6.815782       0.19223
   5     589.8       11.0207        0.0138       16.6726       16.6864       5.665623       0.17072
   4     651.6       11.1015        0.0145       15.6343       15.6488       4.547389       0.15292
   3     718.7       11.2505        0.0154       14.7738       14.7892       3.538701       0.12676
   2     792.3       11.5526        0.0163       14.0291       14.0454       2.492841       0.11995
   1     891.5        0.3589        2.2096        0.0000        2.2097       1.850760       0.05464
   0    1013.0        0.3716        2.0902        0.0000        2.0902       1.718599       0.00918



 Wavenumbers:  6150. -  7700. cm-1, ATM      1
 LEVEL PRESSURE   UPWARD FLUX   DIFDOWN FLUX  DIRDOWN FLUX  DOWNWARD FLUX   NET FLUX    HEATING RATE
          mb          W/m2          W/m2          W/m2        W/m2          W/m2       degree/day
  51    .06700       17.5677        0.0000       47.3109       47.3109      29.743166       0.00000
  50    .07753       17.5677        0.0000       47.3108       47.3108      29.743109       0.04553
  49    .09103       17.5677        0.0000       47.3107       47.3107      29.743035       0.04583
  48    0.1069       17.5677        0.0000       47.3106       47.3106      29.742949       0.04614
  47    0.1255       17.5677        0.0000       47.3105       47.3105      29.742846       0.04645
  46    0.1487       17.5677        0.0000       47.3104       47.3104      29.742713       0.04852
  45    0.1794       17.5677        0.0000       47.3102       47.3102      29.742526       0.05127
  44    0.2165       17.5677        0.0000       47.3100       47.3100      29.742299       0.05167
  43    0.2613       17.5677        0.0000       47.3097       47.3097      29.742023       0.05210
  42    0.3336       17.5677        0.0000       47.3092       47.3092      29.741554       0.05471
  41    0.4307       17.5677        0.0000       47.3085       47.3086      29.740919       0.05521
  40    0.5894       17.5677        0.0001       47.3074       47.3075      29.739859       0.05633
  39     1.339       17.5676        0.0002       47.3022       47.3024      29.734767       0.05733
  38     1.782       17.5676        0.0002       47.2991       47.2994      29.731797       0.05655
  37     2.292       17.5675        0.0003       47.2956       47.2959      29.728421       0.05591
  36     2.964       17.5675        0.0004       47.2912       47.2916      29.724103       0.05421
  35     3.853       17.5674        0.0005       47.2855       47.2860      29.718568       0.05252
  34     5.035       17.5673        0.0007       47.2780       47.2787      29.711388       0.05130
  33     6.613       17.5672        0.0009       47.2683       47.2692      29.702000       0.05019
  32     8.786       17.5670        0.0011       47.2556       47.2567      29.689700       0.04777
  31     11.80       17.5668        0.0015       47.2380       47.2396      29.672796       0.04733
  30     15.07       17.5665        0.0020       47.2201       47.2220      29.655507       0.04464
  29     18.79       17.5662        0.0025       47.2008       47.2033      29.637027       0.04190
  28     23.16       17.5659        0.0030       47.1795       47.1825      29.616635       0.03943
  27     28.12       17.5655        0.0037       47.1565       47.1602      29.594640       0.03739
  26     33.73       17.5651        0.0044       47.1324       47.1368      29.571716       0.03447
  25     40.54       17.5646        0.0053       47.1054       47.1107      29.546076       0.03181
  24     48.69       17.5640        0.0064       47.0754       47.0818      29.517818       0.02924
  23     57.69       17.5633        0.0075       47.0449       47.0525      29.489191       0.02683
  22     68.43       17.5625        0.0089       47.0110       47.0199      29.457447       0.02496
  21     81.20       17.5615        0.0106       46.9729       46.9835      29.421943       0.02346
  20     96.49       17.5604        0.0126       46.9294       46.9420      29.381589       0.02227
  19     114.6       17.5590        0.0149       46.8790       46.8940      29.334935       0.02178
  18     136.5       17.5574        0.0177       46.8200       46.8377      29.280284       0.02101
  17     162.9       17.5556        0.0211       46.7361       46.7572      29.201610       0.02515
  16     196.4       17.5534        0.0254       46.5703       46.5956      29.042282       0.04010
  15     218.7       17.5521        0.0282       46.3473       46.3755      28.823357       0.08312
  14     243.0       17.5511        0.0311       45.9299       45.9609      28.409787       0.14344
  13     269.0       17.5510        0.0340       45.1708       45.2048      27.653774       0.24525
  12     297.5       17.5525        0.0369       44.0115       44.0484      26.495814       0.34344
  11     328.5       17.5563        0.0398       42.7242       42.7641      25.207739       0.35022
  10     361.9       17.5635        0.0428       41.3539       41.3968      23.833288       0.34775
   9     398.1       17.5759        0.0458       39.7953       39.8410      22.265111       0.36535
   8     437.6       17.5970        0.0486       37.9948       38.0433      20.446367       0.38886
   7     480.5       17.6306        0.0512       36.0647       36.1159      18.485347       0.38514
   6     533.0       17.6939        0.0541       33.7773       33.8314      16.137505       0.37769
   5     589.8       17.8044        0.0568       31.4082       31.4650      13.660518       0.36767
   4     651.6       18.0185        0.0590       28.8834       28.9423      10.923866       0.37424
   3     718.7       18.4308        0.0609       26.4104       26.4713       8.040505       0.36236
   2     792.3       19.3209        0.0625       24.0056       24.0681       4.747213       0.37770
   1     891.5        0.7393        3.6401        0.0000        3.6401       2.900863       0.15712
   0    1013.0        0.7851        3.3310        0.0000        3.3310       2.545886       0.02465



 Wavenumbers:  7700. -  8050. cm-1, ATM      1
 LEVEL PRESSURE   UPWARD FLUX   DIFDOWN FLUX  DIRDOWN FLUX  DOWNWARD FLUX   NET FLUX    HEATING RATE
          mb          W/m2          W/m2          W/m2        W/m2          W/m2       degree/day
  51    .06700        8.1708        0.0000       11.1810       11.1810       3.010150       0.00000
  50    .07753        8.1708        0.0000       11.1809       11.1809       3.010126       0.01888
  49    .09103        8.1708        0.0000       11.1809       11.1809       3.010096       0.01850
  48    0.1069        8.1708        0.0000       11.1809       11.1809       3.010062       0.01811
  47    0.1255        8.1708        0.0000       11.1809       11.1809       3.010023       0.01772
  46    0.1487        8.1709        0.0000       11.1808       11.1808       3.009974       0.01798
  45    0.1794        8.1709        0.0000       11.1808       11.1808       3.009907       0.01850
  44    0.2165        8.1709        0.0000       11.1807       11.1807       3.009827       0.01815
  43    0.2613        8.1709        0.0000       11.1806       11.1806       3.009732       0.01781
  42    0.3336        8.1710        0.0000       11.1805       11.1805       3.009576       0.01823
  41    0.4307        8.1710        0.0000       11.1803       11.1804       3.009369       0.01803
  40    0.5894        8.1711        0.0000       11.1801       11.1801       3.009030       0.01801
  39     1.339        8.1715        0.0001       11.1788       11.1789       3.007428       0.01804
  38     1.782        8.1717        0.0001       11.1781       11.1782       3.006487       0.01792
  37     2.292        8.1719        0.0001       11.1772       11.1773       3.005397       0.01804
  36     2.964        8.1723        0.0002       11.1761       11.1763       3.003967       0.01796
  35     3.853        8.1727        0.0002       11.1746       11.1748       3.002077       0.01793
  34     5.035        8.1733        0.0003       11.1726       11.1729       2.999566       0.01793
  33     6.613        8.1741        0.0004       11.1700       11.1704       2.996213       0.01793
  32     8.786        8.1752        0.0005       11.1664       11.1669       2.991694       0.01755
  31     11.80        8.1768        0.0007       11.1613       11.1620       2.985233       0.01809
  30     15.07        8.1785        0.0009       11.1558       11.1568       2.978299       0.01790
  29     18.79        8.1803        0.0011       11.1497       11.1508       2.970472       0.01775
  28     23.16        8.1826        0.0014       11.1425       11.1439       2.961338       0.01766
  27     28.12        8.1851        0.0017       11.1343       11.1360       2.950905       0.01774
  26     33.73        8.1880        0.0020       11.1252       11.1272       2.939246       0.01753
  25     40.54        8.1915        0.0024       11.1142       11.1166       2.925185       0.01744
  24     48.69        8.1957        0.0029       11.1010       11.1039       2.908270       0.01750
  23     57.69        8.2003        0.0035       11.0866       11.0901       2.889740       0.01737
  22     68.43        8.2059        0.0041       11.0695       11.0737       2.867738       0.01730
  21     81.20        8.2126        0.0049       11.0494       11.0543       2.841623       0.01726
  20     96.49        8.2207        0.0058       11.0255       11.0313       2.810644       0.01710
  19     114.6        8.2304        0.0069       10.9975       11.0044       2.774054       0.01709
  18     136.5        8.2420        0.0082       10.9648       10.9729       2.730946       0.01658
  17     162.9        8.2560        0.0097       10.9263       10.9360       2.679959       0.01630
  16     196.4        8.2746        0.0117       10.8773       10.8889       2.614357       0.01651
  15     218.7        8.2870        0.0130       10.8455       10.8585       2.571534       0.01626
  14     243.0        8.3007        0.0144       10.8114       10.8258       2.525151       0.01609
  13     269.0        8.3158        0.0159       10.7749       10.7908       2.474988       0.01627
  12     297.5        8.3325        0.0176       10.7357       10.7533       2.420746       0.01609
  11     328.5        8.3510        0.0193       10.6937       10.7131       2.362029       0.01596
  10     361.9        8.3716        0.0213       10.6489       10.6701       2.298521       0.01607
   9     398.1        8.3945        0.0233       10.6008       10.6241       2.229593       0.01606
   8     437.6        8.4201        0.0255       10.5491       10.5746       2.154460       0.01606
   7     480.5        8.4490        0.0279       10.4934       10.5213       2.072378       0.01612
   6     533.0        8.4866        0.0308       10.4243       10.4551       1.968546       0.01670
   5     589.8        8.5304        0.0339       10.3479       10.3818       1.851435       0.01738
   4     651.6        8.5831        0.0373       10.2613       10.2987       1.715561       0.01858
   3     718.7        8.6478        0.0409       10.1618       10.2026       1.554884       0.02019
   2     792.3        8.7302        0.0447       10.0439       10.0886       1.358393       0.02254
   1     891.5        1.5134        2.7172        0.0000        2.7172       1.203763       0.01316
   0    1013.0        1.5446        2.6599        0.0000        2.6599       1.115295       0.00614



 Wavenumbers:  8050. - 12850. cm-1, ATM      1
 LEVEL PRESSURE   UPWARD FLUX   DIFDOWN FLUX  DIRDOWN FLUX  DOWNWARD FLUX   NET FLUX    HEATING RATE
          mb          W/m2          W/m2          W/m2        W/m2          W/m2       degree/day
  51    .06700      111.1115        0.0000      156.5418      156.5418      45.430266       0.00000
  50    .07753      111.1115        0.0000      156.5417      156.5417      45.430266      -0.00000
  49    .09103      111.1115        0.0001      156.5417      156.5417      45.430266       0.00000
  48    0.1069      111.1114        0.0001      156.5416      156.5417      45.430266       0.00000
  47    0.1255      111.1114        0.0002      156.5415      156.5417      45.430266      -0.00000
  46    0.1487      111.1114        0.0002      156.5414      156.5417      45.430266       0.00000
  45    0.1794      111.1114        0.0003      156.5413      156.5416      45.430266       0.00000
  44    0.2165      111.1113        0.0004      156.5412      156.5416      45.430266      -0.00000
  43    0.2613      111.1113        0.0006      156.5410      156.5416      45.430266       0.00000
  42    0.3336      111.1112        0.0008      156.5407      156.5415      45.430266       0.00000
  41    0.4307      111.1111        0.0011      156.5403      156.5414      45.430266      -0.00000
  40    0.5894      111.1110        0.0016      156.5397      156.5412      45.430266      -0.00000
  39     1.339      111.1103        0.0038      156.5367      156.5405      45.430266      -0.00000
  38     1.782      111.1098        0.0051      156.5350      156.5401      45.430266       0.00000
  37     2.292      111.1093        0.0066      156.5330      156.5396      45.430266      -0.00000
  36     2.964      111.1087        0.0086      156.5303      156.5390      45.430266       0.00000
  35     3.853      111.1078        0.0113      156.5268      156.5381      45.430266       0.00000
  34     5.035      111.1067        0.0148      156.5222      156.5370      45.430266      -0.00000
  33     6.613      111.1052        0.0195      156.5160      156.5355      45.430266      -0.00000
  32     8.786      111.1032        0.0258      156.5076      156.5334      45.430266       0.00000
  31     11.80      111.1002        0.0348      156.4957      156.5305      45.430266       0.00000
  30     15.07      111.0971        0.0446      156.4828      156.5274      45.430266       0.00000
  29     18.79      111.0935        0.0556      156.4682      156.5238      45.430266      -0.00000
  28     23.16      111.0894        0.0684      156.4512      156.5196      45.430266       0.00000
  27     28.12      111.0846        0.0832      156.4317      156.5149      45.430266       0.00000
  26     33.73      111.0793        0.0997      156.4099      156.5095      45.430266      -0.00000
  25     40.54      111.0728        0.1197      156.3834      156.5031      45.430266       0.00000
  24     48.69      111.0650        0.1438      156.3515      156.4953      45.430266      -0.00000
  23     57.69      111.0565        0.1703      156.3164      156.4867      45.430266       0.00000
  22     68.43      111.0462        0.2019      156.2746      156.4765      45.430266       0.00000
  21     81.20      111.0340        0.2397      156.2246      156.4643      45.430266      -0.00000
  20     96.49      111.0194        0.2848      156.1649      156.4497      45.430266       0.00000
  19     114.6      111.0024        0.3384      156.0879      156.4263      45.423980       0.00294
  18     136.5      110.9821        0.4021      155.9962      156.3982      45.416186       0.00300
  17     162.9      110.9579        0.4781      155.8831      156.3611      45.403269       0.00413
  16     196.4      110.9266        0.5769      155.7199      156.2969      45.370232       0.00832
  15     218.7      110.9066        0.6419      155.5733      156.2152      45.308656       0.02338
  14     243.0      110.8861        0.7126      155.3367      156.0493      45.163222       0.05044
  13     269.0      110.8668        0.7890      154.9514      155.7405      44.873617       0.09395
  12     297.5      110.8520        0.8714      154.3896      155.2610      44.409011       0.13780
  11     328.5      110.8434        0.9602      153.7151      154.6753      43.831847       0.15693
  10     361.9      110.8453        1.0555      152.9087      153.9642      43.118964       0.18037
   9     398.1      110.8643        1.1575      151.8986      153.0561      42.191735       0.21602
   8     437.6      110.9124        1.2660      150.6031      151.8691      40.956725       0.26405
   7     480.5      111.0038        1.3808      149.0014      150.3822      39.378409       0.30998
   6     533.0      111.1919        1.5197      146.7375      148.2573      37.065318       0.37210
   5     589.8      111.5362        1.6654      143.8730      145.5383      34.002130       0.45468
   4     651.6      112.2116        1.8148      140.0955      141.9103      29.698757       0.58850
   3     718.7      113.4811        1.9665      135.5278      137.4943      24.013156       0.71452
   2     792.3      116.0192        2.1166      130.0690      132.1856      16.166392       0.89994
   1     891.5       42.1747       52.5420        0.0002       52.5422      10.367526       0.49346
   0    1013.0       43.3487       50.7475        0.0002       50.7477       7.399016       0.20612



 Wavenumbers: 12850. - 16000. cm-1, ATM      1
 LEVEL PRESSURE   UPWARD FLUX   DIFDOWN FLUX  DIRDOWN FLUX  DOWNWARD FLUX   NET FLUX    HEATING RATE
          mb          W/m2          W/m2          W/m2        W/m2          W/m2       degree/day
  51    .06700       82.2767        0.0000       98.0872       98.0872      15.810513       0.00000
  50    .07753       82.2767        0.0001       98.0864       98.0864      15.809720       0.63569
  49    .09103       82.2767        0.0002       98.0853       98.0855      15.808724       0.62277
  48    0.1069       82.2767        0.0003       98.0841       98.0843      15.807578       0.60964
  47    0.1255       82.2768        0.0004       98.0826       98.0830      15.806262       0.59682
  46    0.1487       82.2768        0.0005       98.0809       98.0814      15.804600       0.60594
  45    0.1794       82.2768        0.0007       98.0784       98.0792      15.802337       0.62115
  44    0.2165       82.2769        0.0010       98.0756       98.0766      15.799674       0.60586
  43    0.2613       82.2771        0.0013       98.0723       98.0736      15.796539       0.59083
  42    0.3336       82.2773        0.0017       98.0670       98.0688      15.791419       0.59702
  41    0.4307       82.2778        0.0024       98.0602       98.0626      15.784790       0.57638
  40    0.5894       82.2787        0.0034       98.0496       98.0530      15.774327       0.55638
  39     1.339       82.2860        0.0083       98.0043       98.0126      15.726649       0.53677
  38     1.782       82.2926        0.0112       97.9793       97.9904      15.697850       0.54828
  37     2.292       82.3024        0.0145       97.9498       97.9643      15.661861       0.59606
  36     2.964       82.3186        0.0188       97.9088       97.9277      15.609087       0.66248
  35     3.853       82.3446        0.0246       97.8503       97.8749      15.530359       0.74714
  34     5.035       82.3837        0.0322       97.7680       97.8002      15.416534       0.81312
  33     6.613       82.4383        0.0424       97.6562       97.6986      15.260347       0.83497
  32     8.786       82.5094        0.0562       97.5107       97.5668      15.057465       0.78792
  31     11.80       82.6020        0.0758       97.3179       97.3936      14.791617       0.74429
  30     15.07       82.6910        0.0968       97.1283       97.2252      14.534202       0.66459
  29     18.79       82.7819        0.1206       96.9300       97.0506      14.268682       0.60202
  28     23.16       82.8772        0.1483       96.7166       96.8649      13.987646       0.54343
  27     28.12       82.9735        0.1800       96.4935       96.6735      13.700045       0.48890
  26     33.73       83.0628        0.2155       96.2731       96.4886      13.425738       0.41243
  25     40.54       83.1497        0.2583       96.0408       96.2991      13.149468       0.34274
  24     48.69       83.2338        0.3100       95.7946       96.1046      12.870833       0.28834
  23     57.69       83.3063        0.3668       95.5573       95.9241      12.617806       0.23717
  22     68.43       83.3711        0.4345       95.3106       95.7451      12.373950       0.19170
  21     81.20       83.4189        0.5152       95.0643       95.5796      12.160614       0.14097
  20     96.49       83.4487        0.6116       94.8153       95.4268      11.978122       0.10072
  19     114.6       83.4823        0.7270       94.5411       95.2681      11.785769       0.08982
  18     136.5       83.5105        0.8639       94.2320       95.0959      11.585362       0.07706
  17     162.9       83.5337        1.0268       93.8753       94.9022      11.368452       0.06933
  16     196.4       83.5413        1.2382       93.4347       94.6729      11.131553       0.05963
  15     218.7       83.5385        1.3771       93.1513       94.5283      10.989828       0.05381
  14     243.0       83.5324        1.5280       92.8439       94.3719      10.839526       0.05213
  13     269.0       83.5231        1.6915       92.5111       94.2026      10.679525       0.05190
  12     297.5       83.5116        1.8682       92.1495       94.0177      10.506138       0.05142
  11     328.5       83.5001        2.0592       91.7554       93.8146      10.314412       0.05213
  10     361.9       83.4902        2.2647       91.3262       93.5909      10.100722       0.05407
   9     398.1       83.4839        2.4859       90.8575       93.3435       9.859575       0.05618
   8     437.6       83.4852        2.7234       90.3418       93.0652       9.579991       0.05978
   7     480.5       83.4981        2.9777       89.7728       92.7505       9.252347       0.06435
   6     533.0       83.5361        3.2903       89.0428       92.3331       8.797059       0.07324
   5     589.8       83.6173        3.6262       88.2038       91.8300       8.212765       0.08673
   4     651.6       83.7858        3.9850       87.1979       91.1829       7.397068       0.11155
   3     718.7       84.0770        4.3651       86.0161       90.3812       6.304202       0.13734
   2     792.3       84.5946        4.7628       84.5970       89.3598       4.765228       0.17650
   1     891.5       54.2252       57.5286        0.0001       57.5287       3.303519       0.12438
   0    1013.0       54.8562       56.7868        0.0001       56.7869       1.930754       0.09532



 Wavenumbers: 16000. - 22650. cm-1, ATM      1
 LEVEL PRESSURE   UPWARD FLUX   DIFDOWN FLUX  DIRDOWN FLUX  DOWNWARD FLUX   NET FLUX    HEATING RATE
          mb          W/m2          W/m2          W/m2        W/m2          W/m2       degree/day
  51    .06700      140.9664        0.0000      156.3892      156.3892      15.422894       0.00000
  50    .07753      140.9663        0.0004      156.3887      156.3891      15.422747       0.11836
  49    .09103      140.9663        0.0009      156.3879      156.3888      15.422532       0.13425
  48    0.1069      140.9663        0.0015      156.3871      156.3885      15.422244       0.15309
  47    0.1255      140.9663        0.0021      156.3861      156.3882      15.421859       0.17450
  46    0.1487      140.9664        0.0030      156.3847      156.3877      15.421292       0.20678
  45    0.1794      140.9665        0.0041      156.3828      156.3869      15.420405       0.24347
  44    0.2165      140.9667        0.0054      156.3805      156.3859      15.419202       0.27363
  43    0.2613      140.9671        0.0070      156.3776      156.3846      15.417571       0.30762
  42    0.3336      140.9678        0.0097      156.3726      156.3823      15.414468       0.36176
  41    0.4307      140.9691        0.0131      156.3657      156.3789      15.409791       0.40666
  40    0.5894      140.9717        0.0188      156.3537      156.3725      15.400871       0.47435
  39     1.339      140.9943        0.0458      156.2834      156.3293      15.334970       0.74193
  38     1.782      141.0152        0.0617      156.2324      156.2940      15.278830       1.06881
  37     2.292      141.0465        0.0800      156.1641      156.2441      15.197567       1.34593
  36     2.964      141.0986        0.1041      156.0605      156.1646      15.065920       1.65257
  35     3.853      141.1829        0.1358      155.9041      156.0399      14.857029       1.98242
  34     5.035      141.3100        0.1780      155.6774      155.8554      14.545378       2.22630
  33     6.613      141.4876        0.2343      155.3656      155.5999      14.112275       2.31537
  32     8.786      141.7189        0.3100      154.9577      155.2677      13.548709       2.18869
  31     11.80      142.0200        0.4182      154.4153      154.8334      12.813399       2.05864
  30     15.07      142.3084        0.5341      153.8804      154.4145      12.106053       1.82623
  29     18.79      142.6029        0.6649      153.3191      153.9840      11.381088       1.64372
  28     23.16      142.9107        0.8175      152.7126      153.5300      10.619336       1.47298
  27     28.12      143.2203        0.9916      152.0755      153.0671       9.846790       1.31328
  26     33.73      143.5062        1.1864      151.4409      152.6273       9.121136       1.09104
  25     40.54      143.7812        1.4215      150.7637      152.1851       8.403928       0.88978
  24     48.69      144.0445        1.7045      150.0338      151.7384       7.693880       0.73479
  23     57.69      144.2677        2.0151      149.3151      151.3303       7.062575       0.59175
  22     68.43      144.4623        2.3847      148.5476      150.9323       6.469946       0.46589
  21     81.20      144.5966        2.8246      147.7517      150.5763       5.979702       0.32395
  20     96.49      144.6660        3.3483      146.9127      150.2610       5.594984       0.21234
  19     114.6      144.7018        3.9684      145.9763      149.9447       5.242861       0.16442
  18     136.5      144.7128        4.7005      144.9088      149.6093       4.896463       0.13320
  17     162.9      144.6974        5.5683      143.6785      149.2469       4.549472       0.11091
  16     196.4      144.6157        6.6880      142.1651      148.8530       4.237388       0.07856
  15     218.7      144.5394        7.4197      141.2033      148.6230       4.083634       0.05837
  14     243.0      144.4461        8.2116      140.1753      148.3870       3.940814       0.04953
  13     269.0      144.3343        9.0660      139.0797      148.1457       3.811323       0.04201
  12     297.5      144.2034        9.9848      137.9141      147.8989       3.695514       0.03435
  11     328.5      144.0573       10.9724      136.6676      147.6400       3.582730       0.03067
  10     361.9      143.8958       12.0297      135.3392      147.3689       3.473085       0.02774
   9     398.1      143.7185       13.1607      133.9235      147.0842       3.365645       0.02503
   8     437.6      143.5265       14.3674      132.4163      146.7837       3.257196       0.02319
   7     480.5      143.3194       15.6521      130.8147      146.4668       3.147377       0.02157
   6     533.0      143.0650       17.2211      128.8599      146.0810       3.016050       0.02113
   5     589.8      142.7954       18.8975      126.7679      145.6655       2.870025       0.02167
   4     651.6      142.5179       20.6830      124.5274      145.2104       2.692467       0.02428
   3     718.7      142.2395       22.5792      122.1285      144.7076       2.468155       0.02819
   2     792.3      141.9784       24.5839      119.5548      144.1387       2.160290       0.03531
   1     891.5      114.3255      116.0904        0.0002      116.0906       1.765049       0.03363
   0    1013.0      114.5540      115.8162        0.0002      115.8164       1.262398       0.03490



 Wavenumbers: 22650. - 29000. cm-1, ATM      1
 LEVEL PRESSURE   UPWARD FLUX   DIFDOWN FLUX  DIRDOWN FLUX  DOWNWARD FLUX   NET FLUX    HEATING RATE
          mb          W/m2          W/m2          W/m2        W/m2          W/m2       degree/day
  51    .06700       58.6878        0.0000       59.0156       59.0156       0.327812       0.00000
  50    .07753       58.6877        0.0005       59.0151       59.0155       0.327812       0.00000
  49    .09103       58.6876        0.0010       59.0144       59.0154       0.327812       0.00000
  48    0.1069       58.6875        0.0017       59.0136       59.0153       0.327812      -0.00000
  47    0.1255       58.6873        0.0025       59.0127       59.0151       0.327812       0.00000
  46    0.1487       58.6871        0.0035       59.0115       59.0149       0.327812      -0.00000
  45    0.1794       58.6869        0.0048       59.0099       59.0147       0.327812       0.00000
  44    0.2165       58.6866        0.0063       59.0080       59.0144       0.327812      -0.00000
  43    0.2613       58.6862        0.0082       59.0058       59.0140       0.327812       0.00000
  42    0.3336       58.6856        0.0113       59.0022       59.0134       0.327812      -0.00000
  41    0.4307       58.6848        0.0154       58.9973       59.0127       0.327812       0.00000
  40    0.5894       58.6836        0.0220       58.9894       59.0114       0.327812      -0.00000
  39     1.339       58.6775        0.0535       58.9518       59.0053       0.327812       0.00000
  38     1.782       58.6739        0.0720       58.9297       59.0017       0.327812       0.00000
  37     2.292       58.6698        0.0935       58.9042       58.9976       0.327812      -0.00000
  36     2.964       58.6644        0.1216       58.8706       58.9922       0.327812       0.00000
  35     3.853       58.6573        0.1587       58.8264       58.9851       0.327812       0.00000
  34     5.035       58.6478        0.2080       58.7676       58.9756       0.327812      -0.00000
  33     6.613       58.6351        0.2738       58.6891       58.9629       0.327812       0.00000
  32     8.786       58.6180        0.3624       58.5834       58.9459       0.327812      -0.00000
  31     11.80       58.5937        0.4890       58.4324       58.9215       0.327812       0.00000
  30     15.07       58.5676        0.6247       58.2706       58.8954       0.327812       0.00000
  29     18.79       58.5381        0.7777       58.0882       58.8659       0.327812      -0.00000
  28     23.16       58.5038        0.9559       57.8757       58.8316       0.327812      -0.00000
  27     28.12       58.4647        1.1591       57.6333       58.7925       0.327812       0.00000
  26     33.73       58.4210        1.3858       57.3631       58.7488       0.327812      -0.00000
  25     40.54       58.3685        1.6585       57.0379       58.6963       0.327812      -0.00000
  24     48.69       58.3055        1.9855       56.6479       58.6334       0.327812       0.00000
  23     57.69       58.2368        2.3425       56.2221       58.5646       0.327812      -0.00000
  22     68.43       58.1555        2.7647       55.7186       58.4833       0.327812       0.00000
  21     81.20       58.0594        3.2633       55.1239       58.3872       0.327812      -0.00000
  20     96.49       57.9461        3.8512       54.4228       58.2739       0.327812       0.00000
  19     114.6       57.8133        4.5402       53.6010       58.1412       0.327812      -0.00000
  18     136.5       57.6583        5.3444       52.6418       57.9861       0.327812       0.00000
  17     162.9       57.4770        6.2845       51.5203       57.8048       0.327812      -0.00000
  16     196.4       57.2472        7.4756       50.0994       57.5750       0.327812       0.00000
  15     218.7       57.0995        8.2410       49.1863       57.4273       0.327812      -0.00000
  14     243.0       56.9417        9.0582       48.2113       57.2695       0.327812       0.00000
  13     269.0       56.7739        9.9268       47.1749       57.1017       0.327812      -0.00000
  12     297.5       56.5963       10.8458       46.0783       56.9241       0.327812       0.00000
  11     328.5       56.4085       11.8168       44.9195       56.7364       0.327812      -0.00000
  10     361.9       56.2112       12.8371       43.7018       56.5390       0.327812      -0.00000
   9     398.1       56.0041       13.9069       42.4250       56.3319       0.327812       0.00000
   8     437.6       55.7877       15.0239       41.0916       56.1156       0.327812       0.00000
   7     480.5       55.5625       16.1859       39.7045       55.8903       0.327812      -0.00000
   6     533.0       55.2944       17.5679       38.0543       55.6222       0.327812       0.00000
   5     589.8       55.0161       19.0008       36.3431       55.3439       0.327812       0.00000
   4     651.6       54.7290       20.4773       34.5795       55.0568       0.327812       0.00000
   3     718.7       54.4341       21.9917       32.7702       54.7619       0.327812      -0.00000
   2     792.3       54.1331       23.5353       30.9256       54.4609       0.327812       0.00000
   1     891.5       47.7190       48.0456        0.0001       48.0457       0.326633       0.00010
   0    1013.0       47.7077       48.0342        0.0000       48.0343       0.326633       0.00000



 Wavenumbers: 29000. - 38000. cm-1, ATM      1
 LEVEL PRESSURE   UPWARD FLUX   DIFDOWN FLUX  DIRDOWN FLUX  DOWNWARD FLUX   NET FLUX    HEATING RATE
          mb          W/m2          W/m2          W/m2        W/m2          W/m2       degree/day
  51    .06700        8.7744        0.0000       20.8114       20.8114      12.036986       0.00000
  50    .07753        8.7742        0.0003       20.8070       20.8074      12.033179       3.05157
  49    .09103        8.7740        0.0007       20.8009       20.8016      12.027642       3.46087
  48    0.1069        8.7737        0.0012       20.7928       20.7939      12.020232       3.94432
  47    0.1255        8.7734        0.0017       20.7820       20.7837      12.010327       4.49037
  46    0.1487        8.7731        0.0024       20.7665       20.7688      11.995764       5.30848
  45    0.1794        8.7726        0.0033       20.7424       20.7457      11.973099       6.22209
  44    0.2165        8.7721        0.0044       20.7103       20.7147      11.942576       6.94345
  43    0.2613        8.7715        0.0056       20.6675       20.6731      11.901581       7.72738
  42    0.3336        8.7706        0.0077       20.5880       20.5957      11.825019       8.92632
  41    0.4307        8.7696        0.0104       20.4722       20.4826      11.713066       9.73411
  40    0.5894        8.7680        0.0147       20.2637       20.2784      11.510380      10.77856
  39     1.339        8.7646        0.0331       19.0984       19.1315      10.366889      12.87363
  38     1.782        8.7651        0.0427       18.4394       18.4821       9.716952      12.37374
  37     2.292        8.7678        0.0530       17.7714       17.8244       9.056590      10.93732
  36     2.964        8.7744        0.0657       17.0421       17.1078       8.333439       9.07774
  35     3.853        8.7873        0.0816       16.2678       16.3495       7.562215       7.31905
  34     5.035        8.8085        0.1018       15.4803       15.5821       6.773655       5.63315
  33     6.613        8.8393        0.1276       14.7157       14.8433       6.003978       4.11469
  32     8.786        8.8801        0.1614       13.9936       14.1550       5.274903       2.83146
  31     11.80        8.9333        0.2085       13.2835       13.4920       4.558768       2.00495
  30     15.07        8.9846        0.2573       12.7394       12.9967       4.012117       1.41135
  29     18.79        9.0376        0.3114       12.2666       12.5781       3.540475       1.06936
  28     23.16        9.0939        0.3730       11.8300       12.2030       3.109114       0.83411
  27     28.12        9.1516        0.4420       11.4279       11.8698       2.718175       0.66457
  26     33.73        9.2050        0.5179       11.0695       11.5874       2.382415       0.50482
  25     40.54        9.2556        0.6087       10.7209       11.3296       2.073975       0.38266
  24     48.69        9.3035        0.7164       10.3742       11.0906       1.787121       0.29685
  23     57.69        9.3429        0.8330       10.0549       10.8879       1.545072       0.22688
  22     68.43        9.3748        0.9698        9.7327       10.7026       1.327739       0.17085
  21     81.20        9.3904        1.1313        9.4134       10.5448       1.154407       0.11453
  20     96.49        9.3875        1.3212        9.0887       10.4100       1.022439       0.07284
  19     114.6        9.3745        1.5406        8.7388       10.2794       0.904951       0.05486
  18     136.5        9.3542        1.7915        8.3549       10.1464       0.792197       0.04336
  17     162.9        9.3268        2.0774        7.9311       10.0086       0.681774       0.03530
  16     196.4        9.2804        2.4317        7.4333        9.8650       0.584556       0.02447
  15     218.7        9.2469        2.6545        7.1295        9.7841       0.537130       0.01801
  14     243.0        9.2102        2.8875        6.8161        9.7036       0.493330       0.01519
  13     269.0        9.1701        3.1298        6.4943        9.6241       0.453994       0.01276
  12     297.5        9.1266        3.3802        6.1657        9.5459       0.419312       0.01029
  11     328.5        9.0812        3.6379        5.8295        9.4673       0.386099       0.00903
  10     361.9        9.0344        3.9003        5.4886        9.3889       0.354507       0.00799
   9     398.1        8.9863        4.1669        5.1440        9.3108       0.324560       0.00698
   8     437.6        8.9374        4.4361        4.7969        9.2331       0.295684       0.00617
   7     480.5        8.8880        4.7059        4.4504        9.1563       0.268267       0.00538
   6     533.0        8.8315        5.0136        4.0563        9.0699       0.238370       0.00481
   5     589.8        8.7759        5.3171        3.6682        8.9853       0.209412       0.00430
   4     651.6        8.7221        5.6126        3.2905        8.9031       0.181070       0.00388
   3     718.7        8.6706        5.8987        2.9252        8.8239       0.153299       0.00349
   2     792.3        8.6223        6.1719        2.5764        8.7484       0.126103       0.00312
   1     891.5        7.7208        7.8167        0.0000        7.8167       0.095939       0.00257
   0    1013.0        7.7303        7.7950        0.0000        7.7950       0.064699       0.00217



 Wavenumbers: 38000. - 50000. cm-1, ATM      1
 LEVEL PRESSURE   UPWARD FLUX   DIFDOWN FLUX  DIRDOWN FLUX  DOWNWARD FLUX   NET FLUX    HEATING RATE
          mb          W/m2          W/m2          W/m2        W/m2          W/m2       degree/day
  51    .06700        0.0061        0.0000        1.2836        1.2836       1.277518       0.00000
  50    .07753        0.0061        0.0001        1.2812        1.2812       1.275183       1.87150
  49    .09103        0.0060        0.0002        1.2777        1.2778       1.271851       2.08247
  48    0.1069        0.0059        0.0002        1.2731        1.2734       1.267473       2.33059
  47    0.1255        0.0058        0.0004        1.2672        1.2675       1.261717       2.60908
  46    0.1487        0.0057        0.0005        1.2586        1.2591       1.253391       3.03499
  45    0.1794        0.0055        0.0007        1.2455        1.2462       1.240623       3.50520
  44    0.2165        0.0054        0.0009        1.2282        1.2291       1.223697       3.85037
  43    0.2613        0.0052        0.0011        1.2054        1.2065       1.201348       4.21261
  42    0.3336        0.0049        0.0015        1.1639        1.1654       1.160524       4.75970
  41    0.4307        0.0045        0.0020        1.1051        1.1070       1.102565       5.03943
  40    0.5894        0.0039        0.0026        1.0039        1.0064       1.002524       5.32007
  39     1.339        0.0022        0.0035        0.5438        0.5473       0.545104       5.14971
  38     1.782        0.0016        0.0032        0.3635        0.3666       0.365006       3.42879
  37     2.292        0.0012        0.0027        0.2356        0.2383       0.237058       2.11916
  36     2.964        0.0009        0.0022        0.1455        0.1477       0.146786       1.13318
  35     3.853        0.0006        0.0017        0.0858        0.0875       0.086906       0.56828
  34     5.035        0.0004        0.0013        0.0488        0.0501       0.049701       0.26578
  33     6.613        0.0003        0.0010        0.0273        0.0282       0.027974       0.11615
  32     8.786        0.0002        0.0007        0.0144        0.0151       0.014928       0.05067
  31     11.80        0.0001        0.0004        0.0065        0.0070       0.006903       0.02247
  30     15.07        0.0000        0.0003        0.0031        0.0034       0.003329       0.00923
  29     18.79        0.0000        0.0002        0.0014        0.0016       0.001583       0.00396
  28     23.16        0.0000        0.0001        0.0006        0.0007       0.000720       0.00167
  27     28.12        0.0000        0.0001        0.0003        0.0003       0.000317       0.00069
  26     33.73        0.0000        0.0000        0.0001        0.0001       0.000140       0.00027
  25     40.54        0.0000        0.0000        0.0000        0.0001       0.000057       0.00010
  24     48.69        0.0000        0.0000        0.0000        0.0000       0.000021       0.00004
  23     57.69        0.0000        0.0000        0.0000        0.0000       0.000008       0.00001
  22     68.43        0.0000        0.0000        0.0000        0.0000       0.000003       0.00000
  21     81.20        0.0000        0.0000        0.0000        0.0000       0.000001       0.00000
  20     96.49        0.0000        0.0000        0.0000        0.0000       0.000000       0.00000
  19     114.6        0.0000        0.0000        0.0000        0.0000       0.000000       0.00000
  18     136.5        0.0000        0.0000        0.0000        0.0000       0.000000       0.00000
  17     162.9        0.0000        0.0000        0.0000        0.0000       0.000000       0.00000
  16     196.4        0.0000        0.0000        0.0000        0.0000       0.000000       0.00000
  15     218.7        0.0000        0.0000        0.0000        0.0000       0.000000       0.00000
  14     243.0        0.0000        0.0000        0.0000        0.0000       0.000000       0.00000
  13     269.0        0.0000        0.0000        0.0000        0.0000       0.000000       0.00000
  12     297.5        0.0000        0.0000        0.0000        0.0000       0.000000       0.00000
  11     328.5        0.0000        0.0000        0.0000        0.0000       0.000000       0.00000
  10     361.9        0.0000        0.0000        0.0000        0.0000       0.000000       0.00000
   9     398.1        0.0000        0.0000        0.0000        0.0000       0.000000       0.00000
   8     437.6        0.0000        0.0000        0.0000        0.0000       0.000000       0.00000
   7     480.5        0.0000        0.0000        0.0000        0.0000       0.000000       0.00000
   6     533.0        0.0000        0.0000        0.0000        0.0000       0.000000       0.00000
   5     589.8        0.0000        0.0000        0.0000        0.0000       0.000000       0.00000
   4     651.6        0.0000        0.0000        0.0000        0.0000       0.000000       0.00000
   3     718.7        0.0000        0.0000        0.0000        0.0000       0.000000       0.00000
   2     792.3        0.0000        0.0000        0.0000        0.0000       0.000000       0.00000
   1     891.5        0.0000        0.0000        0.0000        0.0000       0.000000       0.00000
   0    1013.0        0.0000        0.0000        0.0000        0.0000       0.000000       0.00000



 Wavenumbers:   820. -  2600. cm-1, ATM      1
 LEVEL PRESSURE   UPWARD FLUX   DIFDOWN FLUX  DIRDOWN FLUX  DOWNWARD FLUX   NET FLUX    HEATING RATE
          mb          W/m2          W/m2          W/m2        W/m2          W/m2       degree/day
  51    .06700        1.5407        0.0000        6.0047        6.0047       4.463922       0.00000
  50    .07753        1.5407        0.0000        6.0008        6.0008       4.460069       3.08825
  49    .09103        1.5407        0.0000        5.9999        5.9999       4.459183       0.55362
  48    0.1069        1.5407        0.0000        5.9989        5.9989       4.458194       0.52656
  47    0.1255        1.5407        0.0000        5.9978        5.9978       4.457076       0.50654
  46    0.1487        1.5407        0.0000        5.9964        5.9964       4.455720       0.49461
  45    0.1794        1.5407        0.0000        5.9947        5.9947       4.454000       0.47204
  44    0.2165        1.5407        0.0000        5.9929        5.9929       4.452157       0.41915
  43    0.2613        1.5407        0.0000        5.9909        5.9909       4.450198       0.36938
  42    0.3336        1.5407        0.0000        5.9880        5.9880       4.447319       0.33561
  41    0.4307        1.5407        0.0000        5.9846        5.9846       4.443849       0.30170
  40    0.5894        1.5407        0.0000        5.9791        5.9791       4.438343       0.29281
  39     1.339        1.5407        0.0000        5.9536        5.9536       4.412851       0.28700
  38     1.782        1.5407        0.0000        5.9395        5.9395       4.398710       0.26923
  37     2.292        1.5408        0.0000        5.9237        5.9237       4.382955       0.26094
  36     2.964        1.5408        0.0000        5.9039        5.9039       4.363176       0.24828
  35     3.853        1.5408        0.0000        5.8793        5.8793       4.338515       0.23405
  34     5.035        1.5408        0.0000        5.8487        5.8487       4.307944       0.21839
  33     6.613        1.5408        0.0000        5.8108        5.8108       4.269969       0.20302
  32     8.786        1.5408        0.0000        5.7631        5.7631       4.222331       0.18501
  31     11.80        1.5408        0.0000        5.7039        5.7039       4.163053       0.16596
  30     15.07        1.5409        0.0000        5.6539        5.6539       4.112991       0.12925
  29     18.79        1.5409        0.0000        5.6127        5.6127       4.071828       0.09333
  28     23.16        1.5409        0.0000        5.5794        5.5794       4.038420       0.06460
  27     28.12        1.5410        0.0000        5.5518        5.5518       4.010815       0.04693
  26     33.73        1.5410        0.0000        5.5268        5.5268       3.985719       0.03773
  25     40.54        1.5411        0.0000        5.4993        5.4993       3.958221       0.03411
  24     48.69        1.5412        0.0000        5.4678        5.4678       3.926613       0.03271
  23     57.69        1.5413        0.0000        5.4340        5.4340       3.892749       0.03174
  22     68.43        1.5414        0.0000        5.3947        5.3948       3.853383       0.03095
  21     81.20        1.5415        0.0000        5.3497        5.3497       3.808235       0.02983
  20     96.49        1.5416        0.0000        5.2982        5.2982       3.756579       0.02851
  19     114.6        1.5418        0.0000        5.2389        5.2389       3.697081       0.02778
  18     136.5        1.5421        0.0000        5.1716        5.1717       3.629601       0.02595
  17     162.9        1.5424        0.0000        5.0890        5.0891       3.546652       0.02651
  16     196.4        1.5430        0.0000        4.9668        4.9668       3.423860       0.03091
  15     218.7        1.5435        0.0000        4.8585        4.8585       3.314942       0.04135
  14     243.0        1.5444        0.0000        4.7078        4.7079       3.163430       0.05255
  13     269.0        1.5458        0.0000        4.5343        4.5343       2.988522       0.05674
  12     297.5        1.5479        0.0000        4.3419        4.3420       2.794076       0.05767
  11     328.5        1.5507        0.0000        4.1281        4.1281       2.577405       0.05891
  10     361.9        1.5545        0.0000        3.8786        3.8787       2.324156       0.06407
   9     398.1        1.5594        0.0000        3.6159        3.6160       2.056535       0.06235
   8     437.6        1.5658        0.0000        3.3759        3.3759       1.810132       0.05268
   7     480.5        1.5735        0.0000        3.1957        3.1958       1.622255       0.03690
   6     533.0        1.5853        0.0000        3.0467        3.0467       1.461370       0.02588
   5     589.8        1.6028        0.0001        2.9023        2.9023       1.299561       0.02402
   4     651.6        1.6331        0.0001        2.7183        2.7184       1.085309       0.02930
   3     718.7        1.6857        0.0001        2.5058        2.5059       0.820126       0.03333
   2     792.3        1.7885        0.0001        2.2756        2.2757       0.487163       0.03819
   1     891.5        0.0014        0.2689        0.0000        0.2689       0.267467       0.01870
   0    1013.0        0.0017        0.2191        0.0000        0.2191       0.217386       0.00348

  Modules and versions used in this calculation:

       rrtmg_sw.1col.f90:  $Revision$                    rrtmg_sw_init.f90:  $Revision$        
     rrtmgsw_cldprop.f90:  $Revision$                  rrtmgsw_cldprmc.f90:  NOT USED          
     rrtmg_sw_reftra.f90:  $Revision$                  rrtmg_sw_spcvrt.f90:  NOT USED          
     rrtmg_sw_spcvmc.f90:  NOT USED                    rrtmgsw_setcoef.f90:  NOT USED          
     rrtmg_sw_taumol.f90:  $Revision$                  rrtmg_sw_vrtqdr.f90:  NOT USED          
                rrtatm.f:  NOT USED                             util_xxx.f:  NOT USED          
                 extra.f:  NOT USED                       rrtmg_sw_k_g.f90:  $Revision$        

