

 Wavenumbers:   820. - 50000. cm-1, ATM      1
 LEVEL PRESSURE   UPWARD FLUX   DIFDOWN FLUX  DIRDOWN FLUX  DOWNWARD FLUX   NET FLUX    HEATING RATE
          mb          W/m2          W/m2          W/m2        W/m2          W/m2       degree/day
  51    .06700      471.8270        0.0000      617.8126      617.8126     145.985551       0.00000
  50    .07753      471.8267        0.0014      617.7947      617.7961     145.969406      12.94073
  49    .09103      471.8262        0.0031      617.7778      617.7808     145.954589       9.26099
  48    0.1069      471.8258        0.0050      617.7581      617.7631     145.937318       9.19322
  47    0.1255      471.8253        0.0073      617.7340      617.7412     145.915962       9.68193
  46    0.1487      471.8247        0.0101      617.7009      617.7110     145.886260      10.82670
  45    0.1794      471.8240        0.0140      617.6521      617.6661     145.842004      12.14921
  44    0.2165      471.8234        0.0185      617.5895      617.6080     145.784651      13.04695
  43    0.2613      471.8227        0.0239      617.5089      617.5328     145.710095      14.05337
  42    0.3336      471.8220        0.0328      617.3641      617.3969     145.574931      15.75879
  41    0.4307      471.8214        0.0445      617.1591      617.2036     145.382192      16.75829
  40    0.5894      471.8215        0.0633      616.8005      616.8638     145.042284      18.07588
  39     1.339      471.8408        0.1487      614.9443      615.0929     143.252155      20.15359
  38     1.782      471.8650        0.1967      613.9670      614.1637     142.298647      18.15326
  37     2.292      471.9049        0.2513      613.0059      613.2572     141.352256      15.67470
  36     2.964      471.9751        0.3223      611.9577      612.2800     140.304931      13.14709
  35     3.853      472.0924        0.4155      610.8024      611.2179     139.125432      11.19367
  34     5.035      472.2727        0.5384      609.5327      610.0711     137.798370       9.47998
  33     6.613      472.5265        0.7015      608.1464      608.8480     136.321450       7.89562
  32     8.786      472.8572        0.9204      606.6250      607.5455     134.688253       6.34275
  31     11.80      473.2858        1.2321      604.8486      606.0807     132.794937       5.30069
  30     15.07      473.6942        1.5647      603.2440      604.8086     131.114452       4.33868
  29     18.79      474.1092        1.9389      601.6511      603.5901     129.480820       3.70395
  28     23.16      474.5407        2.3738      599.9927      602.3665     127.825775       3.20032
  27     28.12      474.9717        2.8688      598.2881      601.1568     126.185139       2.78897
  26     33.73      475.3627        3.4206      596.5951      600.0157     124.653006       2.30360
  25     40.54      475.7288        4.0851      594.7727      598.8578     123.128970       1.89074
  24     48.69      476.0672        4.8824      592.7865      597.6689     121.601723       1.58046
  23     57.69      476.3390        5.7540      590.7959      596.5499     120.210922       1.30367
  22     68.43      476.5545        6.7867      588.6191      595.4058     118.851354       1.06880
  21     81.20      476.6607        8.0112      586.2690      594.2802     117.619500       0.81399
  20     96.49      476.6477        9.4610      583.6961      593.1571     116.509431       0.61268
  19     114.6      476.5748       11.1668      580.7708      591.9377     115.362838       0.53538
  18     136.5      476.4433       13.1644      577.4359      590.6003     114.156994       0.46368
  17     162.9      476.2487       15.5090      573.5624      589.0714     112.822728       0.42649
  16     196.4      475.9084       18.4995      568.5907      587.0902     111.181792       0.41304
  15     218.7      475.6572       20.4332      565.0572      585.4904     109.833232       0.51200
  14     243.0      475.3781       22.5076      560.7495      583.2571     107.879016       0.67779
  13     269.0      475.0741       24.7241      555.3947      580.1188     105.044671       0.91945
  12     297.5      474.7534       27.0833      548.9964      576.0797     101.326279       1.10283
  11     328.5      474.4280       29.5919      542.0895      571.6815      97.253466       1.10739
  10     361.9      474.1091       32.2462      534.6242      566.8704      92.761365       1.13655
   9     398.1      473.8127       35.0508      526.4204      561.4712      87.658470       1.18886
   8     437.6      473.5697       38.0044      517.3907      555.3950      81.825359       1.24716
   7     480.5      473.4137       41.1051      507.7216      548.8267      75.412926       1.25938
   6     533.0      473.4186       44.8337      495.9006      540.7343      67.315721       1.30258
   5     589.8      473.7863       48.7471      483.0788      531.8259      58.039587       1.37688
   4     651.6      474.9452       52.8321      468.6907      521.5228      46.577590       1.56746
   3     718.7      477.5273       57.0807      453.2257      510.3064      32.779091       1.73409
   2     792.3      483.2700       61.4704      436.4928      497.9632      14.693189       2.07425
   1     891.5      177.2993      184.4880        0.0000      184.4880       7.188635       0.63860
   0    1013.0      177.8227      183.7503        0.0000      183.7503       5.927573       0.08756



 Wavenumbers:  2600. -  3250. cm-1, ATM      1
 LEVEL PRESSURE   UPWARD FLUX   DIFDOWN FLUX  DIRDOWN FLUX  DOWNWARD FLUX   NET FLUX    HEATING RATE
          mb          W/m2          W/m2          W/m2        W/m2          W/m2       degree/day
  51    .06700        2.3120        0.0000        5.4450        5.4450       3.133012       0.00000
  50    .07753        2.3120        0.0000        5.4450        5.4450       3.133004       0.00640
  49    .09103        2.3120        0.0000        5.4450        5.4450       3.132994       0.00627
  48    0.1069        2.3120        0.0000        5.4450        5.4450       3.132982       0.00613
  47    0.1255        2.3120        0.0000        5.4450        5.4450       3.132969       0.00599
  46    0.1487        2.3120        0.0000        5.4450        5.4450       3.132952       0.00608
  45    0.1794        2.3120        0.0000        5.4450        5.4450       3.132929       0.00625
  44    0.2165        2.3120        0.0000        5.4449        5.4449       3.132903       0.00612
  43    0.2613        2.3120        0.0000        5.4449        5.4449       3.132871       0.00600
  42    0.3336        2.3120        0.0000        5.4448        5.4448       3.132818       0.00617
  41    0.4307        2.3120        0.0000        5.4448        5.4448       3.132747       0.00620
  40    0.5894        2.3120        0.0000        5.4446        5.4446       3.132627       0.00637
  39     1.339        2.3120        0.0000        5.4439        5.4439       3.131919       0.00797
  38     1.782        2.3120        0.0000        5.4434        5.4434       3.131376       0.01034
  37     2.292        2.3120        0.0000        5.4427        5.4427       3.130660       0.01186
  36     2.964        2.3120        0.0000        5.4416        5.4416       3.129621       0.01304
  35     3.853        2.3120        0.0000        5.4402        5.4402       3.128144       0.01402
  34     5.035        2.3120        0.0000        5.4381        5.4381       3.126088       0.01469
  33     6.613        2.3120        0.0000        5.4353        5.4353       3.123306       0.01487
  32     8.786        2.3120        0.0000        5.4317        5.4317       3.119673       0.01411
  31     11.80        2.3120        0.0000        5.4269        5.4269       3.114890       0.01339
  30     15.07        2.3120        0.0000        5.4224        5.4224       3.110360       0.01170
  29     18.79        2.3120        0.0000        5.4180        5.4180       3.105943       0.01002
  28     23.16        2.3120        0.0000        5.4135        5.4135       3.101449       0.00869
  27     28.12        2.3121        0.0000        5.4088        5.4088       3.096790       0.00792
  26     33.73        2.3121        0.0000        5.4036        5.4036       3.091533       0.00790
  25     40.54        2.3121        0.0000        5.3966        5.3967       3.084566       0.00864
  24     48.69        2.3121        0.0000        5.3872        5.3872       3.075051       0.00985
  23     57.69        2.3122        0.0000        5.3754        5.3754       3.063214       0.01110
  22     68.43        2.3123        0.0000        5.3599        5.3599       3.047650       0.01224
  21     81.20        2.3124        0.0000        5.3401        5.3401       3.027707       0.01318
  20     96.49        2.3126        0.0000        5.3155        5.3155       3.002987       0.01364
  19     114.6        2.3128        0.0001        5.2853        5.2854       2.972578       0.01420
  18     136.5        2.3131        0.0001        5.2504        5.2505       2.937374       0.01354
  17     162.9        2.3136        0.0001        5.2111        5.2112       2.897602       0.01271
  16     196.4        2.3143        0.0001        5.1640        5.1641       2.849801       0.01203
  15     218.7        2.3151        0.0001        5.1331        5.1332       2.818134       0.01202
  14     243.0        2.3163        0.0001        5.0962        5.0963       2.780005       0.01322
  13     269.0        2.3182        0.0001        5.0511        5.0512       2.732967       0.01526
  12     297.5        2.3212        0.0001        4.9956        4.9957       2.674568       0.01732
  11     328.5        2.3253        0.0001        4.9304        4.9305       2.605247       0.01885
  10     361.9        2.3309        0.0002        4.8511        4.8513       2.520327       0.02149
   9     398.1        2.3388        0.0002        4.7507        4.7509       2.412070       0.02522
   8     437.6        2.3498        0.0002        4.6220        4.6222       2.272459       0.02985
   7     480.5        2.3651        0.0002        4.4625        4.4627       2.097588       0.03434
   6     533.0        2.3903        0.0002        4.2460        4.2463       1.855991       0.03887
   5     589.8        2.4291        0.0002        3.9954        3.9956       1.566572       0.04296
   4     651.6        2.4940        0.0002        3.7089        3.7091       1.215079       0.04807
   3     718.7        2.6035        0.0002        3.4018        3.4021       0.798523       0.05235
   2     792.3        2.8087        0.0002        3.0564        3.0567       0.247943       0.06315
   1     891.5        0.0004        0.0461        0.0000        0.0461       0.045747       0.01721
   0    1013.0        0.0004        0.0415        0.0000        0.0415       0.041030       0.00033



 Wavenumbers:  3250. -  4000. cm-1, ATM      1
 LEVEL PRESSURE   UPWARD FLUX   DIFDOWN FLUX  DIRDOWN FLUX  DOWNWARD FLUX   NET FLUX    HEATING RATE
          mb          W/m2          W/m2          W/m2        W/m2          W/m2       degree/day
  51    .06700        0.1004        0.0000        9.1795        9.1795       9.079101       0.00000
  50    .07753        0.1004        0.0000        9.1747        9.1747       9.074258       3.88148
  49    .09103        0.1004        0.0000        9.1713        9.1713       9.070870       2.11747
  48    0.1069        0.1004        0.0000        9.1688        9.1688       9.068345       1.34402
  47    0.1255        0.1004        0.0000        9.1665        9.1665       9.066086       1.02422
  46    0.1487        0.1004        0.0000        9.1641        9.1641       9.063645       0.88991
  45    0.1794        0.1004        0.0000        9.1612        9.1612       9.060767       0.79008
  44    0.2165        0.1004        0.0000        9.1583        9.1583       9.057847       0.66430
  43    0.2613        0.1004        0.0000        9.1553        9.1553       9.054874       0.56041
  42    0.3336        0.1004        0.0000        9.1511        9.1511       9.050695       0.48723
  41    0.4307        0.1004        0.0000        9.1464        9.1464       9.045926       0.41459
  40    0.5894        0.1004        0.0000        9.1393        9.1394       9.038921       0.37255
  39     1.339        0.1004        0.0000        9.1127        9.1127       9.012307       0.29962
  38     1.782        0.1004        0.0000        9.1011        9.1011       9.000719       0.22062
  37     2.292        0.1004        0.0000        9.0901        9.0901       8.989652       0.18329
  36     2.964        0.1004        0.0000        9.0776        9.0776       8.977222       0.15603
  35     3.853        0.1004        0.0000        9.0629        9.0629       8.962432       0.14036
  34     5.035        0.1004        0.0000        9.0441        9.0441       8.943693       0.13386
  33     6.613        0.1004        0.0000        9.0191        9.0191       8.918692       0.13366
  32     8.786        0.1004        0.0000        8.9843        8.9843       8.883908       0.13509
  31     11.80        0.1004        0.0000        8.9327        8.9327       8.832292       0.14451
  30     15.07        0.1004        0.0000        8.8758        8.8759       8.775447       0.14676
  29     18.79        0.1004        0.0000        8.8110        8.8110       8.710620       0.14698
  28     23.16        0.1004        0.0000        8.7365        8.7366       8.636175       0.14395
  27     28.12        0.1004        0.0000        8.6554        8.6555       8.555062       0.13789
  26     33.73        0.1004        0.0000        8.5719        8.5719       8.471562       0.12554
  25     40.54        0.1004        0.0001        8.4812        8.4812       8.380838       0.11255
  24     48.69        0.1004        0.0001        8.3838        8.3839       8.283537       0.10069
  23     57.69        0.1004        0.0001        8.2861        8.2862       8.185801       0.09161
  22     68.43        0.1003        0.0001        8.1751        8.1751       8.074804       0.08726
  21     81.20        0.1003        0.0001        8.0457        8.0458       7.945446       0.08548
  20     96.49        0.1003        0.0001        7.8949        7.8951       7.794742       0.08318
  19     114.6        0.1003        0.0001        7.7162        7.7163       7.616032       0.08345
  18     136.5        0.1003        0.0002        7.5193        7.5195       7.419187       0.07569
  17     162.9        0.1002        0.0002        7.2913        7.2915       7.191293       0.07284
  16     196.4        0.1002        0.0002        6.9660        6.9662       6.866012       0.08188
  15     218.7        0.1002        0.0002        6.6648        6.6650       6.564807       0.11436
  14     243.0        0.1002        0.0002        6.2619        6.2622       6.161970       0.13972
  13     269.0        0.1003        0.0003        5.7576        5.7579       5.657568       0.16363
  12     297.5        0.1005        0.0003        5.1719        5.1722       5.071657       0.17377
  11     328.5        0.1009        0.0003        4.5757        4.5760       4.475116       0.16220
  10     361.9        0.1015        0.0002        3.9995        3.9998       3.898308       0.14594
   9     398.1        0.1025        0.0002        3.4655        3.4657       3.363213       0.12466
   8     437.6        0.1042        0.0002        2.9740        2.9743       2.870040       0.10544
   7     480.5        0.1070        0.0002        2.5307        2.5309       2.423875       0.08763
   6     533.0        0.1124        0.0002        2.0614        2.0616       1.949190       0.07636
   5     589.8        0.1222        0.0002        1.6150        1.6151       1.492914       0.06773
   4     651.6        0.1428        0.0001        1.1565        1.1566       1.013786       0.06552
   3     718.7        0.1883        0.0001        0.7390        0.7391       0.550843       0.05818
   2     792.3        0.3106        0.0001        0.3985        0.3985       0.087897       0.05309
   1     891.5        0.0000        0.0001        0.0000        0.0001       0.000062       0.00747
   0    1013.0        0.0000        0.0000        0.0000        0.0000       0.000006       0.00000



 Wavenumbers:  4000. -  4650. cm-1, ATM      1
 LEVEL PRESSURE   UPWARD FLUX   DIFDOWN FLUX  DIRDOWN FLUX  DOWNWARD FLUX   NET FLUX    HEATING RATE
          mb          W/m2          W/m2          W/m2        W/m2          W/m2       degree/day
  51    .06700        7.3093        0.0000       10.7795       10.7795       3.470217       0.00000
  50    .07753        7.3093        0.0000       10.7795       10.7795       3.470216       0.00080
  49    .09103        7.3093        0.0000       10.7795       10.7795       3.470215       0.00078
  48    0.1069        7.3093        0.0000       10.7795       10.7795       3.470213       0.00077
  47    0.1255        7.3093        0.0000       10.7795       10.7795       3.470212       0.00075
  46    0.1487        7.3093        0.0000       10.7795       10.7795       3.470210       0.00076
  45    0.1794        7.3093        0.0000       10.7795       10.7795       3.470207       0.00078
  44    0.2165        7.3093        0.0000       10.7795       10.7795       3.470203       0.00076
  43    0.2613        7.3093        0.0000       10.7795       10.7795       3.470199       0.00075
  42    0.3336        7.3093        0.0000       10.7795       10.7795       3.470193       0.00077
  41    0.4307        7.3093        0.0000       10.7795       10.7795       3.470184       0.00078
  40    0.5894        7.3093        0.0000       10.7795       10.7795       3.470169       0.00080
  39     1.339        7.3093        0.0000       10.7794       10.7794       3.470079       0.00101
  38     1.782        7.3093        0.0000       10.7793       10.7793       3.470009       0.00133
  37     2.292        7.3093        0.0000       10.7792       10.7792       3.469915       0.00156
  36     2.964        7.3093        0.0000       10.7791       10.7791       3.469774       0.00177
  35     3.853        7.3093        0.0000       10.7789       10.7789       3.469565       0.00198
  34     5.035        7.3093        0.0000       10.7786       10.7786       3.469257       0.00220
  33     6.613        7.3093        0.0000       10.7781       10.7781       3.468803       0.00243
  32     8.786        7.3093        0.0000       10.7774       10.7775       3.468133       0.00260
  31     11.80        7.3093        0.0001       10.7763       10.7764       3.467079       0.00295
  30     15.07        7.3093        0.0001       10.7751       10.7752       3.465842       0.00319
  29     18.79        7.3093        0.0001       10.7736       10.7737       3.464344       0.00340
  28     23.16        7.3094        0.0001       10.7717       10.7718       3.462482       0.00360
  27     28.12        7.3094        0.0001       10.7695       10.7696       3.460225       0.00384
  26     33.73        7.3094        0.0002       10.7667       10.7668       3.457438       0.00419
  25     40.54        7.3095        0.0002       10.7629       10.7631       3.453652       0.00470
  24     48.69        7.3096        0.0003       10.7579       10.7582       3.448598       0.00523
  23     57.69        7.3097        0.0003       10.7520       10.7523       3.442592       0.00563
  22     68.43        7.3099        0.0004       10.7446       10.7450       3.435046       0.00593
  21     81.20        7.3102        0.0004       10.7355       10.7359       3.425728       0.00616
  20     96.49        7.3106        0.0005       10.7245       10.7250       3.414351       0.00628
  19     114.6        7.3112        0.0006       10.7107       10.7113       3.400070       0.00667
  18     136.5        7.3121        0.0007       10.6942       10.6949       3.382792       0.00664
  17     162.9        7.3133        0.0008       10.6740       10.6748       3.361498       0.00681
  16     196.4        7.3154        0.0010       10.6464       10.6474       3.331922       0.00744
  15     218.7        7.3173        0.0011       10.6255       10.6266       3.309292       0.00859
  14     243.0        7.3199        0.0012       10.5980       10.5993       3.279353       0.01038
  13     269.0        7.3238        0.0014       10.5611       10.5624       3.238624       0.01321
  12     297.5        7.3295        0.0015       10.5119       10.5134       3.183942       0.01622
  11     328.5        7.3373        0.0017       10.4499       10.4515       3.114252       0.01895
  10     361.9        7.3475        0.0018       10.3702       10.3720       3.024516       0.02270
   9     398.1        7.3603        0.0020       10.2678       10.2698       2.909410       0.02682
   8     437.6        7.3769        0.0022       10.1390       10.1412       2.764228       0.03104
   7     480.5        7.3984        0.0023        9.9877        9.9900       2.591678       0.03389
   6     533.0        7.4318        0.0026        9.7937        9.7962       2.364464       0.03655
   5     589.8        7.4809        0.0028        9.5752        9.5780       2.097074       0.03969
   4     651.6        7.5618        0.0030        9.2958        9.2988       1.737031       0.04924
   3     718.7        7.7019        0.0032        8.9267        8.9300       1.228102       0.06396
   2     792.3        7.9773        0.0034        8.4542        8.4577       0.480409       0.08575
   1     891.5        0.0300        0.2172        0.0000        0.2172       0.187188       0.02495
   0    1013.0        0.0311        0.2082        0.0000        0.2082       0.177091       0.00070



 Wavenumbers:  4650. -  5150. cm-1, ATM      1
 LEVEL PRESSURE   UPWARD FLUX   DIFDOWN FLUX  DIRDOWN FLUX  DOWNWARD FLUX   NET FLUX    HEATING RATE
          mb          W/m2          W/m2          W/m2        W/m2          W/m2       degree/day
  51    .06700        5.2968        0.0000       10.2033       10.2033       4.906551       0.00000
  50    .07753        5.2968        0.0000       10.2031       10.2031       4.906315       0.18901
  49    .09103        5.2968        0.0000       10.2028       10.2028       4.906020       0.18428
  48    0.1069        5.2968        0.0000       10.2025       10.2025       4.905683       0.17931
  47    0.1255        5.2968        0.0000       10.2021       10.2021       4.905299       0.17426
  46    0.1487        5.2968        0.0000       10.2016       10.2016       4.904818       0.17536
  45    0.1794        5.2968        0.0000       10.2010       10.2010       4.904168       0.17850
  44    0.2165        5.2968        0.0000       10.2002       10.2002       4.903408       0.17277
  43    0.2613        5.2968        0.0000       10.1993       10.1993       4.902523       0.16690
  42    0.3336        5.2968        0.0000       10.1979       10.1979       4.901090       0.16702
  41    0.4307        5.2968        0.0000       10.1960       10.1960       4.899250       0.16003
  40    0.5894        5.2968        0.0000       10.1932       10.1932       4.896376       0.15283
  39     1.339        5.2968        0.0000       10.1816       10.1816       4.884783       0.13051
  38     1.782        5.2968        0.0000       10.1760       10.1760       4.879254       0.10527
  37     2.292        5.2968        0.0000       10.1706       10.1706       4.873796       0.09039
  36     2.964        5.2968        0.0000       10.1646       10.1647       4.867871       0.07438
  35     3.853        5.2968        0.0000       10.1584       10.1584       4.861654       0.05900
  34     5.035        5.2968        0.0000       10.1521       10.1521       4.855313       0.04530
  33     6.613        5.2968        0.0000       10.1456       10.1456       4.848848       0.03457
  32     8.786        5.2968        0.0001       10.1386       10.1386       4.841822       0.02729
  31     11.80        5.2968        0.0001       10.1295       10.1296       4.832753       0.02539
  30     15.07        5.2969        0.0001       10.1196       10.1197       4.822836       0.02560
  29     18.79        5.2969        0.0001       10.1076       10.1077       4.810774       0.02735
  28     23.16        5.2970        0.0002       10.0923       10.0924       4.795393       0.02974
  27     28.12        5.2972        0.0002       10.0731       10.0734       4.776193       0.03264
  26     33.73        5.2973        0.0002       10.0500       10.0503       4.752959       0.03493
  25     40.54        5.2976        0.0003       10.0201       10.0204       4.722857       0.03735
  24     48.69        5.2979        0.0004        9.9820        9.9823       4.684402       0.03979
  23     57.69        5.2984        0.0004        9.9384        9.9389       4.640501       0.04115
  22     68.43        5.2990        0.0005        9.8858        9.8863       4.587268       0.04185
  21     81.20        5.2999        0.0006        9.8234        9.8240       4.524183       0.04169
  20     96.49        5.3010        0.0007        9.7518        9.7525       4.451408       0.04017
  19     114.6        5.3027        0.0008        9.6719        9.6727       4.370040       0.03799
  18     136.5        5.3050        0.0010        9.5858        9.5868       4.281789       0.03393
  17     162.9        5.3081        0.0011        9.4940        9.4952       4.187043       0.03028
  16     196.4        5.3130        0.0014        9.3883        9.3897       4.076646       0.02779
  15     218.7        5.3168        0.0015        9.3229        9.3244       4.007623       0.02621
  14     243.0        5.3217        0.0017        9.2520        9.2537       3.931923       0.02626
  13     269.0        5.3283        0.0019        9.1717        9.1735       3.845205       0.02813
  12     297.5        5.3374        0.0020        9.0763        9.0783       3.740871       0.03094
  11     328.5        5.3493        0.0022        8.9650        8.9672       3.617868       0.03344
  10     361.9        5.3647        0.0024        8.8349        8.8373       3.472689       0.03673
   9     398.1        5.3846        0.0026        8.6820        8.6847       3.300078       0.04021
   8     437.6        5.4105        0.0029        8.5028        8.5057       3.095137       0.04382
   7     480.5        5.4443        0.0031        8.2948        8.2979       2.853546       0.04745
   6     533.0        5.4961        0.0033        8.0209        8.0242       2.528090       0.05236
   5     589.8        5.5685        0.0036        7.7063        7.7099       2.141422       0.05739
   4     651.6        5.6764        0.0038        7.3412        7.3451       1.668630       0.06466
   3     718.7        5.8419        0.0041        6.9387        6.9427       1.100838       0.07136
   2     792.3        6.1129        0.0043        6.5066        6.5109       0.397961       0.08061
   1     891.5        0.0067        0.1381        0.0000        0.1381       0.131434       0.02268
   0    1013.0        0.0070        0.1310        0.0000        0.1310       0.124034       0.00051



 Wavenumbers:  5150. -  6150. cm-1, ATM      1
 LEVEL PRESSURE   UPWARD FLUX   DIFDOWN FLUX  DIRDOWN FLUX  DOWNWARD FLUX   NET FLUX    HEATING RATE
          mb          W/m2          W/m2          W/m2        W/m2          W/m2       degree/day
  51    .06700       12.4841        0.0000       25.5798       25.5798      13.095694       0.00000
  50    .07753       12.4841        0.0000       25.5798       25.5798      13.095654       0.03164
  49    .09103       12.4841        0.0000       25.5797       25.5797      13.095603       0.03212
  48    0.1069       12.4841        0.0000       25.5797       25.5797      13.095541       0.03263
  47    0.1255       12.4841        0.0000       25.5796       25.5796      13.095468       0.03313
  46    0.1487       12.4841        0.0000       25.5795       25.5795      13.095373       0.03490
  45    0.1794       12.4841        0.0000       25.5794       25.5794      13.095237       0.03715
  44    0.2165       12.4841        0.0000       25.5792       25.5792      13.095072       0.03771
  43    0.2613       12.4841        0.0000       25.5790       25.5790      13.094868       0.03828
  42    0.3336       12.4841        0.0000       25.5786       25.5786      13.094521       0.04045
  41    0.4307       12.4841        0.0000       25.5782       25.5782      13.094050       0.04099
  40    0.5894       12.4841        0.0000       25.5774       25.5774      13.093260       0.04200
  39     1.339       12.4841        0.0000       25.5735       25.5736      13.089454       0.04285
  38     1.782       12.4841        0.0001       25.5713       25.5714      13.087237       0.04220
  37     2.292       12.4841        0.0001       25.5688       25.5689      13.084728       0.04157
  36     2.964       12.4841        0.0001       25.5656       25.5657      13.081538       0.04004
  35     3.853       12.4841        0.0001       25.5615       25.5616      13.077482       0.03849
  34     5.035       12.4841        0.0002       25.5562       25.5564      13.072257       0.03733
  33     6.613       12.4842        0.0002       25.5494       25.5496      13.065476       0.03625
  32     8.786       12.4842        0.0003       25.5406       25.5409      13.056684       0.03415
  31     11.80       12.4843        0.0004       25.5287       25.5291      13.044784       0.03332
  30     15.07       12.4843        0.0005       25.5167       25.5172      13.032840       0.03084
  29     18.79       12.4844        0.0006       25.5042       25.5048      13.020341       0.02834
  28     23.16       12.4846        0.0008       25.4907       25.4914      13.006862       0.02606
  27     28.12       12.4847        0.0009       25.4764       25.4774      12.992631       0.02419
  26     33.73       12.4850        0.0011       25.4620       25.4631      12.978178       0.02173
  25     40.54       12.4853        0.0013       25.4463       25.4476      12.962326       0.01967
  24     48.69       12.4857        0.0016       25.4294       25.4310      12.945285       0.01763
  23     57.69       12.4862        0.0019       25.4126       25.4145      12.928300       0.01592
  22     68.43       12.4869        0.0022       25.3944       25.3967      12.909788       0.01455
  21     81.20       12.4877        0.0027       25.3744       25.3771      12.889343       0.01351
  20     96.49       12.4888        0.0032       25.3519       25.3551      12.866298       0.01272
  19     114.6       12.4901        0.0038       25.3262       25.3299      12.839808       0.01237
  18     136.5       12.4917        0.0045       25.2962       25.3007      12.808917       0.01188
  17     162.9       12.4938        0.0053       25.2521       25.2574      12.763649       0.01447
  16     196.4       12.4965        0.0064       25.1593       25.1657      12.669160       0.02378
  15     218.7       12.4985        0.0071       25.0159       25.0230      12.524498       0.05492
  14     243.0       12.5010        0.0078       24.7089       24.7167      12.215751       0.10708
  13     269.0       12.5041        0.0085       24.1619       24.1704      11.666265       0.17825
  12     297.5       12.5084        0.0092       23.4544       23.4636      10.955245       0.21088
  11     328.5       12.5139        0.0100       22.7355       22.7454      10.231484       0.19679
  10     361.9       12.5213        0.0107       21.9224       21.9331       9.411800       0.20739
   9     398.1       12.5313        0.0114       20.9939       21.0053       8.474052       0.21847
   8     437.6       12.5452        0.0121       19.9833       19.9954       7.450279       0.21889
   7     480.5       12.5645        0.0128       18.9483       18.9611       6.396611       0.20694
   6     533.0       12.5975        0.0136       17.7796       17.7932       5.195726       0.19318
   5     589.8       12.6512        0.0144       16.6726       16.6870       4.035750       0.17218
   4     651.6       12.7504        0.0152       15.6343       15.6495       2.899165       0.15543
   3     718.7       12.9342        0.0161       14.7738       14.7899       1.855770       0.13113
   2     792.3       13.3120        0.0171       14.0291       14.0462       0.734209       0.12863
   1     891.5        0.0693        0.4074        0.0000        0.4074       0.338128       0.03370
   0    1013.0        0.0707        0.3976        0.0000        0.3976       0.326871       0.00078



 Wavenumbers:  6150. -  7700. cm-1, ATM      1
 LEVEL PRESSURE   UPWARD FLUX   DIFDOWN FLUX  DIRDOWN FLUX  DOWNWARD FLUX   NET FLUX    HEATING RATE
          mb          W/m2          W/m2          W/m2        W/m2          W/m2       degree/day
  51    .06700       20.2178        0.0000       47.3109       47.3109      27.093064       0.00000
  50    .07753       20.2178        0.0000       47.3108       47.3108      27.093007       0.04553
  49    .09103       20.2178        0.0000       47.3107       47.3107      27.092934       0.04583
  48    0.1069       20.2178        0.0000       47.3106       47.3106      27.092847       0.04614
  47    0.1255       20.2178        0.0000       47.3105       47.3105      27.092745       0.04645
  46    0.1487       20.2178        0.0000       47.3104       47.3104      27.092612       0.04852
  45    0.1794       20.2178        0.0000       47.3102       47.3102      27.092425       0.05127
  44    0.2165       20.2178        0.0000       47.3100       47.3100      27.092198       0.05167
  43    0.2613       20.2178        0.0000       47.3097       47.3097      27.091921       0.05210
  42    0.3336       20.2178        0.0000       47.3092       47.3092      27.091452       0.05471
  41    0.4307       20.2178        0.0000       47.3085       47.3086      27.090817       0.05521
  40    0.5894       20.2178        0.0001       47.3074       47.3075      27.089758       0.05634
  39     1.339       20.2177        0.0002       47.3022       47.3024      27.084665       0.05733
  38     1.782       20.2177        0.0002       47.2991       47.2994      27.081695       0.05655
  37     2.292       20.2176        0.0003       47.2956       47.2960      27.078319       0.05591
  36     2.964       20.2176        0.0004       47.2912       47.2916      27.074001       0.05421
  35     3.853       20.2175        0.0005       47.2855       47.2860      27.068466       0.05252
  34     5.035       20.2174        0.0007       47.2780       47.2787      27.061286       0.05130
  33     6.613       20.2173        0.0009       47.2683       47.2692      27.051898       0.05019
  32     8.786       20.2172        0.0012       47.2556       47.2568      27.039598       0.04777
  31     11.80       20.2169        0.0016       47.2380       47.2396      27.022694       0.04733
  30     15.07       20.2167        0.0020       47.2201       47.2221      27.005405       0.04464
  29     18.79       20.2164        0.0025       47.2008       47.2033      26.986924       0.04190
  28     23.16       20.2161        0.0031       47.1795       47.1826      26.966531       0.03943
  27     28.12       20.2158        0.0038       47.1565       47.1603      26.944535       0.03739
  26     33.73       20.2153        0.0046       47.1324       47.1370      26.921610       0.03447
  25     40.54       20.2149        0.0055       47.1054       47.1108      26.895968       0.03181
  24     48.69       20.2143        0.0066       47.0754       47.0820      26.867709       0.02924
  23     57.69       20.2136        0.0078       47.0449       47.0527      26.839078       0.02684
  22     68.43       20.2129        0.0092       47.0110       47.0202      26.807330       0.02496
  21     81.20       20.2120        0.0109       46.9729       46.9838      26.771822       0.02346
  20     96.49       20.2109        0.0130       46.9294       46.9424      26.731460       0.02228
  19     114.6       20.2096        0.0154       46.8790       46.8944      26.684796       0.02179
  18     136.5       20.2081        0.0183       46.8200       46.8383      26.630129       0.02102
  17     162.9       20.2064        0.0217       46.7361       46.7578      26.551428       0.02516
  16     196.4       20.2044        0.0262       46.5703       46.5964      26.392029       0.04012
  15     218.7       20.2033        0.0290       46.3473       46.3763      26.173013       0.08315
  14     243.0       20.2026        0.0320       45.9299       45.9619      25.759256       0.14350
  13     269.0       20.2030        0.0351       45.1708       45.2059      25.002845       0.24538
  12     297.5       20.2055        0.0381       44.0115       44.0495      23.844081       0.34368
  11     328.5       20.2107        0.0411       42.7242       42.7654      22.554655       0.35059
  10     361.9       20.2202        0.0443       41.3539       41.3982      21.178027       0.34830
   9     398.1       20.2362        0.0474       39.7953       39.8426      19.606387       0.36616
   8     437.6       20.2630        0.0503       37.9948       38.0451      17.782084       0.39005
   7     480.5       20.3054        0.0531       36.0647       36.1178      15.812398       0.38684
   6     533.0       20.3850        0.0562       33.7773       33.8335      13.448474       0.38028
   5     589.8       20.5238        0.0591       31.4082       31.4673      10.943497       0.37182
   4     651.6       20.7929        0.0615       28.8834       28.9449       8.151995       0.38175
   3     718.7       21.3152        0.0637       26.4104       26.4740       5.158791       0.37616
   2     792.3       22.4651        0.0655       24.0056       24.0711       1.605967       0.40747
   1     891.5        0.1374        0.6285        0.0000        0.6285       0.491033       0.09488
   0    1013.0        0.1421        0.6028        0.0000        0.6028       0.460728       0.00210



 Wavenumbers:  7700. -  8050. cm-1, ATM      1
 LEVEL PRESSURE   UPWARD FLUX   DIFDOWN FLUX  DIRDOWN FLUX  DOWNWARD FLUX   NET FLUX    HEATING RATE
          mb          W/m2          W/m2          W/m2        W/m2          W/m2       degree/day
  51    .06700        9.0784        0.0000       11.1810       11.1810       2.102603       0.00000
  50    .07753        9.0784        0.0000       11.1809       11.1809       2.102579       0.01943
  49    .09103        9.0784        0.0000       11.1809       11.1809       2.102548       0.01905
  48    0.1069        9.0784        0.0000       11.1809       11.1809       2.102513       0.01865
  47    0.1255        9.0784        0.0000       11.1809       11.1809       2.102473       0.01825
  46    0.1487        9.0784        0.0000       11.1808       11.1808       2.102422       0.01852
  45    0.1794        9.0784        0.0000       11.1808       11.1808       2.102353       0.01905
  44    0.2165        9.0784        0.0000       11.1807       11.1807       2.102271       0.01869
  43    0.2613        9.0785        0.0000       11.1806       11.1806       2.102173       0.01834
  42    0.3336        9.0785        0.0000       11.1805       11.1805       2.102013       0.01877
  41    0.4307        9.0786        0.0000       11.1803       11.1804       2.101799       0.01856
  40    0.5894        9.0787        0.0000       11.1801       11.1801       2.101450       0.01854
  39     1.339        9.0791        0.0001       11.1788       11.1789       2.099801       0.01857
  38     1.782        9.0793        0.0001       11.1781       11.1782       2.098832       0.01845
  37     2.292        9.0796        0.0001       11.1772       11.1773       2.097710       0.01858
  36     2.964        9.0800        0.0002       11.1761       11.1763       2.096237       0.01849
  35     3.853        9.0805        0.0002       11.1746       11.1748       2.094291       0.01847
  34     5.035        9.0812        0.0003       11.1726       11.1729       2.091705       0.01847
  33     6.613        9.0821        0.0004       11.1700       11.1704       2.088252       0.01846
  32     8.786        9.0833        0.0005       11.1664       11.1669       2.083598       0.01807
  31     11.80        9.0851        0.0007       11.1613       11.1620       2.076943       0.01863
  30     15.07        9.0870        0.0009       11.1558       11.1568       2.069801       0.01844
  29     18.79        9.0891        0.0012       11.1497       11.1509       2.061738       0.01828
  28     23.16        9.0916        0.0015       11.1425       11.1440       2.052327       0.01820
  27     28.12        9.0945        0.0018       11.1343       11.1361       2.041576       0.01828
  26     33.73        9.0977        0.0021       11.1252       11.1273       2.029560       0.01807
  25     40.54        9.1017        0.0025       11.1142       11.1167       2.015065       0.01798
  24     48.69        9.1064        0.0030       11.1010       11.1041       1.997625       0.01805
  23     57.69        9.1117        0.0036       11.0866       11.0902       1.978514       0.01791
  22     68.43        9.1180        0.0043       11.0695       11.0738       1.955815       0.01784
  21     81.20        9.1256        0.0051       11.0494       11.0544       1.928863       0.01781
  20     96.49        9.1347        0.0060       11.0255       11.0316       1.896877       0.01765
  19     114.6        9.1456        0.0071       10.9975       11.0047       1.859078       0.01765
  18     136.5        9.1587        0.0085       10.9648       10.9732       1.814518       0.01713
  17     162.9        9.1746        0.0101       10.9263       10.9364       1.761775       0.01686
  16     196.4        9.1955        0.0121       10.8773       10.8894       1.693850       0.01710
  15     218.7        9.2095        0.0135       10.8455       10.8590       1.649474       0.01685
  14     243.0        9.2250        0.0149       10.8114       10.8264       1.601374       0.01668
  13     269.0        9.2421        0.0165       10.7749       10.7914       1.549314       0.01689
  12     297.5        9.2610        0.0182       10.7357       10.7539       1.492974       0.01671
  11     328.5        9.2819        0.0201       10.6937       10.7138       1.431930       0.01660
  10     361.9        9.3051        0.0221       10.6489       10.6709       1.365841       0.01672
   9     398.1        9.3309        0.0242       10.6008       10.6250       1.294036       0.01673
   8     437.6        9.3599        0.0265       10.5491       10.5756       1.215680       0.01675
   7     480.5        9.3924        0.0290       10.4934       10.5224       1.129977       0.01683
   6     533.0        9.4349        0.0320       10.4243       10.4563       1.021420       0.01746
   5     589.8        9.4844        0.0353       10.3479       10.3832       0.898795       0.01820
   4     651.6        9.5438        0.0388       10.2613       10.3001       0.756289       0.01949
   3     718.7        9.6168        0.0425       10.1618       10.2042       0.587457       0.02122
   2     792.3        9.7098        0.0464       10.0439       10.0903       0.380517       0.02373
   1     891.5        0.3271        0.5857        0.0000        0.5857       0.258588       0.01038
   0    1013.0        0.3334        0.5742        0.0000        0.5742       0.240758       0.00124



 Wavenumbers:  8050. - 12850. cm-1, ATM      1
 LEVEL PRESSURE   UPWARD FLUX   DIFDOWN FLUX  DIRDOWN FLUX  DOWNWARD FLUX   NET FLUX    HEATING RATE
          mb          W/m2          W/m2          W/m2        W/m2          W/m2       degree/day
  51    .06700      119.8416        0.0000      156.5418      156.5418      36.700184       0.00000
  50    .07753      119.8416        0.0000      156.5417      156.5417      36.700184       0.00000
  49    .09103      119.8415        0.0001      156.5417      156.5417      36.700184       0.00000
  48    0.1069      119.8415        0.0001      156.5416      156.5417      36.700184       0.00000
  47    0.1255      119.8415        0.0002      156.5415      156.5417      36.700184      -0.00000
  46    0.1487      119.8415        0.0003      156.5414      156.5417      36.700184       0.00000
  45    0.1794      119.8415        0.0003      156.5413      156.5416      36.700184       0.00000
  44    0.2165      119.8414        0.0005      156.5412      156.5416      36.700184      -0.00000
  43    0.2613      119.8414        0.0006      156.5410      156.5416      36.700184      -0.00000
  42    0.3336      119.8413        0.0008      156.5407      156.5415      36.700184       0.00000
  41    0.4307      119.8412        0.0011      156.5403      156.5414      36.700184       0.00000
  40    0.5894      119.8411        0.0016      156.5397      156.5413      36.700184       0.00000
  39     1.339      119.8404        0.0039      156.5367      156.5406      36.700184      -0.00000
  38     1.782      119.8400        0.0052      156.5350      156.5402      36.700184      -0.00000
  37     2.292      119.8396        0.0068      156.5330      156.5398      36.700184       0.00000
  36     2.964      119.8390        0.0088      156.5303      156.5392      36.700184       0.00000
  35     3.853      119.8382        0.0116      156.5268      156.5384      36.700184       0.00000
  34     5.035      119.8372        0.0151      156.5222      156.5374      36.700184      -0.00000
  33     6.613      119.8358        0.0200      156.5160      156.5360      36.700184      -0.00000
  32     8.786      119.8339        0.0264      156.5076      156.5341      36.700184       0.00000
  31     11.80      119.8312        0.0357      156.4957      156.5314      36.700184       0.00000
  30     15.07      119.8283        0.0457      156.4828      156.5285      36.700184       0.00000
  29     18.79      119.8250        0.0570      156.4682      156.5252      36.700184      -0.00000
  28     23.16      119.8212        0.0702      156.4512      156.5214      36.700184      -0.00000
  27     28.12      119.8168        0.0853      156.4317      156.5170      36.700184       0.00000
  26     33.73      119.8119        0.1022      156.4099      156.5121      36.700184       0.00000
  25     40.54      119.8059        0.1227      156.3834      156.5061      36.700184       0.00000
  24     48.69      119.7988        0.1474      156.3515      156.4989      36.700184      -0.00000
  23     57.69      119.7909        0.1746      156.3164      156.4910      36.700184       0.00000
  22     68.43      119.7814        0.2071      156.2746      156.4816      36.700184      -0.00000
  21     81.20      119.7702        0.2458      156.2246      156.4704      36.700184       0.00000
  20     96.49      119.7568        0.2920      156.1649      156.4569      36.700184       0.00000
  19     114.6      119.7411        0.3470      156.0879      156.4349      36.693869       0.00295
  18     136.5      119.7224        0.4123      155.9962      156.4085      36.686042       0.00301
  17     162.9      119.7002        0.4903      155.8831      156.3733      36.673077       0.00414
  16     196.4      119.6716        0.5916      155.7199      156.3116      36.639946       0.00834
  15     218.7      119.6534        0.6583      155.5733      156.2316      36.578207       0.02344
  14     243.0      119.6351        0.7308      155.3367      156.0674      36.432343       0.05059
  13     269.0      119.6189        0.8092      154.9514      155.7606      36.141679       0.09429
  12     297.5      119.6085        0.8936      154.3896      155.2833      35.674799       0.13847
  11     328.5      119.6061        0.9847      153.7151      154.6998      35.093739       0.15799
  10     361.9      119.6168        1.0825      152.9087      153.9913      34.374532       0.18197
   9     398.1      119.6486        1.1872      151.8986      153.0858      33.437196       0.21838
   8     437.6      119.7158        1.2986      150.6031      151.9018      32.185974       0.26752
   7     480.5      119.8354        1.4165      149.0014      150.4179      30.582479       0.31492
   6     533.0      120.0734        1.5593      146.7375      148.2968      28.223455       0.37949
   5     589.8      120.4995        1.7090      143.8730      145.5820      25.082406       0.46623
   4     651.6      121.3255        1.8627      140.0955      141.9582      20.632727       0.60851
   3     718.7      122.8741        2.0187      135.5278      137.5465      14.672347       0.74905
   2     792.3      125.9896        2.1731      130.0690      132.2421       6.252468       0.96567
   1     891.5       12.7676       15.4597        0.0000       15.4597       2.692126       0.30297
   0    1013.0       12.9709       15.1848        0.0000       15.1848       2.213951       0.03320



 Wavenumbers: 12850. - 16000. cm-1, ATM      1
 LEVEL PRESSURE   UPWARD FLUX   DIFDOWN FLUX  DIRDOWN FLUX  DOWNWARD FLUX   NET FLUX    HEATING RATE
          mb          W/m2          W/m2          W/m2        W/m2          W/m2       degree/day
  51    .06700       84.3572        0.0000       98.0872       98.0872      13.730053       0.00000
  50    .07753       84.3572        0.0001       98.0864       98.0864      13.729259       0.63637
  49    .09103       84.3572        0.0002       98.0853       98.0855      13.728262       0.62354
  48    0.1069       84.3572        0.0003       98.0841       98.0843      13.727115       0.61052
  47    0.1255       84.3572        0.0004       98.0826       98.0830      13.725796       0.59782
  46    0.1487       84.3573        0.0005       98.0809       98.0814      13.724131       0.60713
  45    0.1794       84.3573        0.0007       98.0784       98.0792      13.721863       0.62255
  44    0.2165       84.3574        0.0010       98.0756       98.0766      13.719193       0.60743
  43    0.2613       84.3576        0.0013       98.0723       98.0736      13.716049       0.59260
  42    0.3336       84.3579        0.0018       98.0670       98.0688      13.710910       0.59910
  41    0.4307       84.3583        0.0024       98.0602       98.0626      13.704254       0.57872
  40    0.5894       84.3593        0.0034       98.0496       98.0530      13.693741       0.55911
  39     1.339       84.3670        0.0084       98.0043       98.0127      13.645683       0.54104
  38     1.782       84.3740        0.0113       97.9793       97.9906      13.616561       0.55444
  37     2.292       84.3843        0.0146       97.9498       97.9644      13.580104       0.60381
  36     2.964       84.4013        0.0190       97.9088       97.9279      13.526572       0.67200
  35     3.853       84.4286        0.0249       97.8503       97.8752      13.446639       0.75858
  34     5.035       84.4695        0.0326       97.7680       97.8006      13.331014       0.82597
  33     6.613       84.5267        0.0429       97.6562       97.6991      13.172321       0.84837
  32     8.786       84.6013        0.0568       97.5107       97.5674      12.966168       0.80062
  31     11.80       84.6984        0.0766       97.3179       97.3944      12.696034       0.75629
  30     15.07       84.7917        0.0979       97.1283       97.2262      12.434478       0.67529
  29     18.79       84.8872        0.1219       96.9300       97.0519      12.164693       0.61169
  28     23.16       84.9873        0.1499       96.7166       96.8665      11.879152       0.55214
  27     28.12       85.0885        0.1820       96.4935       96.6754      11.586957       0.49671
  26     33.73       85.1826        0.2178       96.2731       96.4909      11.308307       0.41896
  25     40.54       85.2742        0.2611       96.0408       96.3019      11.027714       0.34811
  24     48.69       85.3632        0.3134       95.7946       96.1080      10.744757       0.29282
  23     57.69       85.4403        0.3708       95.5573       95.9281      10.487830       0.24083
  22     68.43       85.5096        0.4392       95.3106       95.7498      10.240238       0.19464
  21     81.20       85.5615        0.5209       95.0643       95.5852      10.023704       0.14308
  20     96.49       85.5950        0.6183       94.8153       95.4336       9.838549       0.10219
  19     114.6       85.6316        0.7350       94.5411       95.2760       9.644459       0.09063
  18     136.5       85.6632        0.8733       94.2320       95.1053       9.442145       0.07779
  17     162.9       85.6903        1.0380       93.8753       94.9134       9.223057       0.07003
  16     196.4       85.7028        1.2517       93.4347       94.6864       8.983598       0.06027
  15     218.7       85.7031        1.3920       93.1513       94.5433       8.840211       0.05444
  14     243.0       85.7005        1.5446       92.8439       94.3885       8.688005       0.05279
  13     269.0       85.6952        1.7099       92.5111       94.2210       8.525771       0.05263
  12     297.5       85.6883        1.8885       92.1495       94.0380       8.349664       0.05223
  11     328.5       85.6824        2.0815       91.7554       93.8369       8.154573       0.05304
  10     361.9       85.6789        2.2893       91.3262       93.6155       7.936659       0.05513
   9     398.1       85.6803        2.5129       90.8575       93.3704       7.690127       0.05744
   8     437.6       85.6912        2.7529       90.3418       93.0947       7.403496       0.06128
   7     480.5       85.7161        3.0098       89.7728       92.7826       7.066574       0.06617
   6     533.0       85.7718        3.3257       89.0428       92.3686       6.596787       0.07557
   5     589.8       85.8773        3.6650       88.2038       91.8689       5.991514       0.08984
   4     651.6       86.0823        4.0272       87.1979       91.2252       5.142844       0.11606
   3     718.7       86.4274        4.4110       86.0161       90.4271       3.999736       0.14366
   2     792.3       87.0305        4.8124       84.5970       89.4094       2.378887       0.18589
   1     891.5       28.6187       30.0330        0.0000       30.0330       1.414363       0.08208
   0    1013.0       28.8060       29.8199        0.0000       29.8199       1.013877       0.02781



 Wavenumbers: 16000. - 22650. cm-1, ATM      1
 LEVEL PRESSURE   UPWARD FLUX   DIFDOWN FLUX  DIRDOWN FLUX  DOWNWARD FLUX   NET FLUX    HEATING RATE
          mb          W/m2          W/m2          W/m2        W/m2          W/m2       degree/day
  51    .06700      141.5149        0.0000      156.3892      156.3892      14.874390       0.00000
  50    .07753      141.5148        0.0004      156.3887      156.3891      14.874242       0.11869
  49    .09103      141.5148        0.0009      156.3879      156.3888      14.874027       0.13462
  48    0.1069      141.5148        0.0015      156.3871      156.3885      14.873738       0.15351
  47    0.1255      141.5148        0.0021      156.3861      156.3882      14.873352       0.17499
  46    0.1487      141.5149        0.0030      156.3847      156.3877      14.872783       0.20736
  45    0.1794      141.5150        0.0041      156.3828      156.3869      14.871894       0.24415
  44    0.2165      141.5152        0.0054      156.3805      156.3859      14.870688       0.27439
  43    0.2613      141.5156        0.0070      156.3776      156.3847      14.869051       0.30848
  42    0.3336      141.5164        0.0097      156.3726      156.3823      14.865940       0.36277
  41    0.4307      141.5176        0.0132      156.3657      156.3789      14.861250       0.40779
  40    0.5894      141.5203        0.0189      156.3537      156.3726      14.852305       0.47567
  39     1.339      141.5431        0.0459      156.2834      156.3293      14.786219       0.74400
  38     1.782      141.5642        0.0618      156.2324      156.2941      14.729922       1.07180
  37     2.292      141.5958        0.0801      156.1641      156.2442      14.648432       1.34970
  36     2.964      141.6483        0.1042      156.0605      156.1647      14.516416       1.65720
  35     3.853      141.7331        0.1360      155.9041      156.0401      14.306938       1.98799
  34     5.035      141.8612        0.1782      155.6774      155.8556      13.994411       2.23256
  33     6.613      142.0401        0.2346      155.3656      155.6002      13.560086       2.32190
  32     8.786      142.2731        0.3104      154.9577      155.2680      12.994923       2.19489
  31     11.80      142.5764        0.4187      154.4153      154.8339      12.257520       2.06450
  30     15.07      142.8670        0.5348      153.8804      154.4152      11.548150       1.83146
  29     18.79      143.1637        0.6657      153.3191      153.9848      10.821097       1.64845
  28     23.16      143.4739        0.8185      152.7126      153.5310      10.057138       1.47725
  27     28.12      143.7860        0.9929      152.0755      153.0684       9.282340       1.31710
  26     33.73      144.0742        1.1879      151.4409      152.6288       8.554559       1.09424
  25     40.54      144.3517        1.4232      150.7637      152.1869       7.835234       0.89240
  24     48.69      144.6174        1.7067      150.0338      151.7405       7.123077       0.73697
  23     57.69      144.8429        2.0177      149.3151      151.3328       6.489885       0.59352
  22     68.43      145.0398        2.3877      148.5476      150.9353       5.895474       0.46729
  21     81.20      145.1761        2.8282      147.7517      150.5799       5.403747       0.32493
  20     96.49      145.2474        3.3526      146.9127      150.2653       5.017859       0.21298
  19     114.6      145.2850        3.9735      145.9763      149.9498       4.664808       0.16485
  18     136.5      145.2979        4.7066      144.9088      149.6154       4.317492       0.13355
  17     162.9      145.2845        5.5756      143.6785      149.2541       3.969576       0.11121
  16     196.4      145.2051        6.6967      142.1651      148.8618       3.656653       0.07877
  15     218.7      145.1303        7.4294      141.2033      148.6328       3.502480       0.05853
  14     243.0      145.0386        8.2225      140.1753      148.3978       3.359259       0.04967
  13     269.0      144.9283        9.0780      139.0797      148.1577       3.229377       0.04213
  12     297.5      144.7991        9.9981      137.9141      147.9122       3.113173       0.03446
  11     328.5      144.6548       10.9872      136.6676      147.6547       2.999952       0.03078
  10     361.9      144.4953       12.0460      135.3392      147.3852       2.889816       0.02787
   9     398.1      144.3203       13.1786      133.9235      147.1021       2.781799       0.02517
   8     437.6      144.1308       14.3871      132.4163      146.8034       2.672639       0.02334
   7     480.5      143.9264       15.6737      130.8147      146.4884       2.561931       0.02174
   6     533.0      143.6757       17.2451      128.8599      146.1050       2.429278       0.02134
   5     589.8      143.4106       18.9241      126.7679      145.6920       2.281395       0.02195
   4     651.6      143.1388       20.7123      124.5274      145.2397       2.100960       0.02467
   3     718.7      142.8676       22.6114      122.1285      144.7399       1.872260       0.02874
   2     792.3      142.6167       24.6193      119.5548      144.1742       1.557479       0.03610
   1     891.5       87.6044       88.8462        0.0000       88.8462       1.241798       0.02686
   0    1013.0       87.7273       88.6941        0.0000       88.6941       0.966765       0.01910



 Wavenumbers: 22650. - 29000. cm-1, ATM      1
 LEVEL PRESSURE   UPWARD FLUX   DIFDOWN FLUX  DIRDOWN FLUX  DOWNWARD FLUX   NET FLUX    HEATING RATE
          mb          W/m2          W/m2          W/m2        W/m2          W/m2       degree/day
  51    .06700       58.7240        0.0000       59.0156       59.0156       0.291586       0.00000
  50    .07753       58.7239        0.0005       59.0151       59.0155       0.291586      -0.00000
  49    .09103       58.7238        0.0010       59.0144       59.0154       0.291586       0.00000
  48    0.1069       58.7237        0.0017       59.0136       59.0153       0.291586       0.00000
  47    0.1255       58.7235        0.0025       59.0127       59.0151       0.291586      -0.00000
  46    0.1487       58.7234        0.0035       59.0115       59.0149       0.291586       0.00000
  45    0.1794       58.7231        0.0048       59.0099       59.0147       0.291586      -0.00000
  44    0.2165       58.7228        0.0063       59.0080       59.0144       0.291586       0.00000
  43    0.2613       58.7224        0.0082       59.0058       59.0140       0.291586      -0.00000
  42    0.3336       58.7219        0.0113       59.0022       59.0134       0.291586       0.00000
  41    0.4307       58.7211        0.0154       58.9973       59.0127       0.291586       0.00000
  40    0.5894       58.7198        0.0220       58.9894       59.0114       0.291586       0.00000
  39     1.339       58.7137        0.0535       58.9518       59.0053       0.291586      -0.00000
  38     1.782       58.7102        0.0721       58.9297       59.0018       0.291586       0.00000
  37     2.292       58.7061        0.0935       58.9042       58.9976       0.291586       0.00000
  36     2.964       58.7007        0.1216       58.8706       58.9922       0.291586      -0.00000
  35     3.853       58.6935        0.1587       58.8264       58.9851       0.291586       0.00000
  34     5.035       58.6840        0.2080       58.7676       58.9756       0.291586       0.00000
  33     6.613       58.6714        0.2739       58.6891       58.9630       0.291586      -0.00000
  32     8.786       58.6544        0.3625       58.5834       58.9459       0.291586       0.00000
  31     11.80       58.6300        0.4892       58.4324       58.9216       0.291586       0.00000
  30     15.07       58.6039        0.6249       58.2706       58.8955       0.291586       0.00000
  29     18.79       58.5745        0.7779       58.0882       58.8661       0.291586      -0.00000
  28     23.16       58.5403        0.9562       57.8757       58.8318       0.291586      -0.00000
  27     28.12       58.5012        1.1594       57.6333       58.7928       0.291586       0.00000
  26     33.73       58.4576        1.3861       57.3631       58.7492       0.291586       0.00000
  25     40.54       58.4052        1.6589       57.0379       58.6968       0.291586      -0.00000
  24     48.69       58.3423        1.9860       56.6479       58.6339       0.291586       0.00000
  23     57.69       58.2736        2.3431       56.2221       58.5652       0.291586       0.00000
  22     68.43       58.1924        2.7654       55.7186       58.4840       0.291586      -0.00000
  21     81.20       58.0965        3.2642       55.1239       58.3881       0.291586       0.00000
  20     96.49       57.9834        3.8522       54.4228       58.2750       0.291586       0.00000
  19     114.6       57.8508        4.5414       53.6010       58.1423       0.291586      -0.00000
  18     136.5       57.6959        5.3458       52.6418       57.9875       0.291586       0.00000
  17     162.9       57.5149        6.2862       51.5203       57.8065       0.291586       0.00000
  16     196.4       57.2855        7.4776       50.0994       57.5770       0.291586       0.00000
  15     218.7       57.1379        8.2433       49.1863       57.4295       0.291586      -0.00000
  14     243.0       56.9804        9.0607       48.2113       57.2720       0.291586      -0.00000
  13     269.0       56.8129        9.9296       47.1749       57.1045       0.291586       0.00000
  12     297.5       56.6356       10.8489       46.0783       56.9272       0.291586      -0.00000
  11     328.5       56.4482       11.8202       44.9195       56.7398       0.291586      -0.00000
  10     361.9       56.2512       12.8409       43.7018       56.5427       0.291586       0.00000
   9     398.1       56.0445       13.9110       42.4250       56.3360       0.291586      -0.00000
   8     437.6       55.8285       15.0285       41.0916       56.1201       0.291586       0.00000
   7     480.5       55.6037       16.1908       39.7045       55.8953       0.291586      -0.00000
   6     533.0       55.3361       17.5735       38.0543       55.6277       0.291586       0.00000
   5     589.8       55.0584       19.0069       36.3431       55.3500       0.291586       0.00000
   4     651.6       54.7720       20.4840       34.5795       55.0636       0.291586       0.00000
   3     718.7       54.4778       21.9991       32.7702       54.7694       0.291586       0.00000
   2     792.3       54.1775       23.5435       30.9256       54.4691       0.291586      -0.00000
   1     891.5       41.6638       41.9490        0.0000       41.9490       0.285185       0.00054
   0    1013.0       41.6538       41.9390        0.0000       41.9390       0.285185       0.00000



 Wavenumbers: 29000. - 38000. cm-1, ATM      1
 LEVEL PRESSURE   UPWARD FLUX   DIFDOWN FLUX  DIRDOWN FLUX  DOWNWARD FLUX   NET FLUX    HEATING RATE
          mb          W/m2          W/m2          W/m2        W/m2          W/m2       degree/day
  51    .06700        8.7919        0.0000       20.8114       20.8114      12.019422       0.00000
  50    .07753        8.7918        0.0003       20.8070       20.8074      12.015615       3.05162
  49    .09103        8.7915        0.0007       20.8009       20.8016      12.010077       3.46093
  48    0.1069        8.7913        0.0012       20.7928       20.7939      12.002667       3.94438
  47    0.1255        8.7910        0.0017       20.7820       20.7837      11.992763       4.49044
  46    0.1487        8.7906        0.0024       20.7665       20.7688      11.978199       5.30856
  45    0.1794        8.7902        0.0033       20.7424       20.7457      11.955534       6.22218
  44    0.2165        8.7897        0.0044       20.7103       20.7147      11.925010       6.94357
  43    0.2613        8.7891        0.0056       20.6675       20.6731      11.884014       7.72751
  42    0.3336        8.7882        0.0077       20.5880       20.5957      11.807452       8.92648
  41    0.4307        8.7871        0.0104       20.4722       20.4826      11.695496       9.73428
  40    0.5894        8.7856        0.0147       20.2637       20.2784      11.492807      10.77877
  39     1.339        8.7822        0.0332       19.0984       19.1315      10.349286      12.87397
  38     1.782        8.7828        0.0427       18.4394       18.4821       9.699324      12.37422
  37     2.292        8.7855        0.0530       17.7714       17.8244       9.038926      10.93791
  36     2.964        8.7922        0.0657       17.0421       17.1079       8.315717       9.07847
  35     3.853        8.8051        0.0817       16.2678       16.3495       7.544402       7.31992
  34     5.035        8.8265        0.1019       15.4803       15.5822       6.755704       5.63413
  33     6.613        8.8575        0.1277       14.7157       14.8434       5.985833       4.11573
  32     8.786        8.8986        0.1615       13.9936       14.1551       5.256499       2.83247
  31     11.80        8.9522        0.2086       13.2835       13.4922       4.540009       2.00594
  30     15.07        9.0038        0.2575       12.7394       12.9968       3.992998       1.41228
  29     18.79        9.0573        0.3117       12.2666       12.5783       3.520966       1.07024
  28     23.16        9.1141        0.3733       11.8300       12.2033       3.089165       0.83496
  27     28.12        9.1724        0.4423       11.4279       11.8701       2.697747       0.66538
  26     33.73        9.2263        0.5183       11.0695       11.5878       2.361502       0.50555
  25     40.54        9.2775        0.6092       10.7209       11.3301       2.052545       0.38330
  24     48.69        9.3260        0.7170       10.3742       11.0912       1.765137       0.29742
  23     57.69        9.3661        0.8337       10.0549       10.8886       1.522554       0.22738
  22     68.43        9.3987        0.9706        9.7327       10.7034       1.304682       0.17128
  21     81.20        9.4149        1.1324        9.4134       10.5458       1.130871       0.11485
  20     96.49        9.4127        1.3225        9.0887       10.4112       0.998501       0.07306
  19     114.6        9.4003        1.5421        8.7388       10.2809       0.880623       0.05504
  18     136.5        9.3807        1.7933        8.3549       10.1482       0.767461       0.04351
  17     162.9        9.3542        2.0797        7.9311       10.0108       0.656598       0.03544
  16     196.4        9.3088        2.4344        7.4333        9.8677       0.558954       0.02458
  15     218.7        9.2759        2.6576        7.1295        9.7872       0.511304       0.01809
  14     243.0        9.2398        2.8910        6.8161        9.7071       0.467286       0.01527
  13     269.0        9.2003        3.1337        6.4943        9.6280       0.427742       0.01283
  12     297.5        9.1575        3.3846        6.1657        9.5503       0.392866       0.01034
  11     328.5        9.1128        3.6428        5.8295        9.4722       0.359458       0.00908
  10     361.9        9.0667        3.9058        5.4886        9.3944       0.327668       0.00804
   9     398.1        9.0194        4.1730        5.1440        9.3169       0.297524       0.00702
   8     437.6        8.9714        4.4429        4.7969        9.2398       0.268445       0.00622
   7     480.5        8.9230        4.7134        4.4504        9.1638       0.240825       0.00542
   6     533.0        8.8676        5.0220        4.0563        9.0783       0.210691       0.00485
   5     589.8        8.8132        5.3265        3.6682        8.9947       0.181488       0.00433
   4     651.6        8.7608        5.6231        3.2905        8.9137       0.152888       0.00391
   3     718.7        8.7108        5.9104        2.9252        8.8356       0.124846       0.00352
   2     792.3        8.6641        6.1850        2.5764        8.7614       0.097364       0.00315
   1     891.5        6.0739        6.1455        0.0000        6.1455       0.071616       0.00219
   0    1013.0        6.0797        6.1306        0.0000        6.1306       0.050884       0.00144



 Wavenumbers: 38000. - 50000. cm-1, ATM      1
 LEVEL PRESSURE   UPWARD FLUX   DIFDOWN FLUX  DIRDOWN FLUX  DOWNWARD FLUX   NET FLUX    HEATING RATE
          mb          W/m2          W/m2          W/m2        W/m2          W/m2       degree/day
  51    .06700        0.0061        0.0000        1.2836        1.2836       1.277518       0.00000
  50    .07753        0.0061        0.0001        1.2812        1.2812       1.275183       1.87150
  49    .09103        0.0060        0.0002        1.2777        1.2778       1.271851       2.08247
  48    0.1069        0.0059        0.0002        1.2731        1.2734       1.267473       2.33059
  47    0.1255        0.0058        0.0004        1.2672        1.2675       1.261717       2.60908
  46    0.1487        0.0057        0.0005        1.2586        1.2591       1.253391       3.03499
  45    0.1794        0.0055        0.0007        1.2455        1.2462       1.240623       3.50520
  44    0.2165        0.0054        0.0009        1.2282        1.2291       1.223697       3.85037
  43    0.2613        0.0052        0.0011        1.2054        1.2065       1.201348       4.21261
  42    0.3336        0.0049        0.0015        1.1639        1.1654       1.160524       4.75970
  41    0.4307        0.0045        0.0020        1.1051        1.1070       1.102565       5.03943
  40    0.5894        0.0039        0.0026        1.0039        1.0064       1.002524       5.32007
  39     1.339        0.0022        0.0035        0.5438        0.5473       0.545104       5.14971
  38     1.782        0.0016        0.0032        0.3635        0.3666       0.365006       3.42879
  37     2.292        0.0012        0.0027        0.2356        0.2383       0.237058       2.11916
  36     2.964        0.0009        0.0022        0.1455        0.1477       0.146786       1.13318
  35     3.853        0.0006        0.0017        0.0858        0.0875       0.086906       0.56828
  34     5.035        0.0004        0.0013        0.0488        0.0501       0.049701       0.26578
  33     6.613        0.0003        0.0010        0.0273        0.0282       0.027974       0.11615
  32     8.786        0.0002        0.0007        0.0144        0.0151       0.014928       0.05067
  31     11.80        0.0001        0.0004        0.0065        0.0070       0.006903       0.02247
  30     15.07        0.0000        0.0003        0.0031        0.0034       0.003329       0.00923
  29     18.79        0.0000        0.0002        0.0014        0.0016       0.001583       0.00396
  28     23.16        0.0000        0.0001        0.0006        0.0007       0.000720       0.00167
  27     28.12        0.0000        0.0001        0.0003        0.0003       0.000317       0.00069
  26     33.73        0.0000        0.0000        0.0001        0.0001       0.000140       0.00027
  25     40.54        0.0000        0.0000        0.0000        0.0001       0.000057       0.00010
  24     48.69        0.0000        0.0000        0.0000        0.0000       0.000021       0.00004
  23     57.69        0.0000        0.0000        0.0000        0.0000       0.000008       0.00001
  22     68.43        0.0000        0.0000        0.0000        0.0000       0.000003       0.00000
  21     81.20        0.0000        0.0000        0.0000        0.0000       0.000001       0.00000
  20     96.49        0.0000        0.0000        0.0000        0.0000       0.000000       0.00000
  19     114.6        0.0000        0.0000        0.0000        0.0000       0.000000       0.00000
  18     136.5        0.0000        0.0000        0.0000        0.0000       0.000000       0.00000
  17     162.9        0.0000        0.0000        0.0000        0.0000       0.000000       0.00000
  16     196.4        0.0000        0.0000        0.0000        0.0000       0.000000       0.00000
  15     218.7        0.0000        0.0000        0.0000        0.0000       0.000000       0.00000
  14     243.0        0.0000        0.0000        0.0000        0.0000       0.000000       0.00000
  13     269.0        0.0000        0.0000        0.0000        0.0000       0.000000       0.00000
  12     297.5        0.0000        0.0000        0.0000        0.0000       0.000000       0.00000
  11     328.5        0.0000        0.0000        0.0000        0.0000       0.000000       0.00000
  10     361.9        0.0000        0.0000        0.0000        0.0000       0.000000       0.00000
   9     398.1        0.0000        0.0000        0.0000        0.0000       0.000000       0.00000
   8     437.6        0.0000        0.0000        0.0000        0.0000       0.000000       0.00000
   7     480.5        0.0000        0.0000        0.0000        0.0000       0.000000       0.00000
   6     533.0        0.0000        0.0000        0.0000        0.0000       0.000000       0.00000
   5     589.8        0.0000        0.0000        0.0000        0.0000       0.000000       0.00000
   4     651.6        0.0000        0.0000        0.0000        0.0000       0.000000       0.00000
   3     718.7        0.0000        0.0000        0.0000        0.0000       0.000000       0.00000
   2     792.3        0.0000        0.0000        0.0000        0.0000       0.000000       0.00000
   1     891.5        0.0000        0.0000        0.0000        0.0000       0.000000       0.00000
   0    1013.0        0.0000        0.0000        0.0000        0.0000       0.000000       0.00000



 Wavenumbers:   820. -  2600. cm-1, ATM      1
 LEVEL PRESSURE   UPWARD FLUX   DIFDOWN FLUX  DIRDOWN FLUX  DOWNWARD FLUX   NET FLUX    HEATING RATE
          mb          W/m2          W/m2          W/m2        W/m2          W/m2       degree/day
  51    .06700        1.7925        0.0000        6.0047        6.0047       4.212158       0.00000
  50    .07753        1.7925        0.0000        6.0008        6.0008       4.208305       3.08826
  49    .09103        1.7925        0.0000        5.9999        5.9999       4.207419       0.55363
  48    0.1069        1.7925        0.0000        5.9989        5.9989       4.206430       0.52658
  47    0.1255        1.7925        0.0000        5.9978        5.9978       4.205312       0.50655
  46    0.1487        1.7925        0.0000        5.9964        5.9964       4.203955       0.49463
  45    0.1794        1.7925        0.0000        5.9947        5.9947       4.202236       0.47206
  44    0.2165        1.7925        0.0000        5.9929        5.9929       4.200393       0.41916
  43    0.2613        1.7925        0.0000        5.9909        5.9909       4.198434       0.36939
  42    0.3336        1.7925        0.0000        5.9880        5.9880       4.195555       0.33563
  41    0.4307        1.7925        0.0000        5.9846        5.9846       4.192085       0.30172
  40    0.5894        1.7925        0.0000        5.9791        5.9791       4.186578       0.29283
  39     1.339        1.7925        0.0000        5.9536        5.9536       4.161084       0.28701
  38     1.782        1.7925        0.0000        5.9395        5.9395       4.146942       0.26925
  37     2.292        1.7925        0.0000        5.9237        5.9237       4.131187       0.26095
  36     2.964        1.7925        0.0000        5.9039        5.9039       4.111407       0.24830
  35     3.853        1.7925        0.0000        5.8793        5.8793       4.086743       0.23406
  34     5.035        1.7926        0.0000        5.8487        5.8487       4.056170       0.21840
  33     6.613        1.7926        0.0000        5.8108        5.8108       4.018192       0.20303
  32     8.786        1.7926        0.0000        5.7631        5.7631       3.970549       0.18502
  31     11.80        1.7926        0.0000        5.7039        5.7039       3.911266       0.16598
  30     15.07        1.7927        0.0000        5.6539        5.6539       3.861197       0.12927
  29     18.79        1.7927        0.0000        5.6127        5.6127       3.820028       0.09334
  28     23.16        1.7928        0.0000        5.5794        5.5794       3.786611       0.06462
  27     28.12        1.7928        0.0000        5.5518        5.5518       3.758996       0.04694
  26     33.73        1.7929        0.0000        5.5268        5.5268       3.733889       0.03775
  25     40.54        1.7930        0.0000        5.4993        5.4993       3.706378       0.03413
  24     48.69        1.7930        0.0000        5.4678        5.4678       3.674755       0.03273
  23     57.69        1.7931        0.0000        5.4340        5.4340       3.640874       0.03176
  22     68.43        1.7933        0.0000        5.3947        5.3948       3.601488       0.03096
  21     81.20        1.7934        0.0000        5.3497        5.3497       3.556315       0.02985
  20     96.49        1.7936        0.0000        5.2982        5.2982       3.504628       0.02853
  19     114.6        1.7938        0.0000        5.2389        5.2389       3.445091       0.02780
  18     136.5        1.7941        0.0000        5.1716        5.1717       3.377564       0.02597
  17     162.9        1.7945        0.0000        5.0890        5.0891       3.294546       0.02654
  16     196.4        1.7952        0.0000        4.9668        4.9668       3.171634       0.03094
  15     218.7        1.7959        0.0000        4.8585        4.8585       3.062603       0.04140
  14     243.0        1.7970        0.0000        4.7078        4.7079       2.910907       0.05261
  13     269.0        1.7986        0.0000        4.5343        4.5343       2.735728       0.05683
  12     297.5        1.8011        0.0000        4.3419        4.3420       2.540852       0.05780
  11     328.5        1.8045        0.0000        4.1281        4.1281       2.323607       0.05907
  10     361.9        1.8091        0.0000        3.8786        3.8787       2.069596       0.06427
   9     398.1        1.8150        0.0000        3.6159        3.6160       1.800991       0.06258
   8     437.6        1.8226        0.0000        3.3759        3.3759       1.553310       0.05296
   7     480.5        1.8319        0.0000        3.1957        3.1958       1.363858       0.03721
   6     533.0        1.8461        0.0000        3.0467        3.0467       1.200568       0.02627
   5     589.8        1.8672        0.0001        2.9023        2.9023       1.035173       0.02455
   4     651.6        1.9038        0.0001        2.7183        2.7184       0.814609       0.03016
   3     718.7        1.9679        0.0001        2.5058        2.5059       0.537993       0.03476
   2     792.3        2.0952        0.0001        2.2756        2.2757       0.180501       0.04100
   1     891.5        0.0002        0.0315        0.0000        0.0315       0.031365       0.01269
   0    1013.0        0.0002        0.0266        0.0000        0.0266       0.026391       0.00035

  Modules and versions used in this calculation:

       rrtmg_sw.1col.f90:  $Revision$                    rrtmg_sw_init.f90:  $Revision$        
     rrtmgsw_cldprop.f90:  $Revision$                  rrtmgsw_cldprmc.f90:  NOT USED          
     rrtmg_sw_reftra.f90:  $Revision$                  rrtmg_sw_spcvrt.f90:  NOT USED          
     rrtmg_sw_spcvmc.f90:  NOT USED                    rrtmgsw_setcoef.f90:  NOT USED          
     rrtmg_sw_taumol.f90:  $Revision$                  rrtmg_sw_vrtqdr.f90:  NOT USED          
                rrtatm.f:  NOT USED                             util_xxx.f:  NOT USED          
                 extra.f:  NOT USED                       rrtmg_sw_k_g.f90:  $Revision$        

