

 Wavenumbers:   820. - 50000. cm-1, ATM      1
 LEVEL PRESSURE   UPWARD FLUX   DIFDOWN FLUX  DIRDOWN FLUX  DOWNWARD FLUX   NET FLUX    HEATING RATE
          mb          W/m2          W/m2          W/m2        W/m2          W/m2       degree/day
  51    .06700      468.2474        0.0000      617.8126      617.8126     149.565230       0.00000
  50    .07753      468.2470        0.0014      617.7947      617.7961     149.549085      12.94034
  49    .09103      468.2466        0.0031      617.7778      617.7808     149.534269       9.26055
  48    0.1069      468.2461        0.0050      617.7581      617.7631     149.516999       9.19272
  47    0.1255      468.2456        0.0073      617.7340      617.7412     149.495644       9.68137
  46    0.1487      468.2450        0.0101      617.7009      617.7110     149.465944      10.82605
  45    0.1794      468.2443        0.0139      617.6521      617.6660     149.421691      12.14845
  44    0.2165      468.2437        0.0185      617.5895      617.6080     149.364341      13.04610
  43    0.2613      468.2430        0.0239      617.5089      617.5328     149.289791      14.05242
  42    0.3336      468.2422        0.0328      617.3641      617.3969     149.154636      15.75768
  41    0.4307      468.2416        0.0444      617.1591      617.2036     148.961911      16.75705
  40    0.5894      468.2417        0.0633      616.8005      616.8637     148.622030      18.07444
  39     1.339      468.2606        0.1485      614.9443      615.0927     146.832100      20.15135
  38     1.782      468.2847        0.1964      613.9670      614.1634     145.878760      18.15006
  37     2.292      468.3243        0.2510      613.0059      613.2569     144.932612      15.67069
  36     2.964      468.3939        0.3219      611.9577      612.2796     143.885678      13.14218
  35     3.853      468.5105        0.4149      610.8024      611.2173     142.706798      11.18779
  34     5.035      468.6897        0.5377      609.5327      610.0704     141.380660       9.47338
  33     6.613      468.9420        0.7006      608.1464      608.8470     139.905026       7.88874
  32     8.786      469.2707        0.9192      606.6250      607.5442     138.273509       6.33622
  31     11.80      469.6966        1.2304      604.8486      606.0790     136.382399       5.29451
  30     15.07      470.1024        1.5625      603.2440      604.8065     134.704054       4.33316
  29     18.79      470.5147        1.9362      601.6511      603.5873     133.072632       3.69893
  28     23.16      470.9432        2.3704      599.9927      602.3631     131.419934       3.19578
  27     28.12      471.3711        2.8647      598.2881      601.1528     129.781704       2.78488
  26     33.73      471.7590        3.4158      596.5951      600.0109     128.251860       2.30016
  25     40.54      472.1218        4.0792      594.7727      598.8519     126.730123       1.88789
  24     48.69      472.4567        4.8754      592.7865      597.6619     125.205192       1.57806
  23     57.69      472.7251        5.7457      590.7959      596.5416     123.816494       1.30170
  22     68.43      472.9370        6.7768      588.6191      595.3959     122.458952       1.06721
  21     81.20      473.0395        7.9994      586.2690      594.2684     121.228844       0.81284
  20     96.49      473.0229        9.4470      583.6961      593.1431     120.120237       0.61187
  19     114.6      472.9458       11.1502      580.7708      591.9210     118.975201       0.53465
  18     136.5      472.8095       13.1446      577.4359      590.5804     117.770982       0.46305
  17     162.9      472.6093       15.4853      573.5624      589.0478     116.438463       0.42593
  16     196.4      472.2622       18.4708      568.5907      587.0615     114.799370       0.41258
  15     218.7      472.0066       20.4013      565.0572      585.4585     113.451911       0.51158
  14     243.0      471.7227       22.4721      560.7495      583.2216     111.498930       0.67736
  13     269.0      471.4133       24.6847      555.3947      580.0794     108.666052       0.91897
  12     297.5      471.0865       27.0397      548.9964      576.0361     104.949546       1.10228
  11     328.5      470.7541       29.5437      542.0895      571.6333     100.879194       1.10672
  10     361.9      470.4269       32.1930      534.6242      566.8173      96.390360       1.13572
   9     398.1      470.1208       34.9923      526.4204      561.4127      91.291918       1.18782
   8     437.6      469.8656       37.9400      517.3907      555.3307      85.465097       1.24581
   7     480.5      469.6945       41.0345      507.7216      548.7561      79.061571       1.25763
   6     533.0      469.6765       44.7554      495.9006      540.6560      70.979503       1.30015
   5     589.8      470.0115       48.6603      483.0788      531.7391      61.727632       1.37328
   4     651.6      471.1176       52.7362      468.6907      521.4269      50.309291       1.56149
   3     718.7      473.6096       56.9749      453.2257      510.2007      36.591098       1.72400
   2     792.3      479.1716       61.3540      436.4928      497.8469      18.675267       2.05475
   1     891.5      176.2069      186.5746        0.0000      186.5746      10.367674       0.70694
   0    1013.0      176.8995      185.5497        0.0000      185.5497       8.650222       0.11925



 Wavenumbers:  2600. -  3250. cm-1, ATM      1
 LEVEL PRESSURE   UPWARD FLUX   DIFDOWN FLUX  DIRDOWN FLUX  DOWNWARD FLUX   NET FLUX    HEATING RATE
          mb          W/m2          W/m2          W/m2        W/m2          W/m2       degree/day
  51    .06700        2.2801        0.0000        5.4450        5.4450       3.164886       0.00000
  50    .07753        2.2801        0.0000        5.4450        5.4450       3.164878       0.00640
  49    .09103        2.2801        0.0000        5.4450        5.4450       3.164868       0.00627
  48    0.1069        2.2801        0.0000        5.4450        5.4450       3.164857       0.00613
  47    0.1255        2.2801        0.0000        5.4450        5.4450       3.164843       0.00599
  46    0.1487        2.2801        0.0000        5.4450        5.4450       3.164827       0.00608
  45    0.1794        2.2801        0.0000        5.4450        5.4450       3.164804       0.00625
  44    0.2165        2.2801        0.0000        5.4449        5.4449       3.164777       0.00612
  43    0.2613        2.2801        0.0000        5.4449        5.4449       3.164745       0.00600
  42    0.3336        2.2801        0.0000        5.4448        5.4448       3.164692       0.00617
  41    0.4307        2.2801        0.0000        5.4448        5.4448       3.164621       0.00620
  40    0.5894        2.2801        0.0000        5.4446        5.4446       3.164501       0.00637
  39     1.339        2.2801        0.0000        5.4439        5.4439       3.163794       0.00797
  38     1.782        2.2801        0.0000        5.4434        5.4434       3.163251       0.01034
  37     2.292        2.2801        0.0000        5.4427        5.4427       3.162535       0.01186
  36     2.964        2.2801        0.0000        5.4416        5.4416       3.161496       0.01304
  35     3.853        2.2801        0.0000        5.4402        5.4402       3.160019       0.01402
  34     5.035        2.2801        0.0000        5.4381        5.4381       3.157963       0.01469
  33     6.613        2.2801        0.0000        5.4353        5.4353       3.155181       0.01487
  32     8.786        2.2801        0.0000        5.4317        5.4317       3.151548       0.01411
  31     11.80        2.2802        0.0000        5.4269        5.4269       3.146765       0.01339
  30     15.07        2.2802        0.0000        5.4224        5.4224       3.142235       0.01170
  29     18.79        2.2802        0.0000        5.4180        5.4180       3.137818       0.01002
  28     23.16        2.2802        0.0000        5.4135        5.4135       3.133324       0.00869
  27     28.12        2.2802        0.0000        5.4088        5.4088       3.128665       0.00792
  26     33.73        2.2802        0.0000        5.4036        5.4036       3.123409       0.00790
  25     40.54        2.2802        0.0000        5.3966        5.3967       3.116443       0.00864
  24     48.69        2.2803        0.0000        5.3872        5.3872       3.106928       0.00985
  23     57.69        2.2803        0.0000        5.3754        5.3754       3.095093       0.01109
  22     68.43        2.2804        0.0000        5.3599        5.3599       3.079530       0.01223
  21     81.20        2.2805        0.0000        5.3401        5.3401       3.059591       0.01318
  20     96.49        2.2807        0.0000        5.3155        5.3155       3.034874       0.01364
  19     114.6        2.2809        0.0001        5.2853        5.2854       3.004471       0.01420
  18     136.5        2.2812        0.0001        5.2504        5.2505       2.969273       0.01353
  17     162.9        2.2816        0.0001        5.2111        5.2112       2.929512       0.01271
  16     196.4        2.2824        0.0001        5.1640        5.1641       2.881727       0.01203
  15     218.7        2.2831        0.0001        5.1331        5.1332       2.850075       0.01202
  14     243.0        2.2844        0.0001        5.0962        5.0963       2.811972       0.01322
  13     269.0        2.2862        0.0001        5.0511        5.0512       2.764974       0.01525
  12     297.5        2.2891        0.0001        4.9956        4.9957       2.706635       0.01730
  11     328.5        2.2931        0.0001        4.9304        4.9305       2.637400       0.01882
  10     361.9        2.2987        0.0002        4.8511        4.8513       2.552599       0.02146
   9     398.1        2.3063        0.0002        4.7507        4.7509       2.444510       0.02518
   8     437.6        2.3171        0.0002        4.6220        4.6222       2.305137       0.02980
   7     480.5        2.3321        0.0002        4.4625        4.4627       2.130604       0.03428
   6     533.0        2.3567        0.0002        4.2460        4.2463       1.889574       0.03877
   5     589.8        2.3946        0.0002        3.9954        3.9956       1.601046       0.04283
   4     651.6        2.4580        0.0002        3.7089        3.7091       1.251093       0.04786
   3     718.7        2.5648        0.0002        3.4018        3.4021       0.837241       0.05201
   2     792.3        2.7646        0.0002        3.0564        3.0567       0.292051       0.06253
   1     891.5        0.1249        0.1871        0.0000        0.1871       0.062252       0.01955
   0    1013.0        0.1356        0.1708        0.0000        0.1708       0.035176       0.00188



 Wavenumbers:  3250. -  4000. cm-1, ATM      1
 LEVEL PRESSURE   UPWARD FLUX   DIFDOWN FLUX  DIRDOWN FLUX  DOWNWARD FLUX   NET FLUX    HEATING RATE
          mb          W/m2          W/m2          W/m2        W/m2          W/m2       degree/day
  51    .06700        0.0961        0.0000        9.1795        9.1795       9.083475       0.00000
  50    .07753        0.0961        0.0000        9.1747        9.1747       9.078632       3.88148
  49    .09103        0.0961        0.0000        9.1713        9.1713       9.075244       2.11747
  48    0.1069        0.0961        0.0000        9.1688        9.1688       9.072719       1.34402
  47    0.1255        0.0961        0.0000        9.1665        9.1665       9.070460       1.02422
  46    0.1487        0.0961        0.0000        9.1641        9.1641       9.068019       0.88991
  45    0.1794        0.0961        0.0000        9.1612        9.1612       9.065141       0.79008
  44    0.2165        0.0961        0.0000        9.1583        9.1583       9.062220       0.66430
  43    0.2613        0.0961        0.0000        9.1553        9.1553       9.059247       0.56041
  42    0.3336        0.0961        0.0000        9.1511        9.1511       9.055068       0.48723
  41    0.4307        0.0961        0.0000        9.1464        9.1464       9.050300       0.41459
  40    0.5894        0.0961        0.0000        9.1393        9.1394       9.043295       0.37255
  39     1.339        0.0961        0.0000        9.1127        9.1127       9.016681       0.29962
  38     1.782        0.0961        0.0000        9.1011        9.1011       9.005093       0.22062
  37     2.292        0.0961        0.0000        9.0901        9.0901       8.994026       0.18329
  36     2.964        0.0961        0.0000        9.0776        9.0776       8.981596       0.15603
  35     3.853        0.0961        0.0000        9.0629        9.0629       8.966806       0.14036
  34     5.035        0.0960        0.0000        9.0441        9.0441       8.948067       0.13386
  33     6.613        0.0960        0.0000        9.0191        9.0191       8.923066       0.13366
  32     8.786        0.0960        0.0000        8.9843        8.9843       8.888282       0.13509
  31     11.80        0.0960        0.0000        8.9327        8.9327       8.836666       0.14451
  30     15.07        0.0960        0.0000        8.8758        8.8759       8.779821       0.14676
  29     18.79        0.0960        0.0000        8.8110        8.8110       8.714993       0.14698
  28     23.16        0.0960        0.0000        8.7365        8.7366       8.640549       0.14395
  27     28.12        0.0960        0.0000        8.6554        8.6555       8.559435       0.13789
  26     33.73        0.0960        0.0000        8.5719        8.5719       8.475936       0.12554
  25     40.54        0.0960        0.0001        8.4812        8.4812       8.385212       0.11255
  24     48.69        0.0960        0.0001        8.3838        8.3839       8.287910       0.10069
  23     57.69        0.0960        0.0001        8.2861        8.2862       8.190175       0.09161
  22     68.43        0.0960        0.0001        8.1751        8.1751       8.079178       0.08726
  21     81.20        0.0960        0.0001        8.0457        8.0458       7.949820       0.08548
  20     96.49        0.0959        0.0001        7.8949        7.8951       7.799116       0.08318
  19     114.6        0.0959        0.0001        7.7162        7.7163       7.620406       0.08345
  18     136.5        0.0959        0.0002        7.5193        7.5195       7.423561       0.07569
  17     162.9        0.0959        0.0002        7.2913        7.2915       7.195667       0.07284
  16     196.4        0.0958        0.0002        6.9660        6.9662       6.870387       0.08188
  15     218.7        0.0958        0.0002        6.6648        6.6650       6.569182       0.11436
  14     243.0        0.0958        0.0002        6.2619        6.2622       6.166347       0.13972
  13     269.0        0.0959        0.0003        5.7576        5.7579       5.661949       0.16362
  12     297.5        0.0961        0.0003        5.1719        5.1722       5.076049       0.17377
  11     328.5        0.0965        0.0002        4.5757        4.5760       4.479524       0.16219
  10     361.9        0.0970        0.0002        3.9995        3.9998       3.902743       0.14593
   9     398.1        0.0980        0.0002        3.4655        3.4657       3.367695       0.12465
   8     437.6        0.0997        0.0002        2.9740        2.9743       2.874597       0.10543
   7     480.5        0.1023        0.0002        2.5307        2.5309       2.428554       0.08760
   6     533.0        0.1075        0.0002        2.0614        2.0616       1.954106       0.07632
   5     589.8        0.1169        0.0002        1.6150        1.6151       1.498262       0.06766
   4     651.6        0.1365        0.0001        1.1565        1.1566       1.020037       0.06540
   3     718.7        0.1800        0.0001        0.7390        0.7391       0.559098       0.05793
   2     792.3        0.2969        0.0001        0.3985        0.3985       0.101651       0.05246
   1     891.5        0.0000        0.0002        0.0000        0.0002       0.000225       0.00863
   0    1013.0        0.0000        0.0000        0.0000        0.0000       0.000005       0.00002



 Wavenumbers:  4000. -  4650. cm-1, ATM      1
 LEVEL PRESSURE   UPWARD FLUX   DIFDOWN FLUX  DIRDOWN FLUX  DOWNWARD FLUX   NET FLUX    HEATING RATE
          mb          W/m2          W/m2          W/m2        W/m2          W/m2       degree/day
  51    .06700        7.2398        0.0000       10.7795       10.7795       3.539745       0.00000
  50    .07753        7.2398        0.0000       10.7795       10.7795       3.539744       0.00080
  49    .09103        7.2398        0.0000       10.7795       10.7795       3.539742       0.00078
  48    0.1069        7.2398        0.0000       10.7795       10.7795       3.539741       0.00077
  47    0.1255        7.2398        0.0000       10.7795       10.7795       3.539739       0.00075
  46    0.1487        7.2398        0.0000       10.7795       10.7795       3.539737       0.00076
  45    0.1794        7.2398        0.0000       10.7795       10.7795       3.539734       0.00078
  44    0.2165        7.2398        0.0000       10.7795       10.7795       3.539731       0.00076
  43    0.2613        7.2398        0.0000       10.7795       10.7795       3.539727       0.00075
  42    0.3336        7.2398        0.0000       10.7795       10.7795       3.539720       0.00077
  41    0.4307        7.2398        0.0000       10.7795       10.7795       3.539711       0.00078
  40    0.5894        7.2398        0.0000       10.7795       10.7795       3.539696       0.00080
  39     1.339        7.2398        0.0000       10.7794       10.7794       3.539607       0.00101
  38     1.782        7.2398        0.0000       10.7793       10.7793       3.539537       0.00133
  37     2.292        7.2398        0.0000       10.7792       10.7792       3.539442       0.00156
  36     2.964        7.2398        0.0000       10.7791       10.7791       3.539301       0.00177
  35     3.853        7.2398        0.0000       10.7789       10.7789       3.539093       0.00198
  34     5.035        7.2398        0.0000       10.7786       10.7786       3.538785       0.00220
  33     6.613        7.2398        0.0000       10.7781       10.7781       3.538331       0.00243
  32     8.786        7.2398        0.0000       10.7774       10.7775       3.537661       0.00260
  31     11.80        7.2398        0.0001       10.7763       10.7764       3.536608       0.00295
  30     15.07        7.2398        0.0001       10.7751       10.7752       3.535371       0.00319
  29     18.79        7.2398        0.0001       10.7736       10.7737       3.533873       0.00340
  28     23.16        7.2398        0.0001       10.7717       10.7718       3.532012       0.00360
  27     28.12        7.2398        0.0001       10.7695       10.7696       3.529756       0.00384
  26     33.73        7.2399        0.0002       10.7667       10.7668       3.526970       0.00419
  25     40.54        7.2399        0.0002       10.7629       10.7631       3.523186       0.00470
  24     48.69        7.2400        0.0002       10.7579       10.7582       3.518133       0.00523
  23     57.69        7.2402        0.0003       10.7520       10.7523       3.512131       0.00563
  22     68.43        7.2404        0.0004       10.7446       10.7450       3.504591       0.00593
  21     81.20        7.2406        0.0004       10.7355       10.7359       3.495280       0.00615
  20     96.49        7.2411        0.0005       10.7245       10.7250       3.483912       0.00627
  19     114.6        7.2417        0.0006       10.7107       10.7113       3.469646       0.00666
  18     136.5        7.2425        0.0007       10.6942       10.6949       3.452387       0.00664
  17     162.9        7.2437        0.0008       10.6740       10.6748       3.431120       0.00680
  16     196.4        7.2458        0.0010       10.6464       10.6474       3.401588       0.00743
  15     218.7        7.2476        0.0011       10.6255       10.6266       3.378993       0.00858
  14     243.0        7.2502        0.0012       10.5980       10.5993       3.349104       0.01037
  13     269.0        7.2540        0.0014       10.5611       10.5624       3.308447       0.01319
  12     297.5        7.2596        0.0015       10.5119       10.5134       3.253867       0.01619
  11     328.5        7.2672        0.0016       10.4499       10.4515       3.184315       0.01891
  10     361.9        7.2772        0.0018       10.3702       10.3720       3.094760       0.02266
   9     398.1        7.2899        0.0020       10.2678       10.2698       2.979887       0.02676
   8     437.6        7.3061        0.0022       10.1390       10.1411       2.835014       0.03097
   7     480.5        7.3272        0.0023        9.9877        9.9900       2.662878       0.03381
   6     533.0        7.3599        0.0026        9.7937        9.7962       2.436336       0.03644
   5     589.8        7.4080        0.0028        9.5752        9.5779       2.169982       0.03954
   4     651.6        7.4871        0.0030        9.2958        9.2988       1.811759       0.04899
   3     718.7        7.6237        0.0032        8.9267        8.9300       1.306233       0.06353
   2     792.3        7.8917        0.0034        8.4542        8.4577       0.565977       0.08490
   1     891.5        0.6881        0.9220        0.0000        0.9220       0.233865       0.02826
   0    1013.0        0.7083        0.8921        0.0000        0.8921       0.183778       0.00348



 Wavenumbers:  4650. -  5150. cm-1, ATM      1
 LEVEL PRESSURE   UPWARD FLUX   DIFDOWN FLUX  DIRDOWN FLUX  DOWNWARD FLUX   NET FLUX    HEATING RATE
          mb          W/m2          W/m2          W/m2        W/m2          W/m2       degree/day
  51    .06700        5.2426        0.0000       10.2033       10.2033       4.960714       0.00000
  50    .07753        5.2426        0.0000       10.2031       10.2031       4.960478       0.18901
  49    .09103        5.2426        0.0000       10.2028       10.2028       4.960183       0.18428
  48    0.1069        5.2426        0.0000       10.2025       10.2025       4.959846       0.17931
  47    0.1255        5.2426        0.0000       10.2021       10.2021       4.959462       0.17426
  46    0.1487        5.2426        0.0000       10.2016       10.2016       4.958981       0.17536
  45    0.1794        5.2426        0.0000       10.2010       10.2010       4.958330       0.17850
  44    0.2165        5.2426        0.0000       10.2002       10.2002       4.957571       0.17277
  43    0.2613        5.2426        0.0000       10.1993       10.1993       4.956685       0.16690
  42    0.3336        5.2426        0.0000       10.1979       10.1979       4.955253       0.16702
  41    0.4307        5.2426        0.0000       10.1960       10.1960       4.953412       0.16002
  40    0.5894        5.2426        0.0000       10.1932       10.1932       4.950539       0.15283
  39     1.339        5.2426        0.0000       10.1816       10.1816       4.938946       0.13051
  38     1.782        5.2426        0.0000       10.1760       10.1760       4.933417       0.10527
  37     2.292        5.2426        0.0000       10.1706       10.1706       4.927959       0.09039
  36     2.964        5.2426        0.0000       10.1646       10.1647       4.922034       0.07437
  35     3.853        5.2426        0.0000       10.1584       10.1584       4.915817       0.05900
  34     5.035        5.2426        0.0000       10.1521       10.1521       4.909476       0.04529
  33     6.613        5.2426        0.0000       10.1456       10.1456       4.903011       0.03456
  32     8.786        5.2426        0.0001       10.1386       10.1386       4.895985       0.02728
  31     11.80        5.2427        0.0001       10.1295       10.1296       4.886917       0.02539
  30     15.07        5.2427        0.0001       10.1196       10.1197       4.877001       0.02560
  29     18.79        5.2428        0.0001       10.1076       10.1077       4.864941       0.02734
  28     23.16        5.2429        0.0002       10.0923       10.0924       4.849562       0.02974
  27     28.12        5.2430        0.0002       10.0731       10.0734       4.830365       0.03263
  26     33.73        5.2431        0.0002       10.0500       10.0503       4.807135       0.03493
  25     40.54        5.2434        0.0003       10.0201       10.0204       4.777038       0.03734
  24     48.69        5.2437        0.0004        9.9820        9.9823       4.738591       0.03979
  23     57.69        5.2442        0.0004        9.9384        9.9389       4.694699       0.04114
  22     68.43        5.2448        0.0005        9.8858        9.8863       4.641479       0.04184
  21     81.20        5.2456        0.0006        9.8234        9.8240       4.578413       0.04167
  20     96.49        5.2468        0.0007        9.7518        9.7525       4.505662       0.04015
  19     114.6        5.2484        0.0008        9.6719        9.6727       4.424328       0.03798
  18     136.5        5.2506        0.0010        9.5858        9.5868       4.336123       0.03392
  17     162.9        5.2537        0.0011        9.4940        9.4952       4.241442       0.03026
  16     196.4        5.2585        0.0014        9.3883        9.3896       4.131143       0.02776
  15     218.7        5.2622        0.0015        9.3229        9.3244       4.062196       0.02618
  14     243.0        5.2671        0.0017        9.2520        9.2537       3.986593       0.02622
  13     269.0        5.2735        0.0018        9.1717        9.1735       3.900003       0.02809
  12     297.5        5.2825        0.0020        9.0763        9.0783       3.795844       0.03089
  11     328.5        5.2941        0.0022        8.9650        8.9672       3.673068       0.03338
  10     361.9        5.3092        0.0024        8.8349        8.8373       3.528182       0.03666
   9     398.1        5.3287        0.0026        8.6820        8.6846       3.355951       0.04013
   8     437.6        5.3541        0.0028        8.5028        8.5056       3.151507       0.04371
   7     480.5        5.3873        0.0031        8.2948        8.2979       2.910568       0.04732
   6     533.0        5.4381        0.0033        8.0209        8.0242       2.586120       0.05219
   5     589.8        5.5090        0.0036        7.7063        7.7099       2.200878       0.05718
   4     651.6        5.6148        0.0038        7.3412        7.3451       1.730257       0.06436
   3     718.7        5.7768        0.0040        6.9387        6.9427       1.165923       0.07092
   2     792.3        6.0417        0.0043        6.5066        6.5108       0.469128       0.07991
   1     891.5        0.4565        0.6233        0.0000        0.6233       0.166790       0.02573
   0    1013.0        0.4743        0.5974        0.0000        0.5974       0.123056       0.00304



 Wavenumbers:  5150. -  6150. cm-1, ATM      1
 LEVEL PRESSURE   UPWARD FLUX   DIFDOWN FLUX  DIRDOWN FLUX  DOWNWARD FLUX   NET FLUX    HEATING RATE
          mb          W/m2          W/m2          W/m2        W/m2          W/m2       degree/day
  51    .06700       12.3758        0.0000       25.5798       25.5798      13.204035       0.00000
  50    .07753       12.3758        0.0000       25.5798       25.5798      13.203996       0.03164
  49    .09103       12.3758        0.0000       25.5797       25.5797      13.203945       0.03212
  48    0.1069       12.3758        0.0000       25.5797       25.5797      13.203883       0.03263
  47    0.1255       12.3758        0.0000       25.5796       25.5796      13.203810       0.03313
  46    0.1487       12.3758        0.0000       25.5795       25.5795      13.203714       0.03490
  45    0.1794       12.3758        0.0000       25.5794       25.5794      13.203579       0.03715
  44    0.2165       12.3758        0.0000       25.5792       25.5792      13.203413       0.03771
  43    0.2613       12.3758        0.0000       25.5790       25.5790      13.203210       0.03828
  42    0.3336       12.3758        0.0000       25.5786       25.5786      13.202863       0.04045
  41    0.4307       12.3758        0.0000       25.5782       25.5782      13.202392       0.04099
  40    0.5894       12.3758        0.0000       25.5774       25.5774      13.201602       0.04200
  39     1.339       12.3758        0.0000       25.5735       25.5736      13.197796       0.04285
  38     1.782       12.3758        0.0001       25.5713       25.5714      13.195580       0.04220
  37     2.292       12.3758        0.0001       25.5688       25.5689      13.193070       0.04157
  36     2.964       12.3758        0.0001       25.5656       25.5657      13.189880       0.04004
  35     3.853       12.3758        0.0001       25.5615       25.5616      13.185825       0.03849
  34     5.035       12.3758        0.0002       25.5562       25.5564      13.180601       0.03732
  33     6.613       12.3758        0.0002       25.5494       25.5496      13.173820       0.03625
  32     8.786       12.3759        0.0003       25.5406       25.5409      13.165029       0.03414
  31     11.80       12.3759        0.0004       25.5287       25.5291      13.153131       0.03331
  30     15.07       12.3760        0.0005       25.5167       25.5172      13.141189       0.03083
  29     18.79       12.3761        0.0006       25.5042       25.5048      13.128693       0.02833
  28     23.16       12.3762        0.0008       25.4907       25.4914      13.115217       0.02606
  27     28.12       12.3764        0.0009       25.4764       25.4774      13.100989       0.02419
  26     33.73       12.3766        0.0011       25.4620       25.4631      13.086541       0.02172
  25     40.54       12.3769        0.0013       25.4463       25.4476      13.070695       0.01966
  24     48.69       12.3773        0.0016       25.4294       25.4310      13.053663       0.01763
  23     57.69       12.3778        0.0019       25.4126       25.4145      13.036689       0.01591
  22     68.43       12.3785        0.0022       25.3944       25.3967      13.018190       0.01454
  21     81.20       12.3793        0.0027       25.3744       25.3771      12.997761       0.01350
  20     96.49       12.3804        0.0032       25.3519       25.3551      12.974737       0.01271
  19     114.6       12.3817        0.0038       25.3262       25.3299      12.948272       0.01236
  18     136.5       12.3832        0.0045       25.2962       25.3007      12.917411       0.01187
  17     162.9       12.3852        0.0053       25.2521       25.2574      12.872181       0.01446
  16     196.4       12.3879        0.0064       25.1593       25.1657      12.777743       0.02377
  15     218.7       12.3899        0.0071       25.0159       25.0230      12.633119       0.05491
  14     243.0       12.3923        0.0078       24.7089       24.7167      12.324418       0.10707
  13     269.0       12.3954        0.0085       24.1619       24.1703      11.774992       0.17823
  12     297.5       12.3995        0.0092       23.4544       23.4636      11.064055       0.21086
  11     328.5       12.4050        0.0099       22.7355       22.7454      10.340406       0.19676
  10     361.9       12.4122        0.0107       21.9224       21.9331       9.520872       0.20735
   9     398.1       12.4220        0.0114       20.9939       21.0053       8.583332       0.21843
   8     437.6       12.4356        0.0121       19.9833       19.9954       7.559857       0.21883
   7     480.5       12.4545        0.0128       18.9483       18.9611       6.506615       0.20685
   6     533.0       12.4867        0.0136       17.7796       17.7932       5.306478       0.19306
   5     589.8       12.5392        0.0144       16.6726       16.6869       4.147753       0.17199
   4     651.6       12.6359        0.0152       15.6343       15.6495       3.013542       0.15511
   3     718.7       12.8152        0.0161       14.7738       14.7899       1.974710       0.13055
   2     792.3       13.1827        0.0171       14.0291       14.0462       0.863449       0.12745
   1     891.5        1.3375        1.7487        0.0000        1.7487       0.411164       0.03849
   0    1013.0        1.3609        1.7140        0.0000        1.7140       0.353084       0.00403



 Wavenumbers:  6150. -  7700. cm-1, ATM      1
 LEVEL PRESSURE   UPWARD FLUX   DIFDOWN FLUX  DIRDOWN FLUX  DOWNWARD FLUX   NET FLUX    HEATING RATE
          mb          W/m2          W/m2          W/m2        W/m2          W/m2       degree/day
  51    .06700       20.0073        0.0000       47.3109       47.3109      27.303588       0.00000
  50    .07753       20.0073        0.0000       47.3108       47.3108      27.303531       0.04553
  49    .09103       20.0073        0.0000       47.3107       47.3107      27.303458       0.04583
  48    0.1069       20.0073        0.0000       47.3106       47.3106      27.303371       0.04614
  47    0.1255       20.0073        0.0000       47.3105       47.3105      27.303269       0.04645
  46    0.1487       20.0073        0.0000       47.3104       47.3104      27.303136       0.04852
  45    0.1794       20.0073        0.0000       47.3102       47.3102      27.302949       0.05127
  44    0.2165       20.0073        0.0000       47.3100       47.3100      27.302722       0.05167
  43    0.2613       20.0073        0.0000       47.3097       47.3097      27.302445       0.05210
  42    0.3336       20.0073        0.0000       47.3092       47.3092      27.301976       0.05471
  41    0.4307       20.0072        0.0000       47.3085       47.3086      27.301341       0.05521
  40    0.5894       20.0072        0.0001       47.3074       47.3075      27.300282       0.05634
  39     1.339       20.0072        0.0002       47.3022       47.3024      27.295190       0.05733
  38     1.782       20.0071        0.0002       47.2991       47.2994      27.292219       0.05655
  37     2.292       20.0071        0.0003       47.2956       47.2959      27.288844       0.05591
  36     2.964       20.0071        0.0004       47.2912       47.2916      27.284525       0.05421
  35     3.853       20.0070        0.0005       47.2855       47.2860      27.278991       0.05252
  34     5.035       20.0069        0.0007       47.2780       47.2787      27.271810       0.05130
  33     6.613       20.0068        0.0009       47.2683       47.2692      27.262422       0.05019
  32     8.786       20.0066        0.0012       47.2556       47.2568      27.250122       0.04777
  31     11.80       20.0064        0.0016       47.2380       47.2396      27.233218       0.04733
  30     15.07       20.0062        0.0020       47.2201       47.2221      27.215929       0.04464
  29     18.79       20.0059        0.0025       47.2008       47.2033      27.197448       0.04190
  28     23.16       20.0056        0.0031       47.1795       47.1826      27.177056       0.03943
  27     28.12       20.0052        0.0038       47.1565       47.1603      27.155059       0.03739
  26     33.73       20.0048        0.0045       47.1324       47.1369      27.132134       0.03447
  25     40.54       20.0043        0.0054       47.1054       47.1108      27.106493       0.03181
  24     48.69       20.0037        0.0065       47.0754       47.0820      27.078234       0.02924
  23     57.69       20.0031        0.0077       47.0449       47.0527      27.049604       0.02684
  22     68.43       20.0023        0.0092       47.0110       47.0202      27.017856       0.02496
  21     81.20       20.0014        0.0109       46.9729       46.9838      26.982348       0.02346
  20     96.49       20.0003        0.0129       46.9294       46.9423      26.941988       0.02228
  19     114.6       19.9991        0.0154       46.8790       46.8944      26.895325       0.02179
  18     136.5       19.9976        0.0182       46.8200       46.8382      26.840660       0.02102
  17     162.9       19.9958        0.0217       46.7361       46.7578      26.761962       0.02515
  16     196.4       19.9938        0.0261       46.5703       46.5964      26.602572       0.04012
  15     218.7       19.9927        0.0290       46.3473       46.3763      26.383568       0.08315
  14     243.0       19.9920        0.0320       45.9299       45.9618      25.969836       0.14350
  13     269.0       19.9923        0.0350       45.1708       45.2058      25.213476       0.24536
  12     297.5       19.9946        0.0380       44.0115       44.0495      24.054818       0.34365
  11     328.5       19.9997        0.0410       42.7242       42.7653      22.765570       0.35054
  10     361.9       20.0089        0.0441       41.3539       41.3981      21.389231       0.34823
   9     398.1       20.0244        0.0472       39.7953       39.8425      19.818052       0.36605
   8     437.6       20.0504        0.0502       37.9948       38.0449      17.994492       0.38989
   7     480.5       20.0917        0.0530       36.0647       36.1177      16.025967       0.38661
   6     533.0       20.1691        0.0561       33.7773       33.8333      13.664208       0.37993
   5     589.8       20.3041        0.0589       31.4082       31.4671      11.163014       0.37126
   4     651.6       20.5657        0.0613       28.8834       28.9447       8.378981       0.38072
   3     718.7       21.0729        0.0634       26.4104       26.4738       5.400947       0.37426
   2     792.3       22.1859        0.0653       24.0056       24.0709       1.884940       0.40325
   1     891.5        1.8493        2.4660        0.0000        2.4660       0.616736       0.10792
   0    1013.0        1.8977        2.3900        0.0000        2.3900       0.492345       0.00864



 Wavenumbers:  7700. -  8050. cm-1, ATM      1
 LEVEL PRESSURE   UPWARD FLUX   DIFDOWN FLUX  DIRDOWN FLUX  DOWNWARD FLUX   NET FLUX    HEATING RATE
          mb          W/m2          W/m2          W/m2        W/m2          W/m2       degree/day
  51    .06700        9.0035        0.0000       11.1810       11.1810       2.177498       0.00000
  50    .07753        9.0035        0.0000       11.1809       11.1809       2.177474       0.01938
  49    .09103        9.0035        0.0000       11.1809       11.1809       2.177444       0.01900
  48    0.1069        9.0035        0.0000       11.1809       11.1809       2.177409       0.01860
  47    0.1255        9.0035        0.0000       11.1809       11.1809       2.177369       0.01820
  46    0.1487        9.0035        0.0000       11.1808       11.1808       2.177318       0.01847
  45    0.1794        9.0035        0.0000       11.1808       11.1808       2.177249       0.01900
  44    0.2165        9.0036        0.0000       11.1807       11.1807       2.177167       0.01864
  43    0.2613        9.0036        0.0000       11.1806       11.1806       2.177070       0.01829
  42    0.3336        9.0036        0.0000       11.1805       11.1805       2.176909       0.01872
  41    0.4307        9.0037        0.0000       11.1803       11.1804       2.176696       0.01851
  40    0.5894        9.0038        0.0000       11.1801       11.1801       2.176348       0.01849
  39     1.339        9.0042        0.0001       11.1788       11.1789       2.174703       0.01852
  38     1.782        9.0044        0.0001       11.1781       11.1782       2.173737       0.01840
  37     2.292        9.0047        0.0001       11.1772       11.1773       2.172618       0.01853
  36     2.964        9.0051        0.0002       11.1761       11.1763       2.171148       0.01844
  35     3.853        9.0056        0.0002       11.1746       11.1748       2.169208       0.01842
  34     5.035        9.0063        0.0003       11.1726       11.1729       2.166629       0.01842
  33     6.613        9.0072        0.0004       11.1700       11.1704       2.163185       0.01841
  32     8.786        9.0084        0.0005       11.1664       11.1669       2.158543       0.01802
  31     11.80        9.0101        0.0007       11.1613       11.1620       2.151906       0.01858
  30     15.07        9.0120        0.0009       11.1558       11.1568       2.144783       0.01839
  29     18.79        9.0141        0.0012       11.1497       11.1509       2.136741       0.01823
  28     23.16        9.0166        0.0015       11.1425       11.1440       2.127356       0.01815
  27     28.12        9.0194        0.0018       11.1343       11.1361       2.116634       0.01823
  26     33.73        9.0227        0.0021       11.1252       11.1273       2.104650       0.01802
  25     40.54        9.0265        0.0025       11.1142       11.1167       2.090195       0.01793
  24     48.69        9.0312        0.0030       11.1010       11.1040       2.072803       0.01800
  23     57.69        9.0365        0.0036       11.0866       11.0902       2.053745       0.01786
  22     68.43        9.0427        0.0043       11.0695       11.0738       2.031110       0.01779
  21     81.20        9.0502        0.0051       11.0494       11.0544       2.004235       0.01776
  20     96.49        9.0592        0.0060       11.0255       11.0315       1.972341       0.01760
  19     114.6        9.0700        0.0071       10.9975       11.0047       1.934653       0.01760
  18     136.5        9.0830        0.0084       10.9648       10.9732       1.890226       0.01708
  17     162.9        9.0987        0.0100       10.9263       10.9363       1.837645       0.01681
  16     196.4        9.1194        0.0121       10.8773       10.8893       1.769934       0.01704
  15     218.7        9.1333        0.0134       10.8455       10.8590       1.725702       0.01679
  14     243.0        9.1486        0.0149       10.8114       10.8263       1.677760       0.01663
  13     269.0        9.1655        0.0165       10.7749       10.7913       1.625875       0.01683
  12     297.5        9.1841        0.0182       10.7357       10.7539       1.569730       0.01665
  11     328.5        9.2048        0.0200       10.6937       10.7137       1.508902       0.01654
  10     361.9        9.2278        0.0220       10.6489       10.6709       1.443052       0.01666
   9     398.1        9.2534        0.0241       10.6008       10.6249       1.371515       0.01667
   8     437.6        9.2820        0.0264       10.5491       10.5755       1.293460       0.01669
   7     480.5        9.3142        0.0289       10.4934       10.5223       1.208094       0.01677
   6     533.0        9.3562        0.0319       10.4243       10.4562       1.099979       0.01739
   5     589.8        9.4052        0.0352       10.3479       10.3830       0.977870       0.01813
   4     651.6        9.4640        0.0386       10.2613       10.3000       0.835988       0.01940
   3     718.7        9.5362        0.0424       10.1618       10.2041       0.667925       0.02112
   2     792.3        9.6282        0.0463       10.0439       10.0902       0.461980       0.02362
   1     891.5        1.0575        1.3848        0.0000        1.3848       0.327312       0.01146
   0    1013.0        1.0781        1.3578        0.0000        1.3578       0.279706       0.00331



 Wavenumbers:  8050. - 12850. cm-1, ATM      1
 LEVEL PRESSURE   UPWARD FLUX   DIFDOWN FLUX  DIRDOWN FLUX  DOWNWARD FLUX   NET FLUX    HEATING RATE
          mb          W/m2          W/m2          W/m2        W/m2          W/m2       degree/day
  51    .06700      118.4038        0.0000      156.5418      156.5418      38.137981       0.00000
  50    .07753      118.4038        0.0000      156.5417      156.5417      38.137981      -0.00000
  49    .09103      118.4037        0.0001      156.5417      156.5417      38.137981       0.00000
  48    0.1069      118.4037        0.0001      156.5416      156.5417      38.137981      -0.00000
  47    0.1255      118.4037        0.0002      156.5415      156.5417      38.137981       0.00000
  46    0.1487      118.4037        0.0002      156.5414      156.5417      38.137981      -0.00000
  45    0.1794      118.4037        0.0003      156.5413      156.5416      38.137981       0.00000
  44    0.2165      118.4036        0.0005      156.5412      156.5416      38.137981      -0.00000
  43    0.2613      118.4036        0.0006      156.5410      156.5416      38.137981       0.00000
  42    0.3336      118.4035        0.0008      156.5407      156.5415      38.137981       0.00000
  41    0.4307      118.4034        0.0011      156.5403      156.5414      38.137981      -0.00000
  40    0.5894      118.4033        0.0016      156.5397      156.5413      38.137981       0.00000
  39     1.339      118.4026        0.0039      156.5367      156.5406      38.137981      -0.00000
  38     1.782      118.4022        0.0052      156.5350      156.5402      38.137981      -0.00000
  37     2.292      118.4018        0.0068      156.5330      156.5397      38.137981       0.00000
  36     2.964      118.4012        0.0088      156.5303      156.5391      38.137981      -0.00000
  35     3.853      118.4004        0.0115      156.5268      156.5383      38.137981       0.00000
  34     5.035      118.3993        0.0151      156.5222      156.5373      38.137981       0.00000
  33     6.613      118.3979        0.0199      156.5160      156.5359      38.137981       0.00000
  32     8.786      118.3960        0.0263      156.5076      156.5340      38.137981      -0.00000
  31     11.80      118.3933        0.0356      156.4957      156.5312      38.137981       0.00000
  30     15.07      118.3903        0.0455      156.4828      156.5283      38.137981       0.00000
  29     18.79      118.3870        0.0567      156.4682      156.5250      38.137981      -0.00000
  28     23.16      118.3831        0.0699      156.4512      156.5211      38.137981       0.00000
  27     28.12      118.3787        0.0849      156.4317      156.5166      38.137981       0.00000
  26     33.73      118.3737        0.1018      156.4099      156.5116      38.137981       0.00000
  25     40.54      118.3676        0.1222      156.3834      156.5056      38.137981      -0.00000
  24     48.69      118.3604        0.1468      156.3515      156.4983      38.137981      -0.00000
  23     57.69      118.3523        0.1739      156.3164      156.4903      38.137981       0.00000
  22     68.43      118.3428        0.2062      156.2746      156.4808      38.137981      -0.00000
  21     81.20      118.3314        0.2448      156.2246      156.4694      38.137981       0.00000
  20     96.49      118.3177        0.2908      156.1649      156.4557      38.137981      -0.00000
  19     114.6      118.3018        0.3455      156.0879      156.4335      38.131671       0.00295
  18     136.5      118.2829        0.4106      155.9962      156.4068      38.123848       0.00301
  17     162.9      118.2604        0.4882      155.8831      156.3713      38.110890       0.00414
  16     196.4      118.2313        0.5892      155.7199      156.3091      38.077773       0.00834
  15     218.7      118.2128        0.6555      155.5733      156.2288      38.016057       0.02343
  14     243.0      118.1941        0.7277      155.3367      156.0644      37.870253       0.05057
  13     269.0      118.1775        0.8058      154.9514      155.7572      37.579737       0.09424
  12     297.5      118.1664        0.8899      154.3896      155.2795      37.113172       0.13838
  11     328.5      118.1631        0.9806      153.7151      154.6957      36.532652       0.15784
  10     361.9      118.1724        1.0780      152.9087      153.9868      35.814320       0.18175
   9     398.1      118.2025        1.1822      151.8986      153.0808      34.878382       0.21805
   8     437.6      118.2669        1.2931      150.6031      151.8963      33.629404       0.26704
   7     480.5      118.3825        1.4105      149.0014      150.4119      32.029392       0.31424
   6     533.0      118.6134        1.5526      146.7375      148.2902      29.676724       0.37847
   5     589.8      119.0282        1.7016      143.8730      145.5746      26.546461       0.46463
   4     651.6      119.8330        1.8546      140.0955      141.9501      22.117091       0.60573
   3     718.7      121.3427        2.0099      135.5278      137.5377      16.195017       0.74424
   2     792.3      124.3767        2.1635      130.0690      132.2325       7.855835       0.95641
   1     891.5       12.4769       16.3887        0.0000       16.3887       3.911772       0.33562
   0    1013.0       12.7205       16.0208        0.0000       16.0208       3.300285       0.04246



 Wavenumbers: 12850. - 16000. cm-1, ATM      1
 LEVEL PRESSURE   UPWARD FLUX   DIFDOWN FLUX  DIRDOWN FLUX  DOWNWARD FLUX   NET FLUX    HEATING RATE
          mb          W/m2          W/m2          W/m2        W/m2          W/m2       degree/day
  51    .06700       83.3003        0.0000       98.0872       98.0872      14.786947       0.00000
  50    .07753       83.3003        0.0001       98.0864       98.0864      14.786153       0.63617
  49    .09103       83.3003        0.0002       98.0853       98.0855      14.785156       0.62332
  48    0.1069       83.3003        0.0003       98.0841       98.0843      14.784009       0.61026
  47    0.1255       83.3003        0.0004       98.0826       98.0830      14.782691       0.59753
  46    0.1487       83.3004        0.0005       98.0809       98.0814      14.781026       0.60678
  45    0.1794       83.3004        0.0007       98.0784       98.0792      14.778760       0.62214
  44    0.2165       83.3005        0.0010       98.0756       98.0766      14.776092       0.60697
  43    0.2613       83.3007        0.0013       98.0723       98.0736      14.772951       0.59208
  42    0.3336       83.3010        0.0018       98.0670       98.0688      14.767818       0.59849
  41    0.4307       83.3014        0.0024       98.0602       98.0626      14.761169       0.57804
  40    0.5894       83.3023        0.0034       98.0496       98.0530      14.750670       0.55832
  39     1.339       83.3100        0.0083       98.0043       98.0127      14.702723       0.53980
  38     1.782       83.3168        0.0112       97.9793       97.9905      14.673695       0.55265
  37     2.292       83.3270        0.0146       97.9498       97.9643      14.637374       0.60156
  36     2.964       83.3437        0.0190       97.9088       97.9278      14.584062       0.66923
  35     3.853       83.3706        0.0247       97.8503       97.8751      14.504480       0.75525
  34     5.035       83.4110        0.0324       97.7680       97.8004      14.389378       0.82224
  33     6.613       83.4675        0.0427       97.6562       97.6989      14.231413       0.84448
  32     8.786       83.5410        0.0565       97.5107       97.5672      14.026210       0.79693
  31     11.80       83.6368        0.0762       97.3179       97.3941      13.757320       0.75281
  30     15.07       83.7288        0.0974       97.1283       97.2258      13.496967       0.67218
  29     18.79       83.8229        0.1213       96.9300       97.0513      13.228419       0.60888
  28     23.16       83.9216        0.1492       96.7166       96.8658      12.944185       0.54962
  27     28.12       84.0213        0.1811       96.4935       96.6746      12.653323       0.49445
  26     33.73       84.1140        0.2168       96.2731       96.4899      12.375932       0.41706
  25     40.54       84.2041        0.2600       96.0408       96.3007      12.096591       0.34655
  24     48.69       84.2917        0.3120       95.7946       96.1065      11.814882       0.29152
  23     57.69       84.3673        0.3691       95.5573       95.9264      11.559075       0.23978
  22     68.43       84.4353        0.4372       95.3106       95.7478      11.312546       0.19380
  21     81.20       84.4859        0.5185       95.0643       95.5828      11.096908       0.14249
  20     96.49       84.5182        0.6154       94.8153       95.4307      10.912478       0.10179
  19     114.6       84.5534        0.7316       94.5411       95.2726      10.719230       0.09023
  18     136.5       84.5835        0.8692       94.2320       95.1013      10.517774       0.07746
  17     162.9       84.6089        1.0332       93.8753       94.9085      10.299583       0.06974
  16     196.4       84.6195        1.2458       93.4347       94.6805      10.061016       0.06005
  15     218.7       84.6186        1.3855       93.1513       94.5368       9.918125       0.05425
  14     243.0       84.6148        1.5373       92.8439       94.3812       9.766430       0.05261
  13     269.0       84.6082        1.7018       92.5111       94.2129       9.604731       0.05245
  12     297.5       84.5998        1.8796       92.1495       94.0290       9.429204       0.05206
  11     328.5       84.5922        2.0716       91.7554       93.8270       9.234779       0.05286
  10     361.9       84.5870        2.2784       91.3262       93.6046       9.017648       0.05494
   9     398.1       84.5863        2.5009       90.8575       93.3584       8.772061       0.05722
   8     437.6       84.5948        2.7396       90.3418       93.0814       8.486615       0.06103
   7     480.5       84.6169        2.9953       89.7728       92.7681       8.151201       0.06587
   6     533.0       84.6687        3.3096       89.0428       92.3524       7.683713       0.07520
   5     589.8       84.7693        3.6472       88.2038       91.8510       7.081707       0.08936
   4     651.6       84.9673        4.0074       87.1979       91.2054       6.238114       0.11536
   3     718.7       85.3026        4.3891       86.0161       90.4053       5.102682       0.14269
   2     792.3       85.8911        4.7883       84.5970       89.3854       3.494278       0.18447
   1     891.5       20.1045       22.5837        0.0000       22.5837       2.479161       0.08638
   0    1013.0       20.2766       22.3631        0.0000       22.3631       2.086478       0.02727



 Wavenumbers: 16000. - 22650. cm-1, ATM      1
 LEVEL PRESSURE   UPWARD FLUX   DIFDOWN FLUX  DIRDOWN FLUX  DOWNWARD FLUX   NET FLUX    HEATING RATE
          mb          W/m2          W/m2          W/m2        W/m2          W/m2       degree/day
  51    .06700      141.2534        0.0000      156.3892      156.3892      15.135829       0.00000
  50    .07753      141.2534        0.0004      156.3887      156.3891      15.135681       0.11858
  49    .09103      141.2534        0.0009      156.3879      156.3888      15.135466       0.13449
  48    0.1069      141.2534        0.0015      156.3871      156.3885      15.135178       0.15336
  47    0.1255      141.2534        0.0021      156.3861      156.3882      15.134792       0.17481
  46    0.1487      141.2534        0.0030      156.3847      156.3877      15.134224       0.20715
  45    0.1794      141.2536        0.0041      156.3828      156.3869      15.133336       0.24391
  44    0.2165      141.2538        0.0054      156.3805      156.3859      15.132131       0.27412
  43    0.2613      141.2542        0.0070      156.3776      156.3846      15.130496       0.30818
  42    0.3336      141.2549        0.0097      156.3726      156.3823      15.127387       0.36242
  41    0.4307      141.2562        0.0132      156.3657      156.3789      15.122702       0.40740
  40    0.5894      141.2588        0.0189      156.3537      156.3725      15.113766       0.47521
  39     1.339      141.2815        0.0459      156.2834      156.3293      15.047745       0.74327
  38     1.782      141.3026        0.0617      156.2324      156.2941      14.991503       1.07075
  37     2.292      141.3341        0.0801      156.1641      156.2442      14.910092       1.34837
  36     2.964      141.3864        0.1041      156.0605      156.1646      14.778206       1.65557
  35     3.853      141.4711        0.1359      155.9041      156.0400      14.568934       1.98603
  34     5.035      141.5988        0.1781      155.6774      155.8555      14.256714       2.23036
  33     6.613      141.7772        0.2344      155.3656      155.6000      13.822818       2.31961
  32     8.786      142.0096        0.3102      154.9577      155.2678      13.258215       2.19271
  31     11.80      142.3121        0.4184      154.4153      154.8336      12.521545       2.06244
  30     15.07      142.6019        0.5344      153.8804      154.4148      11.812883       1.82963
  29     18.79      142.8978        0.6653      153.3191      153.9844      11.086562       1.64679
  28     23.16      143.2071        0.8179      152.7126      153.5305      10.323374       1.47576
  27     28.12      143.5183        0.9922      152.0755      153.0677       9.549364       1.31577
  26     33.73      143.8056        1.1870      151.4409      152.6280       8.822326       1.09312
  25     40.54      144.0822        1.4223      150.7637      152.1859       8.103740       0.89149
  24     48.69      144.3470        1.7055      150.0338      151.7393       7.392320       0.73621
  23     57.69      144.5716        2.0163      149.3151      151.3314       6.759786       0.59290
  22     68.43      144.7676        2.3860      148.5476      150.9336       6.165996       0.46680
  21     81.20      144.9031        2.8262      147.7517      150.5779       5.674787       0.32458
  20     96.49      144.9736        3.3503      146.9127      150.2629       5.289307       0.21276
  19     114.6      145.0104        3.9707      145.9763      149.9470       4.936608       0.16469
  18     136.5      145.0224        4.7033      144.9088      149.6121       4.589640       0.13342
  17     162.9      145.0081        5.5716      143.6785      149.2501       4.242075       0.11110
  16     196.4      144.9275        6.6920      142.1651      148.8570       3.929470       0.07869
  15     218.7      144.8520        7.4241      141.2033      148.6275       3.775455       0.05847
  14     243.0      144.7595        8.2166      140.1753      148.3919       3.632382       0.04962
  13     269.0      144.6485        9.0715      139.0797      148.1511       3.502639       0.04209
  12     297.5      144.5184        9.9909      137.9141      147.9049       3.386565       0.03443
  11     328.5      144.3732       10.9791      136.6676      147.6467       3.273477       0.03075
  10     361.9      144.2128       12.0371      135.3392      147.3763       3.163479       0.02783
   9     398.1      144.0367       13.1689      133.9235      147.0923       3.055609       0.02513
   8     437.6      143.8460       14.3764      132.4163      146.7926       2.946613       0.02330
   7     480.5      143.6405       15.6619      130.8147      146.4766       2.836093       0.02171
   6     533.0      143.3882       17.2320      128.8599      146.0919       2.703696       0.02130
   5     589.8      143.1214       18.9096      126.7679      145.6775       2.556146       0.02190
   4     651.6      142.8475       20.6963      124.5274      145.2237       2.376193       0.02461
   3     718.7      142.5740       22.5938      122.1285      144.7222       2.148196       0.02865
   2     792.3      142.3202       24.5999      119.5548      144.1547       1.834497       0.03598
   1     891.5       92.5218       94.0271        0.0000       94.0271       1.505349       0.02801
   0    1013.0       92.6604       93.8524        0.0000       93.8524       1.191925       0.02176



 Wavenumbers: 22650. - 29000. cm-1, ATM      1
 LEVEL PRESSURE   UPWARD FLUX   DIFDOWN FLUX  DIRDOWN FLUX  DOWNWARD FLUX   NET FLUX    HEATING RATE
          mb          W/m2          W/m2          W/m2        W/m2          W/m2       degree/day
  51    .06700       58.5043        0.0000       59.0156       59.0156       0.511327       0.00000
  50    .07753       58.5042        0.0005       59.0151       59.0155       0.511327      -0.00000
  49    .09103       58.5041        0.0010       59.0144       59.0154       0.511327       0.00000
  48    0.1069       58.5040        0.0017       59.0136       59.0153       0.511327       0.00000
  47    0.1255       58.5038        0.0025       59.0127       59.0151       0.511327       0.00000
  46    0.1487       58.5036        0.0034       59.0115       59.0149       0.511327       0.00000
  45    0.1794       58.5034        0.0048       59.0099       59.0147       0.511327       0.00000
  44    0.2165       58.5031        0.0063       59.0080       59.0144       0.511327       0.00000
  43    0.2613       58.5027        0.0082       59.0058       59.0140       0.511327       0.00000
  42    0.3336       58.5021        0.0113       59.0022       59.0134       0.511327      -0.00000
  41    0.4307       58.5013        0.0153       58.9973       59.0126       0.511327       0.00000
  40    0.5894       58.5000        0.0220       58.9894       59.0113       0.511327       0.00000
  39     1.339       58.4939        0.0535       58.9518       59.0052       0.511327      -0.00000
  38     1.782       58.4903        0.0719       58.9297       59.0017       0.511327       0.00000
  37     2.292       58.4862        0.0933       58.9042       58.9975       0.511327       0.00000
  36     2.964       58.4807        0.1214       58.8706       58.9921       0.511327      -0.00000
  35     3.853       58.4735        0.1585       58.8264       58.9849       0.511327       0.00000
  34     5.035       58.4640        0.2077       58.7676       58.9753       0.511327       0.00000
  33     6.613       58.4512        0.2735       58.6891       58.9626       0.511327      -0.00000
  32     8.786       58.4341        0.3620       58.5834       58.9454       0.511327       0.00000
  31     11.80       58.4095        0.4884       58.4324       58.9209       0.511327       0.00000
  30     15.07       58.3832        0.6239       58.2706       58.8946       0.511327       0.00000
  29     18.79       58.3536        0.7767       58.0882       58.8649       0.511327       0.00000
  28     23.16       58.3191        0.9547       57.8757       58.8304       0.511327       0.00000
  27     28.12       58.2797        1.1577       57.6333       58.7910       0.511327       0.00000
  26     33.73       58.2357        1.3840       57.3631       58.7471       0.511327       0.00000
  25     40.54       58.1829        1.6563       57.0379       58.6942       0.511327      -0.00000
  24     48.69       58.1195        1.9829       56.6479       58.6308       0.511327       0.00000
  23     57.69       58.0502        2.3395       56.2221       58.5616       0.511327       0.00000
  22     68.43       57.9683        2.7611       55.7186       58.4797       0.511327      -0.00000
  21     81.20       57.8716        3.2590       55.1239       58.3829       0.511327       0.00000
  20     96.49       57.7575        3.8461       54.4228       58.2689       0.511327       0.00000
  19     114.6       57.6238        4.5341       53.6010       58.1351       0.511327       0.00000
  18     136.5       57.4676        5.3372       52.6418       57.9789       0.511327      -0.00000
  17     162.9       57.2850        6.2759       51.5203       57.7963       0.511327       0.00000
  16     196.4       57.0534        7.4653       50.0994       57.5647       0.511327      -0.00000
  15     218.7       56.9045        8.2295       49.1863       57.4158       0.511327      -0.00000
  14     243.0       56.7454        9.0455       48.2113       57.2567       0.511327       0.00000
  13     269.0       56.5762        9.9126       47.1749       57.0876       0.511327      -0.00000
  12     297.5       56.3971       10.8302       46.0783       56.9085       0.511327      -0.00000
  11     328.5       56.2078       11.7996       44.9195       56.7191       0.511327       0.00000
  10     361.9       56.0086       12.8181       43.7018       56.5200       0.511327      -0.00000
   9     398.1       55.7997       13.8860       42.4250       56.3110       0.511327      -0.00000
   8     437.6       55.5813       15.0010       41.0916       56.0926       0.511327       0.00000
   7     480.5       55.3538       16.1607       39.7045       55.8651       0.511327       0.00000
   6     533.0       55.0829       17.5400       38.0543       55.5943       0.511327      -0.00000
   5     589.8       54.8017       18.9699       36.3431       55.3130       0.511327       0.00000
   4     651.6       54.5113       20.4431       34.5795       55.0226       0.511327       0.00000
   3     718.7       54.2129       21.9540       32.7702       54.7242       0.511327       0.00000
   2     792.3       53.9080       23.4938       30.9256       54.4193       0.511327      -0.00000
   1     891.5       39.4220       39.9288        0.0000       39.9288       0.506872       0.00038
   0    1013.0       39.4043       39.9112        0.0000       39.9112       0.506872       0.00000



 Wavenumbers: 29000. - 38000. cm-1, ATM      1
 LEVEL PRESSURE   UPWARD FLUX   DIFDOWN FLUX  DIRDOWN FLUX  DOWNWARD FLUX   NET FLUX    HEATING RATE
          mb          W/m2          W/m2          W/m2        W/m2          W/m2       degree/day
  51    .06700        8.7677        0.0000       20.8114       20.8114      12.043655       0.00000
  50    .07753        8.7675        0.0003       20.8070       20.8074      12.039847       3.05159
  49    .09103        8.7673        0.0007       20.8009       20.8016      12.034310       3.46089
  48    0.1069        8.7670        0.0012       20.7928       20.7939      12.026900       3.94434
  47    0.1255        8.7668        0.0017       20.7820       20.7837      12.016995       4.49040
  46    0.1487        8.7664        0.0024       20.7665       20.7688      12.002432       5.30851
  45    0.1794        8.7659        0.0033       20.7424       20.7457      11.979767       6.22212
  44    0.2165        8.7654        0.0044       20.7103       20.7147      11.949244       6.94350
  43    0.2613        8.7649        0.0056       20.6675       20.6731      11.908248       7.72743
  42    0.3336        8.7640        0.0077       20.5880       20.5957      11.831686       8.92638
  41    0.4307        8.7629        0.0104       20.4722       20.4826      11.719732       9.73417
  40    0.5894        8.7613        0.0147       20.2637       20.2784      11.517045      10.77864
  39     1.339        8.7580        0.0331       19.0984       19.1315      10.373544      12.87375
  38     1.782        8.7585        0.0427       18.4394       18.4821       9.723598      12.37391
  37     2.292        8.7612        0.0530       17.7714       17.8244       9.063223      10.93753
  36     2.964        8.7678        0.0657       17.0421       17.1078       8.340051       9.07800
  35     3.853        8.7807        0.0816       16.2678       16.3495       7.568794       7.31937
  34     5.035        8.8019        0.1018       15.4803       15.5821       6.780182       5.63352
  33     6.613        8.8329        0.1276       14.7157       14.8433       6.010430       4.11510
  32     8.786        8.8737        0.1614       13.9936       14.1549       5.281251       2.83187
  31     11.80        8.9270        0.2084       13.2835       13.4920       4.564969       2.00536
  30     15.07        8.9785        0.2573       12.7394       12.9966       4.018162       1.41175
  29     18.79        9.0316        0.3114       12.2666       12.5780       3.546345       1.06975
  28     23.16        9.0882        0.3729       11.8300       12.2030       3.114779       0.83451
  27     28.12        9.1461        0.4419       11.4279       11.8697       2.723608       0.66496
  26     33.73        9.1997        0.5178       11.0695       11.5873       2.387608       0.50519
  25     40.54        9.2506        0.6086       10.7209       11.3295       2.078901       0.38298
  24     48.69        9.2987        0.7163       10.3742       11.0905       1.791755       0.29715
  23     57.69        9.3384        0.8329       10.0549       10.8878       1.549417       0.22716
  22     68.43        9.3706        0.9696        9.7327       10.7024       1.331785       0.17109
  21     81.20        9.3864        1.1311        9.4134       10.5446       1.158184       0.11471
  20     96.49        9.3837        1.3210        9.0887       10.4097       1.025986       0.07296
  19     114.6        9.3709        1.5404        8.7388       10.2792       0.908272       0.05496
  18     136.5        9.3508        1.7912        8.3549       10.1461       0.795279       0.04345
  17     162.9        9.3237        2.0771        7.9311       10.0083       0.684596       0.03538
  16     196.4        9.2776        2.4314        7.4333        9.8647       0.587123       0.02454
  15     218.7        9.2442        2.6542        7.1295        9.7838       0.539562       0.01806
  14     243.0        9.2076        2.8872        6.8161        9.7032       0.495630       0.01524
  13     269.0        9.1676        3.1294        6.4943        9.6237       0.456169       0.01280
  12     297.5        9.1242        3.3798        6.1657        9.5456       0.421369       0.01032
  11     328.5        9.0789        3.6375        5.8295        9.4670       0.388038       0.00906
  10     361.9        9.0323        3.8999        5.4886        9.3886       0.356325       0.00802
   9     398.1        8.9842        4.1665        5.1440        9.3105       0.326257       0.00701
   8     437.6        8.9355        4.4358        4.7969        9.2327       0.297257       0.00620
   7     480.5        8.8863        4.7056        4.4504        9.1560       0.269716       0.00541
   6     533.0        8.8299        5.0133        4.0563        9.0696       0.239673       0.00483
   5     589.8        8.7744        5.3168        3.6682        8.9850       0.210565       0.00432
   4     651.6        8.7208        5.6124        3.2905        8.9029       0.182064       0.00390
   3     718.7        8.6696        5.8985        2.9252        8.8237       0.154125       0.00351
   2     792.3        8.6215        6.1718        2.5764        8.7483       0.126752       0.00314
   1     891.5        6.1054        6.2060        0.0000        6.2060       0.100596       0.00223
   0    1013.0        6.1097        6.1883        0.0000        6.1883       0.078592       0.00153



 Wavenumbers: 38000. - 50000. cm-1, ATM      1
 LEVEL PRESSURE   UPWARD FLUX   DIFDOWN FLUX  DIRDOWN FLUX  DOWNWARD FLUX   NET FLUX    HEATING RATE
          mb          W/m2          W/m2          W/m2        W/m2          W/m2       degree/day
  51    .06700        0.0061        0.0000        1.2836        1.2836       1.277518       0.00000
  50    .07753        0.0061        0.0001        1.2812        1.2812       1.275183       1.87150
  49    .09103        0.0060        0.0002        1.2777        1.2778       1.271851       2.08247
  48    0.1069        0.0059        0.0002        1.2731        1.2734       1.267473       2.33059
  47    0.1255        0.0058        0.0004        1.2672        1.2675       1.261717       2.60908
  46    0.1487        0.0057        0.0005        1.2586        1.2591       1.253391       3.03499
  45    0.1794        0.0055        0.0007        1.2455        1.2462       1.240623       3.50520
  44    0.2165        0.0054        0.0009        1.2282        1.2291       1.223697       3.85037
  43    0.2613        0.0052        0.0011        1.2054        1.2065       1.201348       4.21261
  42    0.3336        0.0049        0.0015        1.1639        1.1654       1.160524       4.75970
  41    0.4307        0.0045        0.0020        1.1051        1.1070       1.102565       5.03943
  40    0.5894        0.0039        0.0026        1.0039        1.0064       1.002524       5.32007
  39     1.339        0.0022        0.0035        0.5438        0.5473       0.545104       5.14971
  38     1.782        0.0016        0.0032        0.3635        0.3666       0.365006       3.42879
  37     2.292        0.0012        0.0027        0.2356        0.2383       0.237058       2.11916
  36     2.964        0.0009        0.0022        0.1455        0.1477       0.146786       1.13318
  35     3.853        0.0006        0.0017        0.0858        0.0875       0.086906       0.56828
  34     5.035        0.0004        0.0013        0.0488        0.0501       0.049701       0.26578
  33     6.613        0.0003        0.0010        0.0273        0.0282       0.027974       0.11615
  32     8.786        0.0002        0.0007        0.0144        0.0151       0.014928       0.05067
  31     11.80        0.0001        0.0004        0.0065        0.0070       0.006903       0.02247
  30     15.07        0.0000        0.0003        0.0031        0.0034       0.003329       0.00923
  29     18.79        0.0000        0.0002        0.0014        0.0016       0.001583       0.00396
  28     23.16        0.0000        0.0001        0.0006        0.0007       0.000720       0.00167
  27     28.12        0.0000        0.0001        0.0003        0.0003       0.000317       0.00069
  26     33.73        0.0000        0.0000        0.0001        0.0001       0.000140       0.00027
  25     40.54        0.0000        0.0000        0.0000        0.0001       0.000057       0.00010
  24     48.69        0.0000        0.0000        0.0000        0.0000       0.000021       0.00004
  23     57.69        0.0000        0.0000        0.0000        0.0000       0.000008       0.00001
  22     68.43        0.0000        0.0000        0.0000        0.0000       0.000003       0.00000
  21     81.20        0.0000        0.0000        0.0000        0.0000       0.000001       0.00000
  20     96.49        0.0000        0.0000        0.0000        0.0000       0.000000       0.00000
  19     114.6        0.0000        0.0000        0.0000        0.0000       0.000000       0.00000
  18     136.5        0.0000        0.0000        0.0000        0.0000       0.000000       0.00000
  17     162.9        0.0000        0.0000        0.0000        0.0000       0.000000       0.00000
  16     196.4        0.0000        0.0000        0.0000        0.0000       0.000000       0.00000
  15     218.7        0.0000        0.0000        0.0000        0.0000       0.000000       0.00000
  14     243.0        0.0000        0.0000        0.0000        0.0000       0.000000       0.00000
  13     269.0        0.0000        0.0000        0.0000        0.0000       0.000000       0.00000
  12     297.5        0.0000        0.0000        0.0000        0.0000       0.000000       0.00000
  11     328.5        0.0000        0.0000        0.0000        0.0000       0.000000       0.00000
  10     361.9        0.0000        0.0000        0.0000        0.0000       0.000000       0.00000
   9     398.1        0.0000        0.0000        0.0000        0.0000       0.000000       0.00000
   8     437.6        0.0000        0.0000        0.0000        0.0000       0.000000       0.00000
   7     480.5        0.0000        0.0000        0.0000        0.0000       0.000000       0.00000
   6     533.0        0.0000        0.0000        0.0000        0.0000       0.000000       0.00000
   5     589.8        0.0000        0.0000        0.0000        0.0000       0.000000       0.00000
   4     651.6        0.0000        0.0000        0.0000        0.0000       0.000000       0.00000
   3     718.7        0.0000        0.0000        0.0000        0.0000       0.000000       0.00000
   2     792.3        0.0000        0.0000        0.0000        0.0000       0.000000       0.00000
   1     891.5        0.0000        0.0000        0.0000        0.0000       0.000000       0.00000
   0    1013.0        0.0000        0.0000        0.0000        0.0000       0.000000       0.00000



 Wavenumbers:   820. -  2600. cm-1, ATM      1
 LEVEL PRESSURE   UPWARD FLUX   DIFDOWN FLUX  DIRDOWN FLUX  DOWNWARD FLUX   NET FLUX    HEATING RATE
          mb          W/m2          W/m2          W/m2        W/m2          W/m2       degree/day
  51    .06700        1.7666        0.0000        6.0047        6.0047       4.238033       0.00000
  50    .07753        1.7666        0.0000        6.0008        6.0008       4.234180       3.08826
  49    .09103        1.7666        0.0000        5.9999        5.9999       4.233294       0.55363
  48    0.1069        1.7666        0.0000        5.9989        5.9989       4.232305       0.52657
  47    0.1255        1.7666        0.0000        5.9978        5.9978       4.231187       0.50655
  46    0.1487        1.7666        0.0000        5.9964        5.9964       4.229831       0.49462
  45    0.1794        1.7666        0.0000        5.9947        5.9947       4.228111       0.47206
  44    0.2165        1.7666        0.0000        5.9929        5.9929       4.226268       0.41916
  43    0.2613        1.7666        0.0000        5.9909        5.9909       4.224309       0.36939
  42    0.3336        1.7666        0.0000        5.9880        5.9880       4.221430       0.33563
  41    0.4307        1.7666        0.0000        5.9846        5.9846       4.217960       0.30171
  40    0.5894        1.7666        0.0000        5.9791        5.9791       4.212453       0.29283
  39     1.339        1.7666        0.0000        5.9536        5.9536       4.186960       0.28701
  38     1.782        1.7666        0.0000        5.9395        5.9395       4.172818       0.26924
  37     2.292        1.7666        0.0000        5.9237        5.9237       4.157062       0.26095
  36     2.964        1.7667        0.0000        5.9039        5.9039       4.137282       0.24829
  35     3.853        1.7667        0.0000        5.8793        5.8793       4.112619       0.23406
  34     5.035        1.7667        0.0000        5.8487        5.8487       4.082046       0.21840
  33     6.613        1.7667        0.0000        5.8108        5.8108       4.044068       0.20303
  32     8.786        1.7667        0.0000        5.7631        5.7631       3.996427       0.18502
  31     11.80        1.7668        0.0000        5.7039        5.7039       3.937144       0.16597
  30     15.07        1.7668        0.0000        5.6539        5.6539       3.887076       0.12926
  29     18.79        1.7668        0.0000        5.6127        5.6127       3.845907       0.09334
  28     23.16        1.7669        0.0000        5.5794        5.5794       3.812492       0.06462
  27     28.12        1.7669        0.0000        5.5518        5.5518       3.784878       0.04694
  26     33.73        1.7670        0.0000        5.5268        5.5268       3.759772       0.03775
  25     40.54        1.7671        0.0000        5.4993        5.4993       3.732263       0.03413
  24     48.69        1.7672        0.0000        5.4678        5.4678       3.700642       0.03272
  23     57.69        1.7673        0.0000        5.4340        5.4340       3.666763       0.03176
  22     68.43        1.7674        0.0000        5.3947        5.3948       3.627379       0.03096
  21     81.20        1.7675        0.0000        5.3497        5.3497       3.582210       0.02985
  20     96.49        1.7677        0.0000        5.2982        5.2982       3.530527       0.02853
  19     114.6        1.7679        0.0000        5.2389        5.2389       3.470995       0.02780
  18     136.5        1.7682        0.0000        5.1716        5.1717       3.403473       0.02596
  17     162.9        1.7686        0.0000        5.0890        5.0891       3.320464       0.02653
  16     196.4        1.7693        0.0000        4.9668        4.9668       3.197568       0.03093
  15     218.7        1.7699        0.0000        4.8585        4.8585       3.088551       0.04139
  14     243.0        1.7710        0.0000        4.7078        4.7079       2.936878       0.05261
  13     269.0        1.7726        0.0000        4.5343        4.5343       2.761733       0.05682
  12     297.5        1.7751        0.0000        4.3419        4.3420       2.566911       0.05778
  11     328.5        1.7784        0.0000        4.1281        4.1281       2.349737       0.05905
  10     361.9        1.7829        0.0000        3.8786        3.8787       2.095822       0.06424
   9     398.1        1.7886        0.0000        3.6159        3.6160       1.827339       0.06255
   8     437.6        1.7961        0.0000        3.3759        3.3759       1.579816       0.05292
   7     480.5        1.8052        0.0000        3.1957        3.1958       1.390560       0.03717
   6     533.0        1.8191        0.0000        3.0467        3.0467       1.227570       0.02622
   5     589.8        1.8397        0.0001        2.9023        2.9023       1.062622       0.02448
   4     651.6        1.8755        0.0001        2.7183        2.7184       0.842845       0.03006
   3     718.7        1.9382        0.0001        2.5058        2.5059       0.567676       0.03458
   2     792.3        2.0623        0.0001        2.2756        2.2757       0.213402       0.04063
   1     891.5        0.0625        0.1080        0.0000        0.1080       0.045582       0.01428
   0    1013.0        0.0729        0.0918        0.0000        0.0918       0.018921       0.00185

  Modules and versions used in this calculation:

       rrtmg_sw.1col.f90:  $Revision$                    rrtmg_sw_init.f90:  $Revision$        
     rrtmgsw_cldprop.f90:  $Revision$                  rrtmgsw_cldprmc.f90:  NOT USED          
     rrtmg_sw_reftra.f90:  $Revision$                  rrtmg_sw_spcvrt.f90:  NOT USED          
     rrtmg_sw_spcvmc.f90:  NOT USED                    rrtmgsw_setcoef.f90:  NOT USED          
     rrtmg_sw_taumol.f90:  $Revision$                  rrtmg_sw_vrtqdr.f90:  NOT USED          
                rrtatm.f:  NOT USED                             util_xxx.f:  NOT USED          
                 extra.f:  NOT USED                       rrtmg_sw_k_g.f90:  $Revision$        

