

 Wavenumbers:   820. - 50000. cm-1, ATM      1
 LEVEL PRESSURE   UPWARD FLUX   DIFDOWN FLUX  DIRDOWN FLUX  DOWNWARD FLUX   NET FLUX    HEATING RATE
          mb          W/m2          W/m2          W/m2        W/m2          W/m2       degree/day
  51    .06700      446.8206        0.0000      617.8126      617.8126     170.991958       0.00000
  50    .07753      446.8203        0.0014      617.7947      617.7961     170.975815      12.93864
  49    .09103      446.8198        0.0031      617.7778      617.7808     170.961002       9.25874
  48    0.1069      446.8193        0.0050      617.7581      617.7631     170.943735       9.19078
  47    0.1255      446.8188        0.0072      617.7340      617.7412     170.922385       9.67927
  46    0.1487      446.8183        0.0101      617.7009      617.7110     170.892691      10.82368
  45    0.1794      446.8176        0.0139      617.6521      617.6660     170.848448      12.14577
  44    0.2165      446.8169        0.0185      617.5895      617.6080     170.791111      13.04320
  43    0.2613      446.8162        0.0239      617.5089      617.5328     170.716578      14.04926
  42    0.3336      446.8154        0.0327      617.3641      617.3968     170.581454      15.75406
  41    0.4307      446.8147        0.0444      617.1591      617.2035     170.388774      16.75308
  40    0.5894      446.8147        0.0632      616.8005      616.8637     170.048978      18.06992
  39     1.339      446.8329        0.1483      614.9443      615.0926     168.259641      20.14469
  38     1.782      446.8564        0.1962      613.9670      614.1632     167.306788      18.14077
  37     2.292      446.8953        0.2507      613.0059      613.2566     166.361335      15.65918
  36     2.964      446.9637        0.3216      611.9577      612.2792     165.315514      13.12821
  35     3.853      447.0785        0.4145      610.8024      611.2169     164.138387      11.17115
  34     5.035      447.2549        0.5371      609.5327      610.0698     162.814859       9.45474
  33     6.613      447.5034        0.6998      608.1464      608.8462     161.342860       7.86931
  32     8.786      447.8271        0.9181      606.6250      607.5432     159.716104       6.31773
  31     11.80      448.2464        1.2290      604.8486      606.0776     157.831277       5.27692
  30     15.07      448.6456        1.5607      603.2440      604.8047     156.159059       4.31734
  29     18.79      449.0511        1.9340      601.6511      603.5851     154.534007       3.68449
  28     23.16      449.4723        2.3677      599.9927      602.3604     152.888111       3.18263
  27     28.12      449.8925        2.8613      598.2881      601.1494     151.256914       2.77293
  26     33.73      450.2729        3.4117      596.5951      600.0068     149.733852       2.28996
  25     40.54      450.6280        4.0743      594.7727      598.8470     148.219046       1.87929
  24     48.69      450.9547        4.8695      592.7865      597.6560     146.701263       1.57067
  23     57.69      451.2153        5.7387      590.7959      596.5346     145.319260       1.29542
  22     68.43      451.4192        6.7685      588.6191      595.3876     143.968444       1.06192
  21     81.20      451.5139        7.9895      586.2690      594.2585     142.744595       0.80870
  20     96.49      451.4895        9.4352      583.6961      593.1313     141.641842       0.60864
  19     114.6      451.4053       11.1361      580.7708      591.9070     140.501616       0.53241
  18     136.5      451.2608       13.1279      577.4359      590.5638     139.303041       0.46088
  17     162.9      451.0506       15.4655      573.5624      589.0280     137.977362       0.42374
  16     196.4      450.6904       18.4469      568.5907      587.0376     136.347241       0.41032
  15     218.7      450.4257       20.3747      565.0572      585.4319     135.006196       0.50915
  14     243.0      450.1308       22.4426      560.7495      583.1921     133.061267       0.67457
  13     269.0      449.8075       24.6519      555.3947      580.0466     130.239109       0.91549
  12     297.5      449.4621       27.0035      548.9964      575.9999     126.537733       1.09779
  11     328.5      449.1053       29.5038      542.0895      571.5933     122.488009       1.10111
  10     361.9      448.7459       32.1491      534.6242      566.7733     118.027400       1.12858
   9     398.1      448.3963       34.9440      526.4204      561.3644     112.968124       1.17870
   8     437.6      448.0807       37.8872      517.3907      555.2778     107.197112       1.23388
   7     480.5      447.8255       40.9768      507.7216      548.6984     100.872901       1.24205
   6     533.0      447.6668       44.6918      495.9006      540.5924      92.925637       1.27846
   5     589.8      447.7803       48.5906      483.0788      531.6694      83.889134       1.34131
   4     651.6      448.4956       52.6604      468.6907      521.3511      72.855528       1.50888
   3     718.7      450.2818       56.8931      453.2257      510.1188      59.837070       1.63606
   2     792.3      454.3921       61.2664      436.4928      497.7593      43.367165       1.88891
   1     891.5      284.7110      315.1482        0.0617      315.2099      30.498914       1.09503
   0    1013.0      287.4055      310.3543        0.0579      310.4122      23.006635       0.52023



 Wavenumbers:  2600. -  3250. cm-1, ATM      1
 LEVEL PRESSURE   UPWARD FLUX   DIFDOWN FLUX  DIRDOWN FLUX  DOWNWARD FLUX   NET FLUX    HEATING RATE
          mb          W/m2          W/m2          W/m2        W/m2          W/m2       degree/day
  51    .06700        1.8400        0.0000        5.4450        5.4450       3.605000       0.00000
  50    .07753        1.8400        0.0000        5.4450        5.4450       3.604992       0.00640
  49    .09103        1.8400        0.0000        5.4450        5.4450       3.604982       0.00627
  48    0.1069        1.8400        0.0000        5.4450        5.4450       3.604971       0.00613
  47    0.1255        1.8400        0.0000        5.4450        5.4450       3.604957       0.00599
  46    0.1487        1.8400        0.0000        5.4450        5.4450       3.604941       0.00608
  45    0.1794        1.8400        0.0000        5.4450        5.4450       3.604918       0.00625
  44    0.2165        1.8400        0.0000        5.4449        5.4449       3.604891       0.00612
  43    0.2613        1.8400        0.0000        5.4449        5.4449       3.604859       0.00600
  42    0.3336        1.8400        0.0000        5.4448        5.4448       3.604806       0.00617
  41    0.4307        1.8400        0.0000        5.4448        5.4448       3.604735       0.00620
  40    0.5894        1.8400        0.0000        5.4446        5.4446       3.604615       0.00637
  39     1.339        1.8400        0.0000        5.4439        5.4439       3.603908       0.00797
  38     1.782        1.8400        0.0000        5.4434        5.4434       3.603365       0.01034
  37     2.292        1.8400        0.0000        5.4427        5.4427       3.602649       0.01186
  36     2.964        1.8400        0.0000        5.4416        5.4416       3.601610       0.01304
  35     3.853        1.8400        0.0000        5.4402        5.4402       3.600133       0.01402
  34     5.035        1.8400        0.0000        5.4381        5.4381       3.598077       0.01469
  33     6.613        1.8400        0.0000        5.4353        5.4353       3.595295       0.01487
  32     8.786        1.8400        0.0000        5.4317        5.4317       3.591662       0.01411
  31     11.80        1.8400        0.0000        5.4269        5.4269       3.586880       0.01339
  30     15.07        1.8400        0.0000        5.4224        5.4224       3.582351       0.01169
  29     18.79        1.8400        0.0000        5.4180        5.4180       3.577935       0.01001
  28     23.16        1.8400        0.0000        5.4135        5.4135       3.573444       0.00869
  27     28.12        1.8401        0.0000        5.4088        5.4088       3.568788       0.00791
  26     33.73        1.8401        0.0000        5.4036        5.4036       3.563535       0.00790
  25     40.54        1.8401        0.0000        5.3966        5.3967       3.556575       0.00863
  24     48.69        1.8401        0.0000        5.3872        5.3872       3.547071       0.00984
  23     57.69        1.8402        0.0000        5.3754        5.3754       3.535248       0.01108
  22     68.43        1.8402        0.0000        5.3599        5.3599       3.519704       0.01222
  21     81.20        1.8403        0.0000        5.3401        5.3401       3.499791       0.01316
  20     96.49        1.8404        0.0000        5.3155        5.3155       3.475112       0.01362
  19     114.6        1.8406        0.0001        5.2853        5.2854       3.444760       0.01417
  18     136.5        1.8408        0.0001        5.2504        5.2505       3.409635       0.01351
  17     162.9        1.8412        0.0001        5.2111        5.2112       3.369976       0.01268
  16     196.4        1.8418        0.0001        5.1640        5.1641       3.322361       0.01199
  15     218.7        1.8423        0.0001        5.1331        5.1332       3.290872       0.01196
  14     243.0        1.8433        0.0001        5.0962        5.0963       3.253038       0.01312
  13     269.0        1.8448        0.0001        5.0511        5.0512       3.206456       0.01511
  12     297.5        1.8470        0.0001        4.9956        4.9957       3.148750       0.01711
  11     328.5        1.8501        0.0001        4.9304        4.9305       3.080406       0.01858
  10     361.9        1.8544        0.0002        4.8511        4.8513       2.996841       0.02114
   9     398.1        1.8604        0.0002        4.7507        4.7508       2.890475       0.02478
   8     437.6        1.8687        0.0002        4.6220        4.6222       2.753525       0.02928
   7     480.5        1.8803        0.0002        4.4625        4.4627       2.582399       0.03361
   6     533.0        1.8992        0.0002        4.2460        4.2462       2.347008       0.03787
   5     589.8        1.9284        0.0002        3.9954        3.9956       2.067258       0.04152
   4     651.6        1.9769        0.0002        3.7089        3.7091       1.732207       0.04582
   3     718.7        2.0581        0.0002        3.4018        3.4020       1.343988       0.04879
   2     792.3        2.2083        0.0002        3.0564        3.0567       0.848330       0.05685
   1     891.5        0.0038        0.5086        0.0004        0.5090       0.505185       0.02920
   0    1013.0        0.0043        0.4247        0.0003        0.4251       0.420719       0.00586



 Wavenumbers:  3250. -  4000. cm-1, ATM      1
 LEVEL PRESSURE   UPWARD FLUX   DIFDOWN FLUX  DIRDOWN FLUX  DOWNWARD FLUX   NET FLUX    HEATING RATE
          mb          W/m2          W/m2          W/m2        W/m2          W/m2       degree/day
  51    .06700        0.0629        0.0000        9.1795        9.1795       9.116600       0.00000
  50    .07753        0.0629        0.0000        9.1747        9.1747       9.111758       3.88148
  49    .09103        0.0629        0.0000        9.1713        9.1713       9.108370       2.11747
  48    0.1069        0.0629        0.0000        9.1688        9.1688       9.105845       1.34402
  47    0.1255        0.0629        0.0000        9.1665        9.1665       9.103586       1.02422
  46    0.1487        0.0629        0.0000        9.1641        9.1641       9.101144       0.88991
  45    0.1794        0.0629        0.0000        9.1612        9.1612       9.098266       0.79008
  44    0.2165        0.0629        0.0000        9.1583        9.1583       9.095346       0.66430
  43    0.2613        0.0629        0.0000        9.1553        9.1553       9.092373       0.56041
  42    0.3336        0.0629        0.0000        9.1511        9.1511       9.088194       0.48723
  41    0.4307        0.0629        0.0000        9.1464        9.1464       9.083426       0.41459
  40    0.5894        0.0629        0.0000        9.1393        9.1394       9.076420       0.37255
  39     1.339        0.0629        0.0000        9.1127        9.1127       9.049806       0.29962
  38     1.782        0.0629        0.0000        9.1011        9.1011       9.038218       0.22062
  37     2.292        0.0629        0.0000        9.0901        9.0901       9.027152       0.18329
  36     2.964        0.0629        0.0000        9.0776        9.0776       9.014722       0.15603
  35     3.853        0.0629        0.0000        9.0629        9.0629       8.999932       0.14036
  34     5.035        0.0629        0.0000        9.0441        9.0441       8.981193       0.13386
  33     6.613        0.0629        0.0000        9.0191        9.0191       8.956191       0.13366
  32     8.786        0.0629        0.0000        8.9843        8.9843       8.921408       0.13509
  31     11.80        0.0629        0.0000        8.9327        8.9327       8.869791       0.14451
  30     15.07        0.0629        0.0000        8.8758        8.8759       8.812946       0.14676
  29     18.79        0.0629        0.0000        8.8110        8.8110       8.748119       0.14698
  28     23.16        0.0629        0.0000        8.7365        8.7366       8.673674       0.14395
  27     28.12        0.0629        0.0000        8.6554        8.6555       8.592561       0.13789
  26     33.73        0.0629        0.0000        8.5719        8.5719       8.509061       0.12554
  25     40.54        0.0629        0.0001        8.4812        8.4812       8.418338       0.11255
  24     48.69        0.0629        0.0001        8.3838        8.3839       8.321036       0.10069
  23     57.69        0.0629        0.0001        8.2861        8.2862       8.223301       0.09161
  22     68.43        0.0628        0.0001        8.1751        8.1751       8.112304       0.08726
  21     81.20        0.0628        0.0001        8.0457        8.0458       7.982946       0.08548
  20     96.49        0.0628        0.0001        7.8949        7.8951       7.832242       0.08318
  19     114.6        0.0628        0.0001        7.7162        7.7163       7.653532       0.08344
  18     136.5        0.0628        0.0002        7.5193        7.5195       7.456688       0.07569
  17     162.9        0.0627        0.0002        7.2913        7.2915       7.228795       0.07284
  16     196.4        0.0627        0.0002        6.9660        6.9662       6.903517       0.08188
  15     218.7        0.0627        0.0002        6.6648        6.6650       6.602318       0.11435
  14     243.0        0.0627        0.0002        6.2619        6.2622       6.199497       0.13971
  13     269.0        0.0627        0.0003        5.7576        5.7579       5.695134       0.16361
  12     297.5        0.0629        0.0003        5.1719        5.1722       5.109306       0.17375
  11     328.5        0.0631        0.0002        4.5757        4.5760       4.512908       0.16216
  10     361.9        0.0634        0.0002        3.9995        3.9998       3.936337       0.14588
   9     398.1        0.0641        0.0002        3.4655        3.4657       3.401633       0.12457
   8     437.6        0.0651        0.0002        2.9740        2.9743       2.909108       0.10530
   7     480.5        0.0669        0.0002        2.5307        2.5309       2.463992       0.08742
   6     533.0        0.0702        0.0002        2.0614        2.0616       1.991332       0.07604
   5     589.8        0.0764        0.0002        1.6150        1.6151       1.538756       0.06718
   4     651.6        0.0892        0.0001        1.1565        1.1566       1.067368       0.06446
   3     718.7        0.1176        0.0001        0.7390        0.7391       0.621551       0.05603
   2     792.3        0.1933        0.0001        0.3985        0.3985       0.205241       0.04775
   1     891.5        0.0000        0.0154        0.0000        0.0154       0.015364       0.01616
   0    1013.0        0.0001        0.0016        0.0000        0.0016       0.001484       0.00096



 Wavenumbers:  4000. -  4650. cm-1, ATM      1
 LEVEL PRESSURE   UPWARD FLUX   DIFDOWN FLUX  DIRDOWN FLUX  DOWNWARD FLUX   NET FLUX    HEATING RATE
          mb          W/m2          W/m2          W/m2        W/m2          W/m2       degree/day
  51    .06700        5.9478        0.0000       10.7795       10.7795       4.831752       0.00000
  50    .07753        5.9478        0.0000       10.7795       10.7795       4.831751       0.00080
  49    .09103        5.9478        0.0000       10.7795       10.7795       4.831749       0.00078
  48    0.1069        5.9478        0.0000       10.7795       10.7795       4.831748       0.00077
  47    0.1255        5.9478        0.0000       10.7795       10.7795       4.831746       0.00075
  46    0.1487        5.9478        0.0000       10.7795       10.7795       4.831744       0.00076
  45    0.1794        5.9478        0.0000       10.7795       10.7795       4.831741       0.00078
  44    0.2165        5.9478        0.0000       10.7795       10.7795       4.831738       0.00076
  43    0.2613        5.9478        0.0000       10.7795       10.7795       4.831734       0.00075
  42    0.3336        5.9478        0.0000       10.7795       10.7795       4.831728       0.00077
  41    0.4307        5.9478        0.0000       10.7795       10.7795       4.831719       0.00077
  40    0.5894        5.9478        0.0000       10.7795       10.7795       4.831704       0.00080
  39     1.339        5.9478        0.0000       10.7794       10.7794       4.831614       0.00101
  38     1.782        5.9478        0.0000       10.7793       10.7793       4.831544       0.00133
  37     2.292        5.9478        0.0000       10.7792       10.7792       4.831450       0.00156
  36     2.964        5.9478        0.0000       10.7791       10.7791       4.831309       0.00177
  35     3.853        5.9478        0.0000       10.7789       10.7789       4.831101       0.00198
  34     5.035        5.9478        0.0000       10.7786       10.7786       4.830793       0.00220
  33     6.613        5.9478        0.0000       10.7781       10.7781       4.830340       0.00242
  32     8.786        5.9478        0.0000       10.7774       10.7775       4.829671       0.00260
  31     11.80        5.9478        0.0001       10.7763       10.7764       4.828620       0.00294
  30     15.07        5.9478        0.0001       10.7751       10.7752       4.827386       0.00319
  29     18.79        5.9478        0.0001       10.7736       10.7737       4.825892       0.00339
  28     23.16        5.9478        0.0001       10.7717       10.7718       4.824036       0.00359
  27     28.12        5.9478        0.0001       10.7695       10.7696       4.821788       0.00382
  26     33.73        5.9478        0.0002       10.7667       10.7668       4.819013       0.00417
  25     40.54        5.9479        0.0002       10.7629       10.7631       4.815246       0.00467
  24     48.69        5.9479        0.0002       10.7579       10.7581       4.810219       0.00520
  23     57.69        5.9480        0.0003       10.7520       10.7523       4.804252       0.00559
  22     68.43        5.9482        0.0003       10.7446       10.7449       4.796762       0.00589
  21     81.20        5.9484        0.0004       10.7355       10.7359       4.787522       0.00611
  20     96.49        5.9487        0.0005       10.7245       10.7249       4.776254       0.00622
  19     114.6        5.9491        0.0006       10.7107       10.7113       4.762130       0.00659
  18     136.5        5.9498        0.0007       10.6942       10.6948       4.745069       0.00656
  17     162.9        5.9507        0.0008       10.6740       10.6748       4.724081       0.00671
  16     196.4        5.9523        0.0009       10.6464       10.6473       4.695004       0.00732
  15     218.7        5.9537        0.0010       10.6255       10.6265       4.672802       0.00843
  14     243.0        5.9557        0.0012       10.5980       10.5992       4.643469       0.01017
  13     269.0        5.9588        0.0013       10.5611       10.5624       4.603617       0.01293
  12     297.5        5.9632        0.0014       10.5119       10.5134       4.550199       0.01584
  11     328.5        5.9692        0.0016       10.4499       10.4514       4.482231       0.01848
  10     361.9        5.9771        0.0017       10.3702       10.3719       4.394754       0.02213
   9     398.1        5.9871        0.0019       10.2678       10.2696       4.282520       0.02615
   8     437.6        5.9999        0.0020       10.1390       10.1410       4.141079       0.03024
   7     480.5        6.0165        0.0022        9.9877        9.9899       3.973444       0.03292
   6     533.0        6.0421        0.0024        9.7937        9.7961       3.754030       0.03530
   5     589.8        6.0794        0.0026        9.5752        9.5778       3.498364       0.03795
   4     651.6        6.1404        0.0028        9.2958        9.2986       3.158261       0.04651
   3     718.7        6.2445        0.0030        8.9267        8.9298       2.685305       0.05944
   2     792.3        6.4447        0.0032        8.4542        8.4574       2.012750       0.07713
   1     891.5        0.2289        1.7557        0.0012        1.7569       1.528033       0.04125
   0    1013.0        0.2428        1.6249        0.0011        1.6260       1.383193       0.01006



 Wavenumbers:  4650. -  5150. cm-1, ATM      1
 LEVEL PRESSURE   UPWARD FLUX   DIFDOWN FLUX  DIRDOWN FLUX  DOWNWARD FLUX   NET FLUX    HEATING RATE
          mb          W/m2          W/m2          W/m2        W/m2          W/m2       degree/day
  51    .06700        4.2792        0.0000       10.2033       10.2033       5.924100       0.00000
  50    .07753        4.2792        0.0000       10.2031       10.2031       5.923864       0.18901
  49    .09103        4.2792        0.0000       10.2028       10.2028       5.923569       0.18428
  48    0.1069        4.2792        0.0000       10.2025       10.2025       5.923232       0.17931
  47    0.1255        4.2792        0.0000       10.2021       10.2021       5.922848       0.17426
  46    0.1487        4.2792        0.0000       10.2016       10.2016       5.922367       0.17536
  45    0.1794        4.2792        0.0000       10.2010       10.2010       5.921717       0.17850
  44    0.2165        4.2792        0.0000       10.2002       10.2002       5.920957       0.17277
  43    0.2613        4.2792        0.0000       10.1993       10.1993       5.920072       0.16690
  42    0.3336        4.2792        0.0000       10.1979       10.1979       5.918639       0.16702
  41    0.4307        4.2792        0.0000       10.1960       10.1960       5.916799       0.16002
  40    0.5894        4.2792        0.0000       10.1932       10.1932       5.913925       0.15283
  39     1.339        4.2792        0.0000       10.1816       10.1816       5.902333       0.13051
  38     1.782        4.2792        0.0000       10.1760       10.1760       5.896803       0.10527
  37     2.292        4.2792        0.0000       10.1706       10.1706       5.891346       0.09038
  36     2.964        4.2792        0.0000       10.1646       10.1647       5.885422       0.07437
  35     3.853        4.2792        0.0000       10.1584       10.1584       5.879206       0.05899
  34     5.035        4.2792        0.0000       10.1521       10.1521       5.872867       0.04528
  33     6.613        4.2792        0.0000       10.1456       10.1456       5.866404       0.03455
  32     8.786        4.2792        0.0001       10.1386       10.1386       5.859383       0.02727
  31     11.80        4.2793        0.0001       10.1295       10.1296       5.850323       0.02536
  30     15.07        4.2793        0.0001       10.1196       10.1197       5.840418       0.02557
  29     18.79        4.2793        0.0001       10.1076       10.1077       5.828373       0.02731
  28     23.16        4.2794        0.0002       10.0923       10.0924       5.813016       0.02970
  27     28.12        4.2795        0.0002       10.0731       10.0733       5.793848       0.03258
  26     33.73        4.2796        0.0002       10.0500       10.0503       5.770657       0.03487
  25     40.54        4.2798        0.0003       10.0201       10.0204       5.740615       0.03727
  24     48.69        4.2801        0.0003        9.9820        9.9823       5.702246       0.03971
  23     57.69        4.2804        0.0004        9.9384        9.9388       5.658454       0.04105
  22     68.43        4.2809        0.0005        9.8858        9.8862       5.605370       0.04173
  21     81.20        4.2815        0.0006        9.8234        9.8240       5.542493       0.04155
  20     96.49        4.2824        0.0007        9.7518        9.7524       5.470003       0.04001
  19     114.6        4.2837        0.0008        9.6719        9.6727       5.389024       0.03781
  18     136.5        4.2854        0.0009        9.5858        9.5867       5.301308       0.03373
  17     162.9        4.2878        0.0011        9.4940        9.4951       5.207302       0.03005
  16     196.4        4.2915        0.0013        9.3883        9.3896       5.098034       0.02750
  15     218.7        4.2945        0.0014        9.3229        9.3244       5.029892       0.02587
  14     243.0        4.2982        0.0016        9.2520        9.2536       4.955321       0.02586
  13     269.0        4.3033        0.0018        9.1717        9.1734       4.870103       0.02764
  12     297.5        4.3104        0.0019        9.0763        9.0782       4.767838       0.03033
  11     328.5        4.3196        0.0021        8.9650        8.9671       4.647519       0.03271
  10     361.9        4.3314        0.0023        8.8349        8.8372       4.505800       0.03586
   9     398.1        4.3468        0.0025        8.6820        8.6845       4.337685       0.03917
   8     437.6        4.3669        0.0027        8.5028        8.5055       4.138605       0.04256
   7     480.5        4.3930        0.0029        8.2948        8.2977       3.904675       0.04594
   6     533.0        4.4330        0.0031        8.0209        8.0240       3.590992       0.05046
   5     589.8        4.4888        0.0034        7.7063        7.7097       3.220873       0.05494
   4     651.6        4.5718        0.0036        7.3412        7.3448       2.773016       0.06125
   3     718.7        4.6983        0.0038        6.9387        6.9425       2.244165       0.06646
   2     792.3        4.9031        0.0040        6.5066        6.5106       1.607527       0.07302
   1     891.5        0.0560        1.2376        0.0009        1.2385       1.182534       0.03616
   0    1013.0        0.0603        1.1264        0.0008        1.1272       1.066871       0.00803



 Wavenumbers:  5150. -  6150. cm-1, ATM      1
 LEVEL PRESSURE   UPWARD FLUX   DIFDOWN FLUX  DIRDOWN FLUX  DOWNWARD FLUX   NET FLUX    HEATING RATE
          mb          W/m2          W/m2          W/m2        W/m2          W/m2       degree/day
  51    .06700       10.1859        0.0000       25.5798       25.5798      15.393939       0.00000
  50    .07753       10.1859        0.0000       25.5798       25.5798      15.393899       0.03162
  49    .09103       10.1859        0.0000       25.5797       25.5797      15.393848       0.03210
  48    0.1069       10.1859        0.0000       25.5797       25.5797      15.393787       0.03261
  47    0.1255       10.1859        0.0000       25.5796       25.5796      15.393714       0.03311
  46    0.1487       10.1859        0.0000       25.5795       25.5795      15.393618       0.03488
  45    0.1794       10.1859        0.0000       25.5794       25.5794      15.393483       0.03713
  44    0.2165       10.1859        0.0000       25.5792       25.5792      15.393317       0.03769
  43    0.2613       10.1859        0.0000       25.5790       25.5790      15.393114       0.03827
  42    0.3336       10.1859        0.0000       25.5786       25.5786      15.392767       0.04043
  41    0.4307       10.1859        0.0000       25.5782       25.5782      15.392296       0.04097
  40    0.5894       10.1859        0.0000       25.5774       25.5774      15.391506       0.04198
  39     1.339       10.1859        0.0000       25.5735       25.5736      15.387702       0.04283
  38     1.782       10.1859        0.0001       25.5713       25.5714      15.385487       0.04217
  37     2.292       10.1859        0.0001       25.5688       25.5688      15.382980       0.04153
  36     2.964       10.1859        0.0001       25.5656       25.5657      15.379793       0.04000
  35     3.853       10.1859        0.0001       25.5615       25.5616      15.375742       0.03844
  34     5.035       10.1859        0.0002       25.5562       25.5564      15.370524       0.03728
  33     6.613       10.1859        0.0002       25.5494       25.5496      15.363753       0.03620
  32     8.786       10.1859        0.0003       25.5406       25.5409      15.354976       0.03409
  31     11.80       10.1859        0.0004       25.5287       25.5290      15.343100       0.03325
  30     15.07       10.1860        0.0005       25.5167       25.5172      15.331184       0.03076
  29     18.79       10.1860        0.0006       25.5042       25.5048      15.318719       0.02826
  28     23.16       10.1861        0.0007       25.4907       25.4914      15.305282       0.02598
  27     28.12       10.1862        0.0009       25.4764       25.4773      15.291102       0.02410
  26     33.73       10.1864        0.0011       25.4620       25.4631      15.276713       0.02163
  25     40.54       10.1866        0.0013       25.4463       25.4475      15.260949       0.01956
  24     48.69       10.1869        0.0015       25.4294       25.4309      15.244026       0.01751
  23     57.69       10.1872        0.0018       25.4126       25.4144      15.227183       0.01579
  22     68.43       10.1877        0.0021       25.3944       25.3966      15.208850       0.01441
  21     81.20       10.1883        0.0025       25.3744       25.3770      15.188630       0.01336
  20     96.49       10.1891        0.0030       25.3519       25.3550      15.165863       0.01257
  19     114.6       10.1900        0.0036       25.3262       25.3298      15.139713       0.01221
  18     136.5       10.1912        0.0043       25.2962       25.3005      15.109239       0.01172
  17     162.9       10.1927        0.0051       25.2521       25.2572      15.064484       0.01431
  16     196.4       10.1947        0.0061       25.1593       25.1654      14.970695       0.02361
  15     218.7       10.1961        0.0068       25.0159       25.0227      14.826532       0.05473
  14     243.0       10.1980        0.0074       24.7089       24.7163      14.518393       0.10687
  13     269.0       10.2003        0.0081       24.1619       24.1700      13.969676       0.17800
  12     297.5       10.2035        0.0088       23.4544       23.4632      13.259690       0.21057
  11     328.5       10.2076        0.0095       22.7355       22.7449      12.537277       0.19642
  10     361.9       10.2132        0.0102       21.9224       21.9326      11.719379       0.20694
   9     398.1       10.2207        0.0108       20.9939       21.0047      10.784045       0.21791
   8     437.6       10.2311        0.0115       19.9833       19.9948       9.763656       0.21817
   7     480.5       10.2457        0.0121       18.9483       18.9604       8.714727       0.20601
   6     533.0       10.2704        0.0128       17.7796       17.7924       7.521990       0.19187
   5     589.8       10.3107        0.0135       16.6726       16.6861       6.375419       0.17019
   4     651.6       10.3847        0.0142       15.6343       15.6486       5.263831       0.15201
   3     718.7       10.5213        0.0151       14.7738       14.7889       4.267565       0.12520
   2     792.3       10.7972        0.0160       14.0291       14.0451       3.247881       0.11695
   1     891.5        0.4907        3.0446        0.0020        3.0466       2.555920       0.05888
   0    1013.0        0.5095        2.8633        0.0018        2.8651       2.355617       0.01391



 Wavenumbers:  6150. -  7700. cm-1, ATM      1
 LEVEL PRESSURE   UPWARD FLUX   DIFDOWN FLUX  DIRDOWN FLUX  DOWNWARD FLUX   NET FLUX    HEATING RATE
          mb          W/m2          W/m2          W/m2        W/m2          W/m2       degree/day
  51    .06700       16.4509        0.0000       47.3109       47.3109      30.859960       0.00000
  50    .07753       16.4509        0.0000       47.3108       47.3108      30.859903       0.04553
  49    .09103       16.4509        0.0000       47.3107       47.3107      30.859829       0.04583
  48    0.1069       16.4509        0.0000       47.3106       47.3106      30.859743       0.04614
  47    0.1255       16.4509        0.0000       47.3105       47.3105      30.859640       0.04645
  46    0.1487       16.4509        0.0000       47.3104       47.3104      30.859507       0.04852
  45    0.1794       16.4509        0.0000       47.3102       47.3102      30.859321       0.05127
  44    0.2165       16.4509        0.0000       47.3100       47.3100      30.859093       0.05167
  43    0.2613       16.4509        0.0000       47.3097       47.3097      30.858817       0.05210
  42    0.3336       16.4509        0.0000       47.3092       47.3092      30.858348       0.05471
  41    0.4307       16.4509        0.0000       47.3085       47.3086      30.857713       0.05521
  40    0.5894       16.4509        0.0001       47.3074       47.3075      30.856653       0.05633
  39     1.339       16.4508        0.0002       47.3022       47.3024      30.851561       0.05733
  38     1.782       16.4508        0.0002       47.2991       47.2994      30.848591       0.05655
  37     2.292       16.4507        0.0003       47.2956       47.2959      30.845215       0.05591
  36     2.964       16.4507        0.0004       47.2912       47.2916      30.840897       0.05421
  35     3.853       16.4506        0.0005       47.2855       47.2860      30.835362       0.05252
  34     5.035       16.4505        0.0006       47.2780       47.2787      30.828182       0.05129
  33     6.613       16.4504        0.0009       47.2683       47.2692      30.818794       0.05019
  32     8.786       16.4502        0.0011       47.2556       47.2567      30.806494       0.04777
  31     11.80       16.4500        0.0015       47.2380       47.2396      30.789590       0.04733
  30     15.07       16.4497        0.0020       47.2201       47.2220      30.772302       0.04463
  29     18.79       16.4494        0.0024       47.2008       47.2032      30.753822       0.04190
  28     23.16       16.4491        0.0030       47.1795       47.1825      30.733430       0.03943
  27     28.12       16.4487        0.0036       47.1565       47.1601      30.711435       0.03739
  26     33.73       16.4483        0.0044       47.1324       47.1368      30.688512       0.03447
  25     40.54       16.4477        0.0052       47.1054       47.1106      30.662872       0.03181
  24     48.69       16.4471        0.0063       47.0754       47.0817      30.634616       0.02924
  23     57.69       16.4464        0.0074       47.0449       47.0524      30.605989       0.02683
  22     68.43       16.4456        0.0088       47.0110       47.0198      30.574246       0.02495
  21     81.20       16.4446        0.0105       46.9729       46.9833      30.538744       0.02346
  20     96.49       16.4434        0.0124       46.9294       46.9418      30.498393       0.02227
  19     114.6       16.4420        0.0148       46.8790       46.8938      30.451743       0.02178
  18     136.5       16.4404        0.0175       46.8200       46.8375      30.397097       0.02101
  17     162.9       16.4385        0.0208       46.7361       46.7569      30.318434       0.02514
  16     196.4       16.4362        0.0251       46.5703       46.5953      30.159132       0.04010
  15     218.7       16.4349        0.0278       46.3473       46.3751      29.940240       0.08311
  14     243.0       16.4338        0.0307       45.9299       45.9605      29.526737       0.14342
  13     269.0       16.4335        0.0336       45.1708       45.2043      28.770865       0.24520
  12     297.5       16.4347        0.0364       44.0115       44.0479      27.613191       0.34335
  11     328.5       16.4379        0.0393       42.7242       42.7635      26.325596       0.35009
  10     361.9       16.4442        0.0422       41.3539       41.3962      24.951914       0.34756
   9     398.1       16.4554        0.0451       39.7953       39.8404      23.384959       0.36507
   8     437.6       16.4744        0.0478       37.9948       38.0426      21.568168       0.38844
   7     480.5       16.5050        0.0504       36.0647       36.1151      19.610185       0.38454
   6     533.0       16.5626        0.0532       33.7773       33.8305      17.267959       0.37679
   5     589.8       16.6633        0.0558       31.4082       31.4640      14.800698       0.36622
   4     651.6       16.8583        0.0579       28.8834       28.9413      12.082943       0.37166
   3     718.7       17.2333        0.0597       26.4104       26.4701       9.236783       0.35768
   2     792.3       18.0385        0.0613       24.0056       24.0669       6.028345       0.36797
   1     891.5        1.0099        5.0330        0.0032        5.0362       4.026299       0.17036
   0    1013.0        1.0770        4.5666        0.0028        4.5694       3.492402       0.03707



 Wavenumbers:  7700. -  8050. cm-1, ATM      1
 LEVEL PRESSURE   UPWARD FLUX   DIFDOWN FLUX  DIRDOWN FLUX  DOWNWARD FLUX   NET FLUX    HEATING RATE
          mb          W/m2          W/m2          W/m2        W/m2          W/m2       degree/day
  51    .06700        7.8322        0.0000       11.1810       11.1810       3.348748       0.00000
  50    .07753        7.8322        0.0000       11.1809       11.1809       3.348724       0.01867
  49    .09103        7.8322        0.0000       11.1809       11.1809       3.348695       0.01829
  48    0.1069        7.8322        0.0000       11.1809       11.1809       3.348662       0.01791
  47    0.1255        7.8322        0.0000       11.1809       11.1809       3.348623       0.01753
  46    0.1487        7.8323        0.0000       11.1808       11.1808       3.348574       0.01778
  45    0.1794        7.8323        0.0000       11.1808       11.1808       3.348507       0.01830
  44    0.2165        7.8323        0.0000       11.1807       11.1807       3.348429       0.01795
  43    0.2613        7.8323        0.0000       11.1806       11.1806       3.348335       0.01762
  42    0.3336        7.8323        0.0000       11.1805       11.1805       3.348181       0.01802
  41    0.4307        7.8324        0.0000       11.1803       11.1804       3.347975       0.01783
  40    0.5894        7.8325        0.0000       11.1801       11.1801       3.347641       0.01781
  39     1.339        7.8328        0.0001       11.1788       11.1789       3.346056       0.01784
  38     1.782        7.8330        0.0001       11.1781       11.1782       3.345125       0.01772
  37     2.292        7.8333        0.0001       11.1772       11.1773       3.344048       0.01784
  36     2.964        7.8336        0.0002       11.1761       11.1763       3.342633       0.01776
  35     3.853        7.8340        0.0002       11.1746       11.1748       3.340765       0.01773
  34     5.035        7.8346        0.0003       11.1726       11.1729       3.338282       0.01773
  33     6.613        7.8354        0.0004       11.1700       11.1703       3.334966       0.01773
  32     8.786        7.8364        0.0005       11.1664       11.1669       3.330498       0.01735
  31     11.80        7.8379        0.0007       11.1613       11.1620       3.324109       0.01789
  30     15.07        7.8395        0.0009       11.1558       11.1567       3.317253       0.01770
  29     18.79        7.8413        0.0011       11.1497       11.1508       3.309514       0.01755
  28     23.16        7.8434        0.0014       11.1425       11.1439       3.300484       0.01746
  27     28.12        7.8458        0.0017       11.1343       11.1360       3.290170       0.01753
  26     33.73        7.8486        0.0020       11.1252       11.1272       3.278644       0.01733
  25     40.54        7.8519        0.0024       11.1142       11.1166       3.264745       0.01724
  24     48.69        7.8559        0.0029       11.1010       11.1039       3.248027       0.01730
  23     57.69        7.8603        0.0034       11.0866       11.0900       3.229714       0.01717
  22     68.43        7.8656        0.0041       11.0695       11.0736       3.207972       0.01709
  21     81.20        7.8720        0.0048       11.0494       11.0542       3.182171       0.01705
  20     96.49        7.8797        0.0057       11.0255       11.0313       3.151568       0.01689
  19     114.6        7.8889        0.0068       10.9975       11.0043       3.115430       0.01687
  18     136.5        7.9000        0.0081       10.9648       10.9728       3.072865       0.01637
  17     162.9        7.9133        0.0096       10.9263       10.9359       3.022535       0.01609
  16     196.4        7.9310        0.0115       10.8773       10.8888       2.957802       0.01629
  15     218.7        7.9428        0.0128       10.8455       10.8583       2.915560       0.01604
  14     243.0        7.9558        0.0142       10.8114       10.8256       2.869820       0.01586
  13     269.0        7.9702        0.0157       10.7749       10.7906       2.820366       0.01604
  12     297.5        7.9861        0.0173       10.7357       10.7530       2.766909       0.01585
  11     328.5        8.0037        0.0191       10.6937       10.7128       2.709063       0.01573
  10     361.9        8.0233        0.0210       10.6489       10.6698       2.646520       0.01582
   9     398.1        8.0451        0.0230       10.6008       10.6237       2.578668       0.01581
   8     437.6        8.0695        0.0252       10.5491       10.5742       2.504741       0.01581
   7     480.5        8.0969        0.0275       10.4934       10.5209       2.424013       0.01585
   6     533.0        8.1327        0.0304       10.4243       10.4547       2.321950       0.01642
   5     589.8        8.1745        0.0335       10.3479       10.3814       2.206901       0.01708
   4     651.6        8.2246        0.0368       10.2613       10.2981       2.073508       0.01824
   3     718.7        8.2862        0.0403       10.1618       10.2020       1.915885       0.01981
   2     792.3        8.3646        0.0440       10.0439       10.0879       1.723305       0.02209
   1     891.5        1.9574        3.5145        0.0015        3.5160       1.558563       0.01402
   0    1013.0        1.9982        3.4395        0.0014        3.4409       1.442694       0.00805



 Wavenumbers:  8050. - 12850. cm-1, ATM      1
 LEVEL PRESSURE   UPWARD FLUX   DIFDOWN FLUX  DIRDOWN FLUX  DOWNWARD FLUX   NET FLUX    HEATING RATE
          mb          W/m2          W/m2          W/m2        W/m2          W/m2       degree/day
  51    .06700      108.5984        0.0000      156.5418      156.5418      47.943320       0.00000
  50    .07753      108.5984        0.0000      156.5417      156.5417      47.943320      -0.00000
  49    .09103      108.5984        0.0001      156.5417      156.5417      47.943320       0.00000
  48    0.1069      108.5984        0.0001      156.5416      156.5417      47.943320      -0.00000
  47    0.1255      108.5984        0.0002      156.5415      156.5417      47.943320      -0.00000
  46    0.1487      108.5984        0.0002      156.5414      156.5417      47.943320       0.00000
  45    0.1794      108.5983        0.0003      156.5413      156.5416      47.943320       0.00000
  44    0.2165      108.5983        0.0004      156.5412      156.5416      47.943320      -0.00000
  43    0.2613      108.5982        0.0006      156.5410      156.5416      47.943320      -0.00000
  42    0.3336      108.5982        0.0008      156.5407      156.5415      47.943320       0.00000
  41    0.4307      108.5981        0.0011      156.5403      156.5414      47.943320       0.00000
  40    0.5894      108.5979        0.0015      156.5397      156.5412      47.943320       0.00000
  39     1.339      108.5972        0.0038      156.5367      156.5405      47.943320      -0.00000
  38     1.782      108.5967        0.0051      156.5350      156.5401      47.943320      -0.00000
  37     2.292      108.5962        0.0066      156.5330      156.5396      47.943320       0.00000
  36     2.964      108.5956        0.0086      156.5303      156.5389      47.943320       0.00000
  35     3.853      108.5947        0.0112      156.5268      156.5380      47.943320       0.00000
  34     5.035      108.5936        0.0147      156.5222      156.5369      47.943320      -0.00000
  33     6.613      108.5920        0.0193      156.5160      156.5353      47.943320      -0.00000
  32     8.786      108.5899        0.0256      156.5076      156.5332      47.943320       0.00000
  31     11.80      108.5869        0.0346      156.4957      156.5302      47.943320       0.00000
  30     15.07      108.5837        0.0442      156.4828      156.5270      47.943320       0.00000
  29     18.79      108.5801        0.0552      156.4682      156.5234      47.943320       0.00000
  28     23.16      108.5758        0.0680      156.4512      156.5191      47.943320      -0.00000
  27     28.12      108.5710        0.0826      156.4317      156.5143      47.943320      -0.00000
  26     33.73      108.5655        0.0990      156.4099      156.5088      47.943320       0.00000
  25     40.54      108.5589        0.1188      156.3834      156.5022      47.943320       0.00000
  24     48.69      108.5509        0.1427      156.3515      156.4943      47.943320       0.00000
  23     57.69      108.5422        0.1691      156.3164      156.4855      47.943320       0.00000
  22     68.43      108.5317        0.2005      156.2746      156.4750      47.943320       0.00000
  21     81.20      108.5192        0.2380      156.2246      156.4626      47.943320      -0.00000
  20     96.49      108.5043        0.2827      156.1649      156.4477      47.943320       0.00000
  19     114.6      108.4869        0.3360      156.0879      156.4239      47.937043       0.00293
  18     136.5      108.4661        0.3992      155.9962      156.3954      47.929259       0.00299
  17     162.9      108.4414        0.4747      155.8831      156.3577      47.916358       0.00412
  16     196.4      108.4094        0.5728      155.7199      156.2927      47.883351       0.00831
  15     218.7      108.3888        0.6373      155.5733      156.2106      47.821829       0.02336
  14     243.0      108.3676        0.7075      155.3367      156.0442      47.676538       0.05039
  13     269.0      108.3475        0.7834      154.9514      155.7348      47.387287       0.09383
  12     297.5      108.3313        0.8651      154.3896      155.2547      46.923445       0.13757
  11     328.5      108.3207        0.9532      153.7151      154.6683      46.347590       0.15657
  10     361.9      108.3197        1.0478      152.9087      153.9566      45.636832       0.17983
   9     398.1      108.3347        1.1490      151.8986      153.0477      44.713001       0.21523
   8     437.6      108.3765        1.2567      150.6031      151.8599      43.483442       0.26289
   7     480.5      108.4585        1.3707      149.0014      150.3721      41.913592       0.30831
   6     533.0      108.6302        1.5086      146.7375      148.2461      39.615940       0.36962
   5     589.8      108.9472        1.6531      143.8730      145.5260      36.578890       0.45080
   4     651.6      109.5723        1.8014      140.0955      141.8969      32.324524       0.58180
   3     718.7      110.7491        1.9518      135.5278      137.4796      26.730526       0.70301
   2     792.3      113.0972        2.1007      130.0690      132.1698      19.072548       0.87828
   1     891.5       49.8523       62.5917        0.0182       62.6099      12.757591       0.53737
   0    1013.0       51.4014       60.1578        0.0168       60.1747       8.773254       0.27665



 Wavenumbers: 12850. - 16000. cm-1, ATM      1
 LEVEL PRESSURE   UPWARD FLUX   DIFDOWN FLUX  DIRDOWN FLUX  DOWNWARD FLUX   NET FLUX    HEATING RATE
          mb          W/m2          W/m2          W/m2        W/m2          W/m2       degree/day
  51    .06700       81.8420        0.0000       98.0872       98.0872      16.245201       0.00000
  50    .07753       81.8420        0.0001       98.0864       98.0864      16.244408       0.63552
  49    .09103       81.8420        0.0002       98.0853       98.0855      16.243412       0.62258
  48    0.1069       81.8420        0.0003       98.0841       98.0843      16.242267       0.60942
  47    0.1255       81.8421        0.0004       98.0826       98.0830      16.240951       0.59657
  46    0.1487       81.8421        0.0005       98.0809       98.0814      16.239290       0.60565
  45    0.1794       81.8422        0.0007       98.0784       98.0792      16.237029       0.62080
  44    0.2165       81.8422        0.0010       98.0756       98.0766      16.234367       0.60547
  43    0.2613       81.8424        0.0013       98.0723       98.0736      16.231235       0.59039
  42    0.3336       81.8426        0.0017       98.0670       98.0688      16.226119       0.59650
  41    0.4307       81.8431        0.0024       98.0602       98.0626      16.219496       0.57581
  40    0.5894       81.8439        0.0034       98.0496       98.0530      16.209046       0.55571
  39     1.339       81.8512        0.0083       98.0043       98.0126      16.161461       0.53572
  38     1.782       81.8577        0.0111       97.9793       97.9904      16.132742       0.54677
  37     2.292       81.8674        0.0144       97.9498       97.9642      16.096868       0.59416
  36     2.964       81.8833        0.0188       97.9088       97.9276      16.044281       0.66014
  35     3.853       81.9090        0.0245       97.8503       97.8749      15.965849       0.74433
  34     5.035       81.9477        0.0322       97.7680       97.8001      15.852466       0.80996
  33     6.613       82.0016        0.0423       97.6562       97.6985      15.696896       0.83168
  32     8.786       82.0719        0.0560       97.5107       97.5667      15.494818       0.78479
  31     11.80       82.1634        0.0756       97.3179       97.3935      15.230024       0.74134
  30     15.07       82.2513        0.0966       97.1283       97.2249      14.973628       0.66196
  29     18.79       82.3412        0.1203       96.9300       97.0503      14.709156       0.59964
  28     23.16       82.4353        0.1480       96.7166       96.8645      14.429228       0.54129
  27     28.12       82.5303        0.1796       96.4935       96.6731      14.142758       0.48698
  26     33.73       82.6185        0.2150       96.2731       96.4881      13.869519       0.41082
  25     40.54       82.7042        0.2577       96.0408       96.2985      13.594313       0.34142
  24     48.69       82.7871        0.3093       95.7946       96.1039      13.316744       0.28724
  23     57.69       82.8585        0.3659       95.5573       95.9232      13.064681       0.23627
  22     68.43       82.9223        0.4334       95.3106       95.7440      12.821754       0.19097
  21     81.20       82.9691        0.5140       95.0643       95.5783      12.609221       0.14044
  20     96.49       82.9979        0.6101       94.8153       95.4253      12.427413       0.10035
  19     114.6       83.0309        0.7253       94.5411       95.2663      12.235456       0.08963
  18     136.5       83.0583        0.8618       94.2320       95.0938      12.035506       0.07689
  17     162.9       83.0806        1.0244       93.8753       94.8997      11.819146       0.06916
  16     196.4       83.0870        1.2353       93.4347       94.6700      11.582949       0.05945
  15     218.7       83.0834        1.3738       93.1513       94.5251      11.441707       0.05362
  14     243.0       83.0763        1.5244       92.8439       94.3683      11.291973       0.05193
  13     269.0       83.0660        1.6875       92.5111       94.1986      11.132659       0.05168
  12     297.5       83.0532        1.8638       92.1495       94.0133      10.960125       0.05117
  11     328.5       83.0403        2.0543       91.7554       93.8097      10.769467       0.05184
  10     361.9       83.0285        2.2594       91.3262       93.5856      10.557126       0.05372
   9     398.1       83.0200        2.4801       90.8575       93.3377      10.317705       0.05578
   8     437.6       83.0185        2.7170       90.3418       93.0588      10.040383       0.05929
   7     480.5       83.0279        2.9708       89.7728       92.7436       9.715716       0.06376
   6     533.0       83.0605        3.2827       89.0428       92.3256       9.265071       0.07249
   5     589.8       83.1343        3.6179       88.2038       91.8218       8.687477       0.08573
   4     651.6       83.2917        3.9760       87.1979       91.1740       7.882264       0.11012
   3     718.7       83.5662        4.3555       86.0161       90.3716       6.805380       0.13533
   2     792.3       84.0570        4.7524       84.5970       89.3495       5.292489       0.17351
   1     891.5       58.1310       61.8365        0.0123       61.8488       3.717713       0.13401
   0    1013.0       58.8827       60.9433        0.0119       60.9551       2.072413       0.11424



 Wavenumbers: 16000. - 22650. cm-1, ATM      1
 LEVEL PRESSURE   UPWARD FLUX   DIFDOWN FLUX  DIRDOWN FLUX  DOWNWARD FLUX   NET FLUX    HEATING RATE
          mb          W/m2          W/m2          W/m2        W/m2          W/m2       degree/day
  51    .06700      140.8866        0.0000      156.3892      156.3892      15.502634       0.00000
  50    .07753      140.8866        0.0004      156.3887      156.3891      15.502486       0.11831
  49    .09103      140.8866        0.0009      156.3879      156.3888      15.502272       0.13419
  48    0.1069      140.8866        0.0015      156.3871      156.3885      15.501984       0.15302
  47    0.1255      140.8866        0.0021      156.3861      156.3882      15.501599       0.17442
  46    0.1487      140.8866        0.0030      156.3847      156.3877      15.501032       0.20668
  45    0.1794      140.8868        0.0041      156.3828      156.3869      15.500146       0.24335
  44    0.2165      140.8870        0.0054      156.3805      156.3859      15.498944       0.27350
  43    0.2613      140.8873        0.0070      156.3776      156.3846      15.497312       0.30748
  42    0.3336      140.8881        0.0097      156.3726      156.3823      15.494211       0.36159
  41    0.4307      140.8893        0.0131      156.3657      156.3789      15.489536       0.40647
  40    0.5894      140.8919        0.0188      156.3537      156.3725      15.480621       0.47413
  39     1.339      140.9145        0.0458      156.2834      156.3292      15.414750       0.74158
  38     1.782      140.9354        0.0617      156.2324      156.2940      15.358637       1.06831
  37     2.292      140.9667        0.0800      156.1641      156.2441      15.277412       1.34530
  36     2.964      141.0187        0.1041      156.0605      156.1646      15.145826       1.65179
  35     3.853      141.1029        0.1358      155.9041      156.0399      14.937033       1.98149
  34     5.035      141.2298        0.1780      155.6774      155.8553      14.625529       2.22525
  33     6.613      141.4072        0.2342      155.3656      155.5998      14.192629       2.31428
  32     8.786      141.6383        0.3099      154.9577      155.2676      13.629329       2.18765
  31     11.80      141.9390        0.4181      154.4153      154.8334      12.894368       2.05766
  30     15.07      142.2271        0.5340      153.8804      154.4144      12.187361       1.82536
  29     18.79      142.5212        0.6648      153.3191      153.9839      11.462744       1.64293
  28     23.16      142.8285        0.8173      152.7126      153.5299      10.701360       1.47227
  27     28.12      143.1378        0.9915      152.0755      153.0670       9.929191       1.31264
  26     33.73      143.4232        1.1862      151.4409      152.6271       9.203893       1.09050
  25     40.54      143.6979        1.4212      150.7637      152.1849       8.487038       0.88934
  24     48.69      143.9608        1.7043      150.0338      151.7381       7.777343       0.73442
  23     57.69      144.1836        2.0148      149.3151      151.3299       7.146354       0.59146
  22     68.43      144.3778        2.3843      148.5476      150.9319       6.554022       0.46565
  21     81.20      144.5118        2.8241      147.7517      150.5758       6.064026       0.32378
  20     96.49      144.5809        3.3478      146.9127      150.2604       5.679504       0.21223
  19     114.6      144.6165        3.9677      145.9763      149.9440       5.327533       0.16435
  18     136.5      144.6272        4.6997      144.9088      149.6085       4.981286       0.13314
  17     162.9      144.6115        5.5674      143.6785      149.2459       4.634447       0.11086
  16     196.4      144.5294        6.6868      142.1651      148.8519       4.322501       0.07852
  15     218.7      144.4529        7.4184      141.2033      148.6217       4.168817       0.05835
  14     243.0      144.3594        8.2102      140.1753      148.3855       4.026064       0.04951
  13     269.0      144.2474        9.0644      139.0797      148.1441       3.896643       0.04198
  12     297.5      144.1162        9.9830      137.9141      147.8971       3.780910       0.03433
  11     328.5      143.9698       10.9704      136.6676      147.6380       3.668215       0.03064
  10     361.9      143.8080       12.0275      135.3392      147.3667       3.558678       0.02771
   9     398.1      143.6304       13.1583      133.9235      147.0818       3.451373       0.02500
   8     437.6      143.4380       14.3648      132.4163      146.7811       3.343098       0.02315
   7     480.5      143.2304       15.6492      130.8147      146.4639       3.233507       0.02152
   6     533.0      142.9753       17.2179      128.8599      146.0778       3.102532       0.02107
   5     589.8      142.7049       18.8940      126.7679      145.6620       2.957015       0.02160
   4     651.6      142.4263       20.6791      124.5274      145.2065       2.780261       0.02417
   3     718.7      142.1462       22.5749      122.1285      144.7034       2.557191       0.02803
   2     792.3      141.8828       24.5793      119.5548      144.1341       2.251295       0.03508
   1     891.5      116.9072      118.7287        0.0173      118.7460       1.838830       0.03510
   0    1013.0      117.1564      118.4308        0.0167      118.4475       1.291048       0.03804



 Wavenumbers: 22650. - 29000. cm-1, ATM      1
 LEVEL PRESSURE   UPWARD FLUX   DIFDOWN FLUX  DIRDOWN FLUX  DOWNWARD FLUX   NET FLUX    HEATING RATE
          mb          W/m2          W/m2          W/m2        W/m2          W/m2       degree/day
  51    .06700       58.6849        0.0000       59.0156       59.0156       0.330696       0.00000
  50    .07753       58.6848        0.0005       59.0151       59.0155       0.330696       0.00000
  49    .09103       58.6847        0.0010       59.0144       59.0154       0.330696      -0.00000
  48    0.1069       58.6846        0.0017       59.0136       59.0153       0.330696      -0.00000
  47    0.1255       58.6844        0.0025       59.0127       59.0151       0.330696       0.00000
  46    0.1487       58.6842        0.0035       59.0115       59.0149       0.330696      -0.00000
  45    0.1794       58.6840        0.0048       59.0099       59.0147       0.330696       0.00000
  44    0.2165       58.6837        0.0063       59.0080       59.0144       0.330696       0.00000
  43    0.2613       58.6833        0.0082       59.0058       59.0140       0.330696      -0.00000
  42    0.3336       58.6827        0.0113       59.0022       59.0134       0.330696       0.00000
  41    0.4307       58.6820        0.0154       58.9973       59.0127       0.330696      -0.00000
  40    0.5894       58.6807        0.0220       58.9894       59.0114       0.330696       0.00000
  39     1.339       58.6746        0.0535       58.9518       59.0053       0.330696      -0.00000
  38     1.782       58.6710        0.0720       58.9297       59.0017       0.330696       0.00000
  37     2.292       58.6669        0.0935       58.9042       58.9976       0.330696      -0.00000
  36     2.964       58.6615        0.1216       58.8706       58.9922       0.330696       0.00000
  35     3.853       58.6544        0.1587       58.8264       58.9851       0.330696      -0.00000
  34     5.035       58.6449        0.2080       58.7676       58.9756       0.330696       0.00000
  33     6.613       58.6322        0.2738       58.6891       58.9629       0.330696      -0.00000
  32     8.786       58.6151        0.3624       58.5834       58.9458       0.330696       0.00000
  31     11.80       58.5908        0.4890       58.4324       58.9215       0.330696       0.00000
  30     15.07       58.5647        0.6247       58.2706       58.8954       0.330696      -0.00000
  29     18.79       58.5352        0.7777       58.0882       58.8659       0.330696       0.00000
  28     23.16       58.5009        0.9559       57.8757       58.8316       0.330696      -0.00000
  27     28.12       58.4618        1.1591       57.6333       58.7925       0.330696       0.00000
  26     33.73       58.4181        1.3858       57.3631       58.7488       0.330696       0.00000
  25     40.54       58.3656        1.6584       57.0379       58.6963       0.330696      -0.00000
  24     48.69       58.3026        1.9854       56.6479       58.6333       0.330696       0.00000
  23     57.69       58.2339        2.3425       56.2221       58.5646       0.330696      -0.00000
  22     68.43       58.1525        2.7647       55.7186       58.4832       0.330696       0.00000
  21     81.20       58.0565        3.2632       55.1239       58.3872       0.330696       0.00000
  20     96.49       57.9432        3.8511       54.4228       58.2739       0.330696      -0.00000
  19     114.6       57.8104        4.5401       53.6010       58.1411       0.330696       0.00000
  18     136.5       57.6553        5.3442       52.6418       57.9860       0.330696       0.00000
  17     162.9       57.4740        6.2843       51.5203       57.8047       0.330696      -0.00000
  16     196.4       57.2441        7.4754       50.0994       57.5748       0.330696       0.00000
  15     218.7       57.0964        8.2408       49.1863       57.4271       0.330696      -0.00000
  14     243.0       56.9386        9.0580       48.2113       57.2693       0.330696       0.00000
  13     269.0       56.7708        9.9265       47.1749       57.1015       0.330696      -0.00000
  12     297.5       56.5931       10.8456       46.0783       56.9238       0.330696      -0.00000
  11     328.5       56.4054       11.8166       44.9195       56.7361       0.330696       0.00000
  10     361.9       56.2080       12.8368       43.7018       56.5387       0.330696      -0.00000
   9     398.1       56.0009       13.9066       42.4250       56.3316       0.330696       0.00000
   8     437.6       55.7845       15.0236       41.0916       56.1152       0.330696      -0.00000
   7     480.5       55.5592       16.1855       39.7045       55.8899       0.330696       0.00000
   6     533.0       55.2911       17.5675       38.0543       55.6218       0.330696       0.00000
   5     589.8       55.0127       19.0004       36.3431       55.3434       0.330696       0.00000
   4     651.6       54.7256       20.4767       34.5795       55.0563       0.330696       0.00000
   3     718.7       54.4306       21.9911       32.7702       54.7613       0.330696       0.00000
   2     792.3       54.1295       23.5346       30.9256       54.4602       0.330696      -0.00000
   1     891.5       48.1975       48.5231        0.0043       48.5274       0.329903       0.00007
   0    1013.0       48.1859       48.5119        0.0039       48.5158       0.329903       0.00000



 Wavenumbers: 29000. - 38000. cm-1, ATM      1
 LEVEL PRESSURE   UPWARD FLUX   DIFDOWN FLUX  DIRDOWN FLUX  DOWNWARD FLUX   NET FLUX    HEATING RATE
          mb          W/m2          W/m2          W/m2        W/m2          W/m2       degree/day
  51    .06700        8.7727        0.0000       20.8114       20.8114      12.038652       0.00000
  50    .07753        8.7725        0.0003       20.8070       20.8074      12.034844       3.05157
  49    .09103        8.7723        0.0007       20.8009       20.8016      12.029307       3.46087
  48    0.1069        8.7720        0.0012       20.7928       20.7939      12.021897       3.94431
  47    0.1255        8.7718        0.0017       20.7820       20.7837      12.011992       4.49036
  46    0.1487        8.7714        0.0024       20.7665       20.7688      11.997429       5.30847
  45    0.1794        8.7710        0.0033       20.7424       20.7457      11.974764       6.22207
  44    0.2165        8.7704        0.0044       20.7103       20.7147      11.944241       6.94344
  43    0.2613        8.7699        0.0056       20.6675       20.6731      11.903246       7.72737
  42    0.3336        8.7690        0.0077       20.5880       20.5957      11.826685       8.92631
  41    0.4307        8.7679        0.0104       20.4722       20.4826      11.714732       9.73409
  40    0.5894        8.7663        0.0147       20.2637       20.2784      11.512046      10.77854
  39     1.339        8.7629        0.0331       19.0984       19.1315      10.368559      12.87360
  38     1.782        8.7635        0.0427       18.4394       18.4821       9.718625      12.37369
  37     2.292        8.7661        0.0530       17.7714       17.8244       9.058267      10.93725
  36     2.964        8.7727        0.0657       17.0421       17.1078       8.335122       9.07766
  35     3.853        8.7856        0.0816       16.2678       16.3495       7.563910       7.31895
  34     5.035        8.8068        0.1018       15.4803       15.5821       6.775365       5.63304
  33     6.613        8.8376        0.1276       14.7157       14.8433       6.005711       4.11457
  32     8.786        8.8783        0.1614       13.9936       14.1550       5.276667       2.83134
  31     11.80        8.9314        0.2085       13.2835       13.4920       4.560574       2.00483
  30     15.07        8.9827        0.2573       12.7394       12.9967       4.013966       1.41123
  29     18.79        9.0357        0.3114       12.2666       12.5780       3.542373       1.06925
  28     23.16        9.0919        0.3730       11.8300       12.2030       3.111065       0.83401
  27     28.12        9.1496        0.4419       11.4279       11.8698       2.720186       0.66447
  26     33.73        9.2029        0.5179       11.0695       11.5874       2.384488       0.50473
  25     40.54        9.2535        0.6087       10.7209       11.3296       2.076113       0.38257
  24     48.69        9.3012        0.7164       10.3742       11.0906       1.789331       0.29677
  23     57.69        9.3405        0.8330       10.0549       10.8879       1.547351       0.22682
  22     68.43        9.3724        0.9697        9.7327       10.7025       1.330088       0.17080
  21     81.20        9.3878        1.1312        9.4134       10.5447       1.156820       0.11449
  20     96.49        9.3849        1.3211        9.0887       10.4098       1.024905       0.07281
  19     114.6        9.3718        1.5405        8.7388       10.2793       0.907469       0.05483
  18     136.5        9.3514        1.7913        8.3549       10.1462       0.794769       0.04334
  17     162.9        9.3239        2.0772        7.9311       10.0084       0.684405       0.03528
  16     196.4        9.2775        2.4314        7.4333        9.8647       0.587245       0.02446
  15     218.7        9.2439        2.6542        7.1295        9.7838       0.539849       0.01799
  14     243.0        9.2071        2.8871        6.8161        9.7032       0.496079       0.01518
  13     269.0        9.1669        3.1294        6.4943        9.6237       0.456771       0.01275
  12     297.5        9.1234        3.3797        6.1657        9.5455       0.422115       0.01028
  11     328.5        9.0779        3.6374        5.8295        9.4668       0.388929       0.00902
  10     361.9        9.0310        3.8997        5.4886        9.3883       0.357363       0.00799
   9     398.1        8.9827        4.1662        5.1440        9.3102       0.327443       0.00697
   8     437.6        8.9338        4.4354        4.7969        9.2323       0.298595       0.00617
   7     480.5        8.8843        4.7051        4.4504        9.1555       0.271205       0.00538
   6     533.0        8.8276        5.0127        4.0563        9.0690       0.241341       0.00480
   5     589.8        8.7718        5.3161        3.6682        8.9843       0.212417       0.00429
   4     651.6        8.7179        5.6115        3.2905        8.9020       0.184110       0.00387
   3     718.7        8.6663        5.8974        2.9252        8.8226       0.156376       0.00349
   2     792.3        8.6178        6.1705        2.5764        8.7470       0.129219       0.00311
   1     891.5        7.8743        7.9725        0.0003        7.9728       0.098473       0.00262
   0    1013.0        7.8843        7.9500        0.0003        7.9503       0.065987       0.00226



 Wavenumbers: 38000. - 50000. cm-1, ATM      1
 LEVEL PRESSURE   UPWARD FLUX   DIFDOWN FLUX  DIRDOWN FLUX  DOWNWARD FLUX   NET FLUX    HEATING RATE
          mb          W/m2          W/m2          W/m2        W/m2          W/m2       degree/day
  51    .06700        0.0061        0.0000        1.2836        1.2836       1.277518       0.00000
  50    .07753        0.0061        0.0001        1.2812        1.2812       1.275183       1.87150
  49    .09103        0.0060        0.0002        1.2777        1.2778       1.271851       2.08247
  48    0.1069        0.0059        0.0002        1.2731        1.2734       1.267473       2.33059
  47    0.1255        0.0058        0.0004        1.2672        1.2675       1.261717       2.60908
  46    0.1487        0.0057        0.0005        1.2586        1.2591       1.253391       3.03499
  45    0.1794        0.0055        0.0007        1.2455        1.2462       1.240623       3.50520
  44    0.2165        0.0054        0.0009        1.2282        1.2291       1.223697       3.85037
  43    0.2613        0.0052        0.0011        1.2054        1.2065       1.201348       4.21261
  42    0.3336        0.0049        0.0015        1.1639        1.1654       1.160524       4.75970
  41    0.4307        0.0045        0.0020        1.1051        1.1070       1.102565       5.03943
  40    0.5894        0.0039        0.0026        1.0039        1.0064       1.002524       5.32007
  39     1.339        0.0022        0.0035        0.5438        0.5473       0.545104       5.14971
  38     1.782        0.0016        0.0032        0.3635        0.3666       0.365006       3.42879
  37     2.292        0.0012        0.0027        0.2356        0.2383       0.237058       2.11916
  36     2.964        0.0009        0.0022        0.1455        0.1477       0.146786       1.13318
  35     3.853        0.0006        0.0017        0.0858        0.0875       0.086906       0.56828
  34     5.035        0.0004        0.0013        0.0488        0.0501       0.049701       0.26578
  33     6.613        0.0003        0.0010        0.0273        0.0282       0.027974       0.11615
  32     8.786        0.0002        0.0007        0.0144        0.0151       0.014928       0.05067
  31     11.80        0.0001        0.0004        0.0065        0.0070       0.006903       0.02247
  30     15.07        0.0000        0.0003        0.0031        0.0034       0.003329       0.00923
  29     18.79        0.0000        0.0002        0.0014        0.0016       0.001583       0.00396
  28     23.16        0.0000        0.0001        0.0006        0.0007       0.000720       0.00167
  27     28.12        0.0000        0.0001        0.0003        0.0003       0.000317       0.00069
  26     33.73        0.0000        0.0000        0.0001        0.0001       0.000140       0.00027
  25     40.54        0.0000        0.0000        0.0000        0.0001       0.000057       0.00010
  24     48.69        0.0000        0.0000        0.0000        0.0000       0.000021       0.00004
  23     57.69        0.0000        0.0000        0.0000        0.0000       0.000008       0.00001
  22     68.43        0.0000        0.0000        0.0000        0.0000       0.000003       0.00000
  21     81.20        0.0000        0.0000        0.0000        0.0000       0.000001       0.00000
  20     96.49        0.0000        0.0000        0.0000        0.0000       0.000000       0.00000
  19     114.6        0.0000        0.0000        0.0000        0.0000       0.000000       0.00000
  18     136.5        0.0000        0.0000        0.0000        0.0000       0.000000       0.00000
  17     162.9        0.0000        0.0000        0.0000        0.0000       0.000000       0.00000
  16     196.4        0.0000        0.0000        0.0000        0.0000       0.000000       0.00000
  15     218.7        0.0000        0.0000        0.0000        0.0000       0.000000       0.00000
  14     243.0        0.0000        0.0000        0.0000        0.0000       0.000000       0.00000
  13     269.0        0.0000        0.0000        0.0000        0.0000       0.000000       0.00000
  12     297.5        0.0000        0.0000        0.0000        0.0000       0.000000       0.00000
  11     328.5        0.0000        0.0000        0.0000        0.0000       0.000000       0.00000
  10     361.9        0.0000        0.0000        0.0000        0.0000       0.000000       0.00000
   9     398.1        0.0000        0.0000        0.0000        0.0000       0.000000       0.00000
   8     437.6        0.0000        0.0000        0.0000        0.0000       0.000000       0.00000
   7     480.5        0.0000        0.0000        0.0000        0.0000       0.000000       0.00000
   6     533.0        0.0000        0.0000        0.0000        0.0000       0.000000       0.00000
   5     589.8        0.0000        0.0000        0.0000        0.0000       0.000000       0.00000
   4     651.6        0.0000        0.0000        0.0000        0.0000       0.000000       0.00000
   3     718.7        0.0000        0.0000        0.0000        0.0000       0.000000       0.00000
   2     792.3        0.0000        0.0000        0.0000        0.0000       0.000000       0.00000
   1     891.5        0.0000        0.0000        0.0000        0.0000       0.000000       0.00000
   0    1013.0        0.0000        0.0000        0.0000        0.0000       0.000000       0.00000



 Wavenumbers:   820. -  2600. cm-1, ATM      1
 LEVEL PRESSURE   UPWARD FLUX   DIFDOWN FLUX  DIRDOWN FLUX  DOWNWARD FLUX   NET FLUX    HEATING RATE
          mb          W/m2          W/m2          W/m2        W/m2          W/m2       degree/day
  51    .06700        1.4308        0.0000        6.0047        6.0047       4.573840       0.00000
  50    .07753        1.4308        0.0000        6.0008        6.0008       4.569987       3.08825
  49    .09103        1.4308        0.0000        5.9999        5.9999       4.569101       0.55361
  48    0.1069        1.4308        0.0000        5.9989        5.9989       4.568112       0.52656
  47    0.1255        1.4308        0.0000        5.9978        5.9978       4.566994       0.50653
  46    0.1487        1.4308        0.0000        5.9964        5.9964       4.565637       0.49461
  45    0.1794        1.4308        0.0000        5.9947        5.9947       4.563918       0.47204
  44    0.2165        1.4308        0.0000        5.9929        5.9929       4.562075       0.41914
  43    0.2613        1.4308        0.0000        5.9909        5.9909       4.560116       0.36937
  42    0.3336        1.4308        0.0000        5.9880        5.9880       4.557237       0.33561
  41    0.4307        1.4308        0.0000        5.9846        5.9846       4.553767       0.30169
  40    0.5894        1.4308        0.0000        5.9791        5.9791       4.548261       0.29281
  39     1.339        1.4308        0.0000        5.9536        5.9536       4.522770       0.28699
  38     1.782        1.4308        0.0000        5.9395        5.9395       4.508629       0.26922
  37     2.292        1.4308        0.0000        5.9237        5.9237       4.492875       0.26093
  36     2.964        1.4308        0.0000        5.9039        5.9039       4.473097       0.24827
  35     3.853        1.4308        0.0000        5.8793        5.8793       4.448435       0.23404
  34     5.035        1.4309        0.0000        5.8487        5.8487       4.417865       0.21838
  33     6.613        1.4309        0.0000        5.8108        5.8108       4.379891       0.20301
  32     8.786        1.4309        0.0000        5.7631        5.7631       4.332255       0.18500
  31     11.80        1.4309        0.0000        5.7039        5.7039       4.272979       0.16595
  30     15.07        1.4309        0.0000        5.6539        5.6539       4.222920       0.12924
  29     18.79        1.4310        0.0000        5.6127        5.6127       4.181760       0.09332
  28     23.16        1.4310        0.0000        5.5794        5.5794       4.148355       0.06459
  27     28.12        1.4311        0.0000        5.5518        5.5518       4.120754       0.04692
  26     33.73        1.4311        0.0000        5.5268        5.5268       4.095662       0.03773
  25     40.54        1.4312        0.0000        5.4993        5.4993       4.068169       0.03411
  24     48.69        1.4312        0.0000        5.4678        5.4678       4.036567       0.03270
  23     57.69        1.4313        0.0000        5.4340        5.4340       4.002710       0.03174
  22     68.43        1.4314        0.0000        5.3947        5.3948       3.963351       0.03094
  21     81.20        1.4315        0.0000        5.3497        5.3497       3.918214       0.02983
  20     96.49        1.4317        0.0000        5.2982        5.2982       3.866569       0.02850
  19     114.6        1.4318        0.0000        5.2389        5.2389       3.807086       0.02777
  18     136.5        1.4320        0.0000        5.1716        5.1717       3.739625       0.02594
  17     162.9        1.4323        0.0000        5.0890        5.0891       3.656702       0.02651
  16     196.4        1.4329        0.0000        4.9668        4.9668       3.533956       0.03090
  15     218.7        1.4334        0.0000        4.8585        4.8585       3.425083       0.04134
  14     243.0        1.4342        0.0000        4.7078        4.7079       3.273641       0.05252
  13     269.0        1.4354        0.0000        4.5343        4.5343       3.098838       0.05671
  12     297.5        1.4374        0.0000        4.3419        4.3420       2.904560       0.05762
  11     328.5        1.4400        0.0000        4.1281        4.1281       2.688112       0.05885
  10     361.9        1.4435        0.0000        3.8786        3.8787       2.435159       0.06400
   9     398.1        1.4480        0.0000        3.6159        3.6160       2.167921       0.06226
   8     437.6        1.4539        0.0000        3.3759        3.3759       1.922015       0.05258
   7     480.5        1.4610        0.0000        3.1957        3.1958       1.734750       0.03678
   6     533.0        1.4719        0.0000        3.0467        3.0467       1.574797       0.02573
   5     589.8        1.4880        0.0001        2.9023        2.9023       1.414370       0.02381
   4     651.6        1.5158        0.0001        2.7183        2.7184       1.202539       0.02897
   3     718.7        1.5642        0.0001        2.5058        2.5059       0.941660       0.03279
   2     792.3        1.6581        0.0001        2.2756        2.2757       0.617541       0.03717
   1     891.5        0.0021        0.3863        0.0003        0.3866       0.384507       0.01983
   0    1013.0        0.0025        0.3133        0.0002        0.3135       0.311052       0.00510

  Modules and versions used in this calculation:

       rrtmg_sw.1col.f90:  $Revision$                    rrtmg_sw_init.f90:  $Revision$        
     rrtmgsw_cldprop.f90:  $Revision$                  rrtmgsw_cldprmc.f90:  NOT USED          
     rrtmg_sw_reftra.f90:  $Revision$                  rrtmg_sw_spcvrt.f90:  NOT USED          
     rrtmg_sw_spcvmc.f90:  NOT USED                    rrtmgsw_setcoef.f90:  NOT USED          
     rrtmg_sw_taumol.f90:  $Revision$                  rrtmg_sw_vrtqdr.f90:  NOT USED          
                rrtatm.f:  NOT USED                             util_xxx.f:  NOT USED          
                 extra.f:  NOT USED                       rrtmg_sw_k_g.f90:  $Revision$        

