

 Wavenumbers:   820. - 50000. cm-1, ATM      1
 LEVEL PRESSURE   UPWARD FLUX   DIFDOWN FLUX  DIRDOWN FLUX  DOWNWARD FLUX   NET FLUX    HEATING RATE
          mb          W/m2          W/m2          W/m2        W/m2          W/m2       degree/day
  51    .06700      403.4049        0.0000      617.8126      617.8126     214.407715       0.00000
  50    .07753      403.4045        0.0014      617.7947      617.7961     214.391575      12.93613
  49    .09103      403.4040        0.0030      617.7778      617.7808     214.376766       9.25611
  48    0.1069      403.4036        0.0050      617.7581      617.7631     214.359505       9.18799
  47    0.1255      403.4031        0.0072      617.7340      617.7412     214.338161       9.67631
  46    0.1487      403.4025        0.0101      617.7009      617.7109     214.308476      10.82038
  45    0.1794      403.4017        0.0139      617.6521      617.6660     214.264247      12.14208
  44    0.2165      403.4010        0.0185      617.5895      617.6079     214.206927      13.03924
  43    0.2613      403.4003        0.0238      617.5089      617.5327     214.132416      14.04500
  42    0.3336      403.3994        0.0327      617.3641      617.3968     213.997334      15.74925
  41    0.4307      403.3987        0.0443      617.1591      617.2034     213.804714      16.74785
  40    0.5894      403.3985        0.0631      616.8005      616.8636     213.465029      18.06404
  39     1.339      403.4158        0.1480      614.9443      615.0923     211.676443      20.13623
  38     1.782      403.4386        0.1958      613.9670      614.1628     210.724200      18.12917
  37     2.292      403.4765        0.2502      613.0059      613.2561     209.779609      15.64490
  36     2.964      403.5434        0.3209      611.9577      612.2785     208.735161      13.11098
  35     3.853      403.6558        0.4136      610.8024      611.2160     207.560186      11.15072
  34     5.035      403.8287        0.5359      609.5327      610.0686     206.239854       9.43191
  33     6.613      404.0724        0.6982      608.1464      608.8447     204.772301       7.84554
  32     8.786      404.3898        0.9161      606.6250      607.5411     203.151372       6.29510
  31     11.80      404.8006        1.2262      604.8486      606.0749     201.274246       5.25536
  30     15.07      405.1916        1.5572      603.2440      604.8011     199.609557       4.29790
  29     18.79      405.5883        1.9295      601.6511      603.5807     197.992348       3.66671
  28     23.16      406.0001        2.3622      599.9927      602.3549     196.354854       3.16638
  27     28.12      406.4104        2.8547      598.2881      601.1428     194.732376       2.75810
  26     33.73      406.7811        3.4038      596.5951      599.9988     193.217790       2.27722
  25     40.54      407.1257        4.0648      594.7727      598.8375     191.711755       1.86841
  24     48.69      407.4413        4.8580      592.7865      597.6445     190.203163       1.56116
  23     57.69      407.6910        5.7251      590.7959      596.5210     188.829964       1.28717
  22     68.43      407.8832        6.7524      588.6191      595.3715     187.488272       1.05475
  21     81.20      407.9659        7.9703      586.2690      594.2393     186.273397       0.80277
  20     96.49      407.9288        9.4123      583.6961      593.1085     185.179674       0.60366
  19     114.6      407.8320       11.1090      580.7708      591.8798     184.047869       0.52847
  18     136.5      407.6721       13.0958      577.4359      590.5317     182.859568       0.45693
  17     162.9      407.4430       15.4274      573.5624      588.9898     181.546805       0.41961
  16     196.4      407.0570       18.4009      568.5907      586.9916     179.934597       0.40581
  15     218.7      406.7738       20.3235      565.0572      585.3807     178.606898       0.50408
  14     243.0      406.4561       22.3858      560.7495      583.1353     176.679189       0.66859
  13     269.0      406.1032       24.5890      555.3947      579.9837     173.880446       0.90790
  12     297.5      405.7177       26.9339      548.9964      575.9303     170.212612       1.08784
  11     328.5      405.3079       29.4271      542.0895      571.5167     166.208794       1.08863
  10     361.9      404.8779       32.0647      534.6242      566.6889     161.810992       1.11269
   9     398.1      404.4332       34.8513      526.4204      561.2718     156.838569       1.15846
   8     437.6      403.9858       37.7857      517.3907      555.1764     151.190595       1.20757
   7     480.5      403.5474       40.8659      507.7216      548.5875     145.040098       1.20793
   6     533.0      403.0840       44.5695      495.9006      540.4701     137.386142       1.23128
   5     589.8      402.7205       48.4563      483.0788      531.5351     128.814649       1.27229
   4     651.6      402.6015       52.5140      468.6907      521.2047     118.603171       1.39645
   3     718.7      402.9024       56.7344      453.2257      509.9601     107.057722       1.45094
   2     792.3      404.0610       61.0958      436.4928      497.5886      93.527595       1.55175
   1     891.5      370.1518      179.0199      266.4413      445.4612      75.309356       1.55028
   0    1013.0      375.6593      179.5764      250.0134      429.5898      53.930488       1.48444



 Wavenumbers:  2600. -  3250. cm-1, ATM      1
 LEVEL PRESSURE   UPWARD FLUX   DIFDOWN FLUX  DIRDOWN FLUX  DOWNWARD FLUX   NET FLUX    HEATING RATE
          mb          W/m2          W/m2          W/m2        W/m2          W/m2       degree/day
  51    .06700        0.4193        0.0000        5.4450        5.4450       5.025772       0.00000
  50    .07753        0.4193        0.0000        5.4450        5.4450       5.025764       0.00640
  49    .09103        0.4193        0.0000        5.4450        5.4450       5.025754       0.00627
  48    0.1069        0.4193        0.0000        5.4450        5.4450       5.025742       0.00613
  47    0.1255        0.4193        0.0000        5.4450        5.4450       5.025729       0.00599
  46    0.1487        0.4193        0.0000        5.4450        5.4450       5.025712       0.00608
  45    0.1794        0.4193        0.0000        5.4450        5.4450       5.025690       0.00625
  44    0.2165        0.4193        0.0000        5.4449        5.4449       5.025663       0.00612
  43    0.2613        0.4193        0.0000        5.4449        5.4449       5.025631       0.00600
  42    0.3336        0.4193        0.0000        5.4448        5.4448       5.025578       0.00617
  41    0.4307        0.4193        0.0000        5.4448        5.4448       5.025507       0.00620
  40    0.5894        0.4193        0.0000        5.4446        5.4446       5.025387       0.00637
  39     1.339        0.4193        0.0000        5.4439        5.4439       5.024680       0.00797
  38     1.782        0.4193        0.0000        5.4434        5.4434       5.024137       0.01034
  37     2.292        0.4193        0.0000        5.4427        5.4427       5.023421       0.01186
  36     2.964        0.4193        0.0000        5.4416        5.4416       5.022382       0.01304
  35     3.853        0.4193        0.0000        5.4402        5.4402       5.020905       0.01402
  34     5.035        0.4193        0.0000        5.4381        5.4381       5.018849       0.01468
  33     6.613        0.4193        0.0000        5.4353        5.4353       5.016068       0.01487
  32     8.786        0.4193        0.0000        5.4317        5.4317       5.012436       0.01411
  31     11.80        0.4193        0.0000        5.4269        5.4269       5.007656       0.01338
  30     15.07        0.4193        0.0000        5.4224        5.4224       5.003129       0.01169
  29     18.79        0.4193        0.0000        5.4180        5.4180       4.998716       0.01000
  28     23.16        0.4193        0.0000        5.4135        5.4135       4.994230       0.00868
  27     28.12        0.4193        0.0000        5.4088        5.4088       4.989582       0.00790
  26     33.73        0.4193        0.0000        5.4036        5.4036       4.984340       0.00788
  25     40.54        0.4193        0.0000        5.3966        5.3967       4.977397       0.00861
  24     48.69        0.4193        0.0000        5.3872        5.3872       4.967917       0.00981
  23     57.69        0.4193        0.0000        5.3754        5.3754       4.956129       0.01105
  22     68.43        0.4193        0.0000        5.3599        5.3599       4.940635       0.01218
  21     81.20        0.4193        0.0000        5.3401        5.3401       4.920794       0.01311
  20     96.49        0.4193        0.0000        5.3155        5.3155       4.896215       0.01357
  19     114.6        0.4193        0.0000        5.2853        5.2853       4.866001       0.01411
  18     136.5        0.4194        0.0001        5.2504        5.2505       4.831069       0.01343
  17     162.9        0.4195        0.0001        5.2111        5.2111       4.791690       0.01259
  16     196.4        0.4196        0.0001        5.1640        5.1641       4.744537       0.01187
  15     218.7        0.4197        0.0001        5.1331        5.1332       4.713501       0.01178
  14     243.0        0.4199        0.0001        5.0962        5.0963       4.676421       0.01286
  13     269.0        0.4202        0.0001        5.0511        5.0512       4.631000       0.01473
  12     297.5        0.4207        0.0001        4.9956        4.9957       4.575054       0.01659
  11     328.5        0.4213        0.0001        4.9304        4.9305       4.509175       0.01791
  10     361.9        0.4222        0.0001        4.8511        4.8512       4.429008       0.02028
   9     398.1        0.4235        0.0001        4.7507        4.7508       4.327351       0.02368
   8     437.6        0.4252        0.0001        4.6220        4.6222       4.196971       0.02788
   7     480.5        0.4276        0.0002        4.4625        4.4626       4.035002       0.03181
   6     533.0        0.4316        0.0002        4.2460        4.2462       3.814623       0.03545
   5     589.8        0.4376        0.0002        3.9954        3.9956       3.557959       0.03810
   4     651.6        0.4476        0.0002        3.7089        3.7090       3.261436       0.04055
   3     718.7        0.4641        0.0002        3.4018        3.4020       2.937888       0.04066
   2     792.3        0.4941        0.0002        3.0564        3.0566       2.562482       0.04305
   1     891.5        0.0216        0.4597        1.6624        2.1220       2.100483       0.03931
   0    1013.0        0.0249        0.3771        1.3417        1.7188       1.693862       0.02823



 Wavenumbers:  3250. -  4000. cm-1, ATM      1
 LEVEL PRESSURE   UPWARD FLUX   DIFDOWN FLUX  DIRDOWN FLUX  DOWNWARD FLUX   NET FLUX    HEATING RATE
          mb          W/m2          W/m2          W/m2        W/m2          W/m2       degree/day
  51    .06700        0.0100        0.0000        9.1795        9.1795       9.169574       0.00000
  50    .07753        0.0100        0.0000        9.1747        9.1747       9.164732       3.88148
  49    .09103        0.0100        0.0000        9.1713        9.1713       9.161344       2.11747
  48    0.1069        0.0100        0.0000        9.1688        9.1688       9.158819       1.34402
  47    0.1255        0.0100        0.0000        9.1665        9.1665       9.156560       1.02422
  46    0.1487        0.0100        0.0000        9.1641        9.1641       9.154118       0.88991
  45    0.1794        0.0100        0.0000        9.1612        9.1612       9.151240       0.79008
  44    0.2165        0.0100        0.0000        9.1583        9.1583       9.148320       0.66430
  43    0.2613        0.0100        0.0000        9.1553        9.1553       9.145347       0.56041
  42    0.3336        0.0100        0.0000        9.1511        9.1511       9.141168       0.48723
  41    0.4307        0.0100        0.0000        9.1464        9.1464       9.136400       0.41459
  40    0.5894        0.0100        0.0000        9.1393        9.1394       9.129394       0.37255
  39     1.339        0.0100        0.0000        9.1127        9.1127       9.102780       0.29962
  38     1.782        0.0100        0.0000        9.1011        9.1011       9.091192       0.22062
  37     2.292        0.0100        0.0000        9.0901        9.0901       9.080126       0.18329
  36     2.964        0.0100        0.0000        9.0776        9.0776       9.067696       0.15603
  35     3.853        0.0100        0.0000        9.0629        9.0629       9.052906       0.14036
  34     5.035        0.0099        0.0000        9.0441        9.0441       9.034167       0.13386
  33     6.613        0.0099        0.0000        9.0191        9.0191       9.009165       0.13366
  32     8.786        0.0099        0.0000        8.9843        8.9843       8.974382       0.13509
  31     11.80        0.0099        0.0000        8.9327        8.9327       8.922765       0.14451
  30     15.07        0.0099        0.0000        8.8758        8.8759       8.865920       0.14676
  29     18.79        0.0099        0.0000        8.8110        8.8110       8.801093       0.14698
  28     23.16        0.0099        0.0000        8.7365        8.7366       8.726648       0.14395
  27     28.12        0.0099        0.0000        8.6554        8.6555       8.645535       0.13789
  26     33.73        0.0099        0.0000        8.5719        8.5719       8.562036       0.12554
  25     40.54        0.0099        0.0001        8.4812        8.4812       8.471312       0.11255
  24     48.69        0.0099        0.0001        8.3838        8.3839       8.374011       0.10069
  23     57.69        0.0099        0.0001        8.2861        8.2862       8.276275       0.09161
  22     68.43        0.0099        0.0001        8.1751        8.1751       8.165279       0.08726
  21     81.20        0.0099        0.0001        8.0457        8.0458       8.035921       0.08548
  20     96.49        0.0098        0.0001        7.8949        7.8950       7.885217       0.08318
  19     114.6        0.0098        0.0001        7.7162        7.7163       7.706508       0.08344
  18     136.5        0.0098        0.0002        7.5193        7.5194       7.509664       0.07569
  17     162.9        0.0098        0.0002        7.2913        7.2915       7.281772       0.07284
  16     196.4        0.0097        0.0002        6.9660        6.9662       6.956499       0.08188
  15     218.7        0.0097        0.0002        6.6648        6.6650       6.655309       0.11435
  14     243.0        0.0097        0.0002        6.2619        6.2622       6.252510       0.13970
  13     269.0        0.0097        0.0003        5.7576        5.7579       5.748201       0.16360
  12     297.5        0.0097        0.0003        5.1719        5.1722       5.162490       0.17372
  11     328.5        0.0097        0.0002        4.5757        4.5760       4.566294       0.16210
  10     361.9        0.0097        0.0002        3.9995        3.9998       3.990060       0.14579
   9     398.1        0.0098        0.0002        3.4655        3.4657       3.455906       0.12445
   8     437.6        0.0100        0.0002        2.9740        2.9742       2.964295       0.10511
   7     480.5        0.0102        0.0002        2.5307        2.5309       2.520660       0.08713
   6     533.0        0.0107        0.0002        2.0614        2.0616       2.050856       0.07558
   5     589.8        0.0116        0.0002        1.6150        1.6151       1.603499       0.06640
   4     651.6        0.0136        0.0001        1.1565        1.1566       1.143015       0.06297
   3     718.7        0.0179        0.0001        0.7390        0.7391       0.721244       0.05300
   2     792.3        0.0293        0.0001        0.3985        0.3985       0.369253       0.04037
   1     891.5        0.0000        0.0207        0.0733        0.0940       0.094013       0.02342
   0    1013.0        0.0003        0.0021        0.0060        0.0082       0.007881       0.00598



 Wavenumbers:  4000. -  4650. cm-1, ATM      1
 LEVEL PRESSURE   UPWARD FLUX   DIFDOWN FLUX  DIRDOWN FLUX  DOWNWARD FLUX   NET FLUX    HEATING RATE
          mb          W/m2          W/m2          W/m2        W/m2          W/m2       degree/day
  51    .06700        2.1317        0.0000       10.7795       10.7795       8.647838       0.00000
  50    .07753        2.1317        0.0000       10.7795       10.7795       8.647837       0.00080
  49    .09103        2.1317        0.0000       10.7795       10.7795       8.647836       0.00078
  48    0.1069        2.1317        0.0000       10.7795       10.7795       8.647834       0.00076
  47    0.1255        2.1317        0.0000       10.7795       10.7795       8.647833       0.00075
  46    0.1487        2.1317        0.0000       10.7795       10.7795       8.647831       0.00076
  45    0.1794        2.1317        0.0000       10.7795       10.7795       8.647828       0.00078
  44    0.2165        2.1317        0.0000       10.7795       10.7795       8.647824       0.00076
  43    0.2613        2.1317        0.0000       10.7795       10.7795       8.647820       0.00075
  42    0.3336        2.1317        0.0000       10.7795       10.7795       8.647814       0.00077
  41    0.4307        2.1317        0.0000       10.7795       10.7795       8.647805       0.00077
  40    0.5894        2.1317        0.0000       10.7795       10.7795       8.647790       0.00080
  39     1.339        2.1317        0.0000       10.7794       10.7794       8.647701       0.00101
  38     1.782        2.1317        0.0000       10.7793       10.7793       8.647631       0.00133
  37     2.292        2.1317        0.0000       10.7792       10.7792       8.647537       0.00156
  36     2.964        2.1317        0.0000       10.7791       10.7791       8.647396       0.00176
  35     3.853        2.1317        0.0000       10.7789       10.7789       8.647188       0.00197
  34     5.035        2.1317        0.0000       10.7786       10.7786       8.646882       0.00219
  33     6.613        2.1317        0.0000       10.7781       10.7781       8.646430       0.00241
  32     8.786        2.1317        0.0000       10.7774       10.7774       8.645764       0.00259
  31     11.80        2.1317        0.0000       10.7763       10.7764       8.644716       0.00293
  30     15.07        2.1317        0.0001       10.7751       10.7752       8.643488       0.00317
  29     18.79        2.1317        0.0001       10.7736       10.7737       8.642003       0.00337
  28     23.16        2.1316        0.0001       10.7717       10.7718       8.640160       0.00356
  27     28.12        2.1316        0.0001       10.7695       10.7696       8.637930       0.00379
  26     33.73        2.1316        0.0001       10.7667       10.7668       8.635180       0.00413
  25     40.54        2.1316        0.0002       10.7629       10.7631       8.631452       0.00462
  24     48.69        2.1316        0.0002       10.7579       10.7581       8.626487       0.00514
  23     57.69        2.1316        0.0002       10.7520       10.7522       8.620605       0.00551
  22     68.43        2.1316        0.0003       10.7446       10.7449       8.613236       0.00579
  21     81.20        2.1317        0.0003       10.7355       10.7358       8.604170       0.00599
  20     96.49        2.1317        0.0004       10.7245       10.7249       8.593149       0.00608
  19     114.6        2.1318        0.0005       10.7107       10.7112       8.579382       0.00643
  18     136.5        2.1319        0.0005       10.6942       10.6947       8.562817       0.00637
  17     162.9        2.1321        0.0006       10.6740       10.6747       8.542543       0.00648
  16     196.4        2.1325        0.0008       10.6464       10.6471       8.514645       0.00702
  15     218.7        2.1328        0.0009       10.6255       10.6263       8.493471       0.00804
  14     243.0        2.1334        0.0010       10.5980       10.5990       8.465614       0.00966
  13     269.0        2.1342        0.0011       10.5611       10.5621       8.427916       0.01223
  12     297.5        2.1355        0.0012       10.5119       10.5131       8.377621       0.01492
  11     328.5        2.1372        0.0013       10.4499       10.4511       8.313921       0.01732
  10     361.9        2.1395        0.0014       10.3702       10.3716       8.232038       0.02072
   9     398.1        2.1424        0.0015       10.2678       10.2693       8.126862       0.02450
   8     437.6        2.1461        0.0017       10.1390       10.1406       7.994508       0.02830
   7     480.5        2.1509        0.0018        9.9877        9.9895       7.838640       0.03061
   6     533.0        2.1581        0.0020        9.7937        9.7956       7.637571       0.03235
   5     589.8        2.1684        0.0021        9.5752        9.5773       7.408870       0.03395
   4     651.6        2.1849        0.0023        9.2958        9.2981       7.113204       0.04043
   3     718.7        2.2120        0.0024        8.9267        8.9292       6.717130       0.04978
   2     792.3        2.2614        0.0026        8.4542        8.4568       6.195354       0.05984
   1     891.5        0.9967        1.5055        5.0175        6.5230       5.526296       0.05693
   0    1013.0        1.0622        1.3813        4.5553        5.9365       4.874388       0.04527



 Wavenumbers:  4650. -  5150. cm-1, ATM      1
 LEVEL PRESSURE   UPWARD FLUX   DIFDOWN FLUX  DIRDOWN FLUX  DOWNWARD FLUX   NET FLUX    HEATING RATE
          mb          W/m2          W/m2          W/m2        W/m2          W/m2       degree/day
  51    .06700        1.1590        0.0000       10.2033       10.2033       9.044363       0.00000
  50    .07753        1.1590        0.0000       10.2031       10.2031       9.044127       0.18901
  49    .09103        1.1590        0.0000       10.2028       10.2028       9.043833       0.18428
  48    0.1069        1.1590        0.0000       10.2025       10.2025       9.043496       0.17931
  47    0.1255        1.1590        0.0000       10.2021       10.2021       9.043111       0.17426
  46    0.1487        1.1590        0.0000       10.2016       10.2016       9.042630       0.17536
  45    0.1794        1.1590        0.0000       10.2010       10.2010       9.041980       0.17850
  44    0.2165        1.1590        0.0000       10.2002       10.2002       9.041221       0.17277
  43    0.2613        1.1590        0.0000       10.1993       10.1993       9.040335       0.16690
  42    0.3336        1.1590        0.0000       10.1979       10.1979       9.038903       0.16702
  41    0.4307        1.1590        0.0000       10.1960       10.1960       9.037062       0.16002
  40    0.5894        1.1590        0.0000       10.1932       10.1932       9.034188       0.15283
  39     1.339        1.1590        0.0000       10.1816       10.1816       9.022597       0.13050
  38     1.782        1.1590        0.0000       10.1760       10.1760       9.017068       0.10526
  37     2.292        1.1590        0.0000       10.1706       10.1706       9.011612       0.09037
  36     2.964        1.1590        0.0000       10.1646       10.1647       9.005689       0.07435
  35     3.853        1.1590        0.0000       10.1584       10.1584       8.999476       0.05897
  34     5.035        1.1590        0.0000       10.1521       10.1521       8.993141       0.04525
  33     6.613        1.1590        0.0000       10.1456       10.1456       8.986685       0.03451
  32     8.786        1.1589        0.0001       10.1386       10.1386       8.979677       0.02722
  31     11.80        1.1589        0.0001       10.1295       10.1296       8.970640       0.02530
  30     15.07        1.1589        0.0001       10.1196       10.1197       8.960766       0.02549
  29     18.79        1.1589        0.0001       10.1076       10.1077       8.948764       0.02721
  28     23.16        1.1589        0.0001       10.0923       10.0924       8.933468       0.02958
  27     28.12        1.1589        0.0002       10.0731       10.0733       8.914384       0.03244
  26     33.73        1.1589        0.0002       10.0500       10.0502       8.891303       0.03470
  25     40.54        1.1589        0.0002       10.0201       10.0204       8.861418       0.03708
  24     48.69        1.1590        0.0003        9.9820        9.9822       8.823269       0.03948
  23     57.69        1.1590        0.0003        9.9384        9.9388       8.779759       0.04078
  22     68.43        1.1591        0.0004        9.8858        9.8861       8.727064       0.04143
  21     81.20        1.1592        0.0005        9.8234        9.8239       8.664721       0.04119
  20     96.49        1.1593        0.0005        9.7518        9.7523       8.592968       0.03960
  19     114.6        1.1596        0.0006        9.6719        9.6726       8.513000       0.03734
  18     136.5        1.1599        0.0008        9.5858        9.5866       8.426669       0.03320
  17     162.9        1.1604        0.0009        9.4940        9.4949       8.334580       0.02944
  16     196.4        1.1611        0.0011        9.3883        9.3894       8.228241       0.02677
  15     218.7        1.1617        0.0012        9.3229        9.3241       8.162390       0.02500
  14     243.0        1.1625        0.0013        9.2520        9.2533       8.090766       0.02484
  13     269.0        1.1636        0.0014        9.1717        9.1731       8.009476       0.02637
  12     297.5        1.1652        0.0016        9.0763        9.0779       7.912658       0.02872
  11     328.5        1.1673        0.0017        8.9650        8.9667       7.799417       0.03079
  10     361.9        1.1700        0.0019        8.8349        8.8368       7.666812       0.03355
   9     398.1        1.1735        0.0020        8.6820        8.6841       7.510531       0.03641
   8     437.6        1.1782        0.0022        8.5028        8.5050       7.326845       0.03927
   7     480.5        1.1842        0.0024        8.2948        8.2972       7.112964       0.04201
   6     533.0        1.1935        0.0025        8.0209        8.0234       6.829945       0.04553
   5     589.8        1.2064        0.0027        7.7063        7.7090       6.502613       0.04859
   4     651.6        1.2257        0.0029        7.3412        7.3441       6.118452       0.05253
   3     718.7        1.2547        0.0030        6.9387        6.9417       5.686936       0.05423
   2     792.3        1.3010        0.0031        6.5066        6.5097       5.208699       0.05485
   1     891.5        0.2626        1.0845        3.8207        4.9052       4.642612       0.04817
   0    1013.0        0.2845        0.9789        3.4129        4.3918       4.107394       0.03716



 Wavenumbers:  5150. -  6150. cm-1, ATM      1
 LEVEL PRESSURE   UPWARD FLUX   DIFDOWN FLUX  DIRDOWN FLUX  DOWNWARD FLUX   NET FLUX    HEATING RATE
          mb          W/m2          W/m2          W/m2        W/m2          W/m2       degree/day
  51    .06700        4.0213        0.0000       25.5798       25.5798      21.558569       0.00000
  50    .07753        4.0213        0.0000       25.5798       25.5798      21.558530       0.03158
  49    .09103        4.0213        0.0000       25.5797       25.5797      21.558479       0.03206
  48    0.1069        4.0213        0.0000       25.5797       25.5797      21.558417       0.03257
  47    0.1255        4.0213        0.0000       25.5796       25.5796      21.558344       0.03307
  46    0.1487        4.0212        0.0000       25.5795       25.5795      21.558249       0.03484
  45    0.1794        4.0212        0.0000       25.5794       25.5794      21.558114       0.03709
  44    0.2165        4.0212        0.0000       25.5792       25.5792      21.557948       0.03765
  43    0.2613        4.0212        0.0000       25.5790       25.5790      21.557746       0.03823
  42    0.3336        4.0212        0.0000       25.5786       25.5786      21.557399       0.04039
  41    0.4307        4.0212        0.0000       25.5782       25.5782      21.556928       0.04093
  40    0.5894        4.0212        0.0000       25.5774       25.5774      21.556140       0.04194
  39     1.339        4.0212        0.0000       25.5735       25.5736      21.552341       0.04277
  38     1.782        4.0212        0.0000       25.5713       25.5713      21.550129       0.04210
  37     2.292        4.0212        0.0001       25.5688       25.5688      21.547627       0.04145
  36     2.964        4.0212        0.0001       25.5656       25.5656      21.544448       0.03990
  35     3.853        4.0212        0.0001       25.5615       25.5616      21.540409       0.03833
  34     5.035        4.0212        0.0001       25.5562       25.5564      21.535208       0.03715
  33     6.613        4.0211        0.0002       25.5494       25.5496      21.528463       0.03606
  32     8.786        4.0211        0.0002       25.5406       25.5408      21.519723       0.03394
  31     11.80        4.0211        0.0003       25.5287       25.5290      21.507906       0.03308
  30     15.07        4.0210        0.0004       25.5167       25.5171      21.496059       0.03059
  29     18.79        4.0210        0.0005       25.5042       25.5047      21.483679       0.02807
  28     23.16        4.0210        0.0006       25.4907       25.4913      21.470347       0.02578
  27     28.12        4.0209        0.0008       25.4764       25.4772      21.456296       0.02389
  26     33.73        4.0209        0.0009       25.4620       25.4629      21.442066       0.02140
  25     40.54        4.0208        0.0011       25.4463       25.4474      21.426520       0.01929
  24     48.69        4.0208        0.0013       25.4294       25.4307      21.409891       0.01721
  23     57.69        4.0208        0.0016       25.4126       25.4142      21.393400       0.01546
  22     68.43        4.0208        0.0019       25.3944       25.3963      21.375514       0.01406
  21     81.20        4.0208        0.0022       25.3744       25.3766      21.355853       0.01299
  20     96.49        4.0208        0.0026       25.3519       25.3546      21.333775       0.01219
  19     114.6        4.0208        0.0031       25.3262       25.3293      21.308472       0.01181
  18     136.5        4.0209        0.0037       25.2962       25.2999      21.279033       0.01132
  17     162.9        4.0209        0.0044       25.2521       25.2565      21.235555       0.01390
  16     196.4        4.0211        0.0053       25.1593       25.1646      21.143504       0.02317
  15     218.7        4.0212        0.0059       25.0159       25.0218      21.000573       0.05427
  14     243.0        4.0214        0.0065       24.7089       24.7154      20.693926       0.10636
  13     269.0        4.0218        0.0070       24.1619       24.1689      20.147079       0.17739
  12     297.5        4.0224        0.0076       23.4544       23.4619      19.439581       0.20984
  11     328.5        4.0232        0.0081       22.7355       22.7436      18.720384       0.19555
  10     361.9        4.0244        0.0087       21.9224       21.9311      17.906701       0.20587
   9     398.1        4.0261        0.0092       20.9939       21.0031      16.977012       0.21660
   8     437.6        4.0286        0.0097       19.9833       19.9930      15.964454       0.21649
   7     480.5        4.0320        0.0101       18.9483       18.9584      14.926390       0.20387
   6     533.0        4.0381        0.0106       17.7796       17.7902      13.752167       0.18890
   5     589.8        4.0479        0.0111       16.6726       16.6837      12.635770       0.16571
   4     651.6        4.0661        0.0116       15.6343       15.6459      11.579845       0.14440
   3     718.7        4.0992        0.0122       14.7738       14.7860      10.686774       0.11223
   2     792.3        4.1643        0.0129       14.0291       14.0420       9.877675       0.09279
   1     891.5        2.0856        2.5899        8.4205       11.0104       8.924852       0.08108
   0    1013.0        2.1775        2.4104        7.7487       10.1591       7.981675       0.06549



 Wavenumbers:  6150. -  7700. cm-1, ATM      1
 LEVEL PRESSURE   UPWARD FLUX   DIFDOWN FLUX  DIRDOWN FLUX  DOWNWARD FLUX   NET FLUX    HEATING RATE
          mb          W/m2          W/m2          W/m2        W/m2          W/m2       degree/day
  51    .06700        6.4881        0.0000       47.3109       47.3109      40.822806       0.00000
  50    .07753        6.4881        0.0000       47.3108       47.3108      40.822750       0.04553
  49    .09103        6.4881        0.0000       47.3107       47.3107      40.822676       0.04583
  48    0.1069        6.4880        0.0000       47.3106       47.3106      40.822590       0.04614
  47    0.1255        6.4880        0.0000       47.3105       47.3105      40.822487       0.04645
  46    0.1487        6.4880        0.0000       47.3104       47.3104      40.822354       0.04852
  45    0.1794        6.4880        0.0000       47.3102       47.3102      40.822167       0.05127
  44    0.2165        6.4880        0.0000       47.3100       47.3100      40.821940       0.05167
  43    0.2613        6.4880        0.0000       47.3097       47.3097      40.821664       0.05210
  42    0.3336        6.4880        0.0000       47.3092       47.3092      40.821195       0.05471
  41    0.4307        6.4880        0.0000       47.3085       47.3086      40.820560       0.05521
  40    0.5894        6.4880        0.0001       47.3074       47.3075      40.819500       0.05633
  39     1.339        6.4879        0.0001       47.3022       47.3023      40.814408       0.05733
  38     1.782        6.4879        0.0002       47.2991       47.2993      40.811438       0.05655
  37     2.292        6.4878        0.0003       47.2956       47.2959      40.808062       0.05591
  36     2.964        6.4878        0.0003       47.2912       47.2915      40.803744       0.05421
  35     3.853        6.4877        0.0004       47.2855       47.2859      40.798209       0.05252
  34     5.035        6.4876        0.0006       47.2780       47.2786      40.791029       0.05129
  33     6.613        6.4874        0.0008       47.2683       47.2691      40.781641       0.05019
  32     8.786        6.4872        0.0010       47.2556       47.2566      40.769342       0.04777
  31     11.80        6.4869        0.0013       47.2380       47.2394      40.752439       0.04732
  30     15.07        6.4866        0.0017       47.2201       47.2218      40.735152       0.04463
  29     18.79        6.4863        0.0021       47.2008       47.2030      40.716673       0.04190
  28     23.16        6.4859        0.0026       47.1795       47.1822      40.696284       0.03943
  27     28.12        6.4854        0.0032       47.1565       47.1597      40.674291       0.03739
  26     33.73        6.4849        0.0039       47.1324       47.1363      40.651372       0.03446
  25     40.54        6.4843        0.0046       47.1054       47.1100      40.625738       0.03180
  24     48.69        6.4835        0.0056       47.0754       47.0810      40.597487       0.02923
  23     57.69        6.4827        0.0066       47.0449       47.0515      40.568870       0.02682
  22     68.43        6.4816        0.0078       47.0110       47.0188      40.537138       0.02495
  21     81.20        6.4805        0.0092       46.9729       46.9821      40.501651       0.02345
  20     96.49        6.4790        0.0110       46.9294       46.9404      40.461321       0.02226
  19     114.6        6.4773        0.0130       46.8790       46.8920      40.414704       0.02177
  18     136.5        6.4753        0.0155       46.8200       46.8354      40.360104       0.02099
  17     162.9        6.4730        0.0184       46.7361       46.7545      40.281526       0.02512
  16     196.4        6.4699        0.0221       46.5703       46.5924      40.122440       0.04004
  15     218.7        6.4680        0.0245       46.3473       46.3718      39.903818       0.08300
  14     243.0        6.4660        0.0270       45.9299       45.9569      39.490865       0.14323
  13     269.0        6.4642        0.0295       45.1708       45.2003      38.736149       0.24483
  12     297.5        6.4626        0.0319       44.0115       44.0434      37.580795       0.34267
  11     328.5        6.4615        0.0344       42.7242       42.7586      36.297075       0.34904
  10     361.9        6.4611        0.0368       41.3539       41.3907      34.929602       0.34598
   9     398.1        6.4619        0.0391       39.7953       39.8344      33.372480       0.36277
   8     437.6        6.4647        0.0413       37.9948       38.0361      31.571386       0.38509
   7     480.5        6.4703        0.0433       36.0647       36.1080      29.637719       0.37976
   6     533.0        6.4823        0.0453       33.7773       33.8226      27.340300       0.36958
   5     589.8        6.5050        0.0471       31.4082       31.4553      24.950219       0.35477
   4     651.6        6.5508        0.0483       28.8834       28.9317      22.380902       0.35136
   3     718.7        6.6388        0.0493       26.4104       26.4597      19.820930       0.32172
   2     792.3        6.8200        0.0500       24.0056       24.0556      17.235636       0.29650
   1     891.5        3.4562        4.2353       13.6685       17.9038      14.447617       0.23725
   0    1013.0        3.7186        3.7794       11.9823       15.7617      12.043059       0.16696



 Wavenumbers:  7700. -  8050. cm-1, ATM      1
 LEVEL PRESSURE   UPWARD FLUX   DIFDOWN FLUX  DIRDOWN FLUX  DOWNWARD FLUX   NET FLUX    HEATING RATE
          mb          W/m2          W/m2          W/m2        W/m2          W/m2       degree/day
  51    .06700        5.8748        0.0000       11.1810       11.1810       5.306149       0.00000
  50    .07753        5.8748        0.0000       11.1809       11.1809       5.306128       0.01737
  49    .09103        5.8748        0.0000       11.1809       11.1809       5.306100       0.01703
  48    0.1069        5.8748        0.0000       11.1809       11.1809       5.306069       0.01667
  47    0.1255        5.8748        0.0000       11.1809       11.1809       5.306033       0.01631
  46    0.1487        5.8748        0.0000       11.1808       11.1808       5.305988       0.01655
  45    0.1794        5.8749        0.0000       11.1808       11.1808       5.305926       0.01703
  44    0.2165        5.8749        0.0000       11.1807       11.1807       5.305852       0.01671
  43    0.2613        5.8749        0.0000       11.1806       11.1806       5.305765       0.01639
  42    0.3336        5.8749        0.0000       11.1805       11.1805       5.305621       0.01678
  41    0.4307        5.8749        0.0000       11.1803       11.1804       5.305431       0.01659
  40    0.5894        5.8750        0.0000       11.1801       11.1801       5.305119       0.01657
  39     1.339        5.8752        0.0001       11.1788       11.1789       5.303644       0.01660
  38     1.782        5.8754        0.0001       11.1781       11.1782       5.302778       0.01649
  37     2.292        5.8756        0.0001       11.1772       11.1773       5.301776       0.01660
  36     2.964        5.8758        0.0002       11.1761       11.1762       5.300459       0.01652
  35     3.853        5.8761        0.0002       11.1746       11.1748       5.298720       0.01650
  34     5.035        5.8765        0.0003       11.1726       11.1729       5.296411       0.01650
  33     6.613        5.8770        0.0004       11.1700       11.1703       5.293326       0.01649
  32     8.786        5.8777        0.0005       11.1664       11.1669       5.289170       0.01614
  31     11.80        5.8787        0.0006       11.1613       11.1619       5.283228       0.01663
  30     15.07        5.8798        0.0008       11.1558       11.1567       5.276855       0.01646
  29     18.79        5.8811        0.0010       11.1497       11.1507       5.269662       0.01631
  28     23.16        5.8825        0.0013       11.1425       11.1438       5.261272       0.01622
  27     28.12        5.8842        0.0015       11.1343       11.1359       5.251693       0.01628
  26     33.73        5.8860        0.0018       11.1252       11.1270       5.240994       0.01609
  25     40.54        5.8883        0.0022       11.1142       11.1164       5.228099       0.01600
  24     48.69        5.8911        0.0027       11.1010       11.1037       5.212598       0.01604
  23     57.69        5.8941        0.0032       11.0866       11.0897       5.195631       0.01590
  22     68.43        5.8978        0.0037       11.0695       11.0733       5.175504       0.01582
  21     81.20        5.9021        0.0044       11.0494       11.0538       5.151643       0.01577
  20     96.49        5.9074        0.0053       11.0255       11.0308       5.123377       0.01560
  19     114.6        5.9137        0.0062       10.9975       11.0038       5.090046       0.01556
  18     136.5        5.9213        0.0074       10.9648       10.9722       5.050855       0.01507
  17     162.9        5.9305        0.0088       10.9263       10.9351       5.004610       0.01478
  16     196.4        5.9425        0.0106       10.8773       10.8878       4.945284       0.01493
  15     218.7        5.9506        0.0117       10.8455       10.8573       4.906665       0.01466
  14     243.0        5.9595        0.0130       10.8114       10.8245       4.864932       0.01447
  13     269.0        5.9694        0.0144       10.7749       10.7893       4.819909       0.01461
  12     297.5        5.9802        0.0159       10.7357       10.7516       4.771360       0.01440
  11     328.5        5.9923        0.0175       10.6937       10.7112       4.718959       0.01425
  10     361.9        6.0056        0.0192       10.6489       10.6681       4.662462       0.01429
   9     398.1        6.0205        0.0211       10.6008       10.6218       4.601353       0.01424
   8     437.6        6.0371        0.0231       10.5491       10.5721       4.534986       0.01419
   7     480.5        6.0559        0.0252       10.4934       10.5186       4.462760       0.01418
   6     533.0        6.0803        0.0278       10.4243       10.4521       4.371809       0.01463
   5     589.8        6.1088        0.0306       10.3479       10.3785       4.269747       0.01515
   4     651.6        6.1430        0.0336       10.2613       10.2950       4.152011       0.01610
   3     718.7        6.1849        0.0368       10.1618       10.1986       4.013716       0.01738
   2     792.3        6.2381        0.0402       10.0439       10.0841       3.846046       0.01923
   1     891.5        5.1943        2.4486        6.3486        8.7972       3.602881       0.02069
   0    1013.0        5.3061        2.3984        6.1861        8.5846       3.278455       0.02253



 Wavenumbers:  8050. - 12850. cm-1, ATM      1
 LEVEL PRESSURE   UPWARD FLUX   DIFDOWN FLUX  DIRDOWN FLUX  DOWNWARD FLUX   NET FLUX    HEATING RATE
          mb          W/m2          W/m2          W/m2        W/m2          W/m2       degree/day
  51    .06700       95.1455        0.0000      156.5418      156.5418      61.396298       0.00000
  50    .07753       95.1454        0.0000      156.5417      156.5417      61.396298      -0.00000
  49    .09103       95.1454        0.0001      156.5417      156.5417      61.396298       0.00000
  48    0.1069       95.1454        0.0001      156.5416      156.5417      61.396298       0.00000
  47    0.1255       95.1454        0.0002      156.5415      156.5417      61.396298      -0.00000
  46    0.1487       95.1454        0.0002      156.5414      156.5417      61.396298       0.00000
  45    0.1794       95.1453        0.0003      156.5413      156.5416      61.396298       0.00000
  44    0.2165       95.1453        0.0004      156.5412      156.5416      61.396298      -0.00000
  43    0.2613       95.1452        0.0006      156.5410      156.5415      61.396298      -0.00000
  42    0.3336       95.1452        0.0008      156.5407      156.5415      61.396298       0.00000
  41    0.4307       95.1451        0.0010      156.5403      156.5414      61.396298      -0.00000
  40    0.5894       95.1449        0.0015      156.5397      156.5412      61.396298       0.00000
  39     1.339       95.1441        0.0036      156.5367      156.5404      61.396298      -0.00000
  38     1.782       95.1436        0.0049      156.5350      156.5399      61.396298      -0.00000
  37     2.292       95.1430        0.0063      156.5330      156.5393      61.396298      -0.00000
  36     2.964       95.1423        0.0082      156.5303      156.5386      61.396298       0.00000
  35     3.853       95.1413        0.0108      156.5268      156.5376      61.396298      -0.00000
  34     5.035       95.1400        0.0141      156.5222      156.5363      61.396298       0.00000
  33     6.613       95.1383        0.0186      156.5160      156.5346      61.396298      -0.00000
  32     8.786       95.1360        0.0246      156.5076      156.5323      61.396298      -0.00000
  31     11.80       95.1327        0.0333      156.4957      156.5290      61.396298       0.00000
  30     15.07       95.1291        0.0426      156.4828      156.5254      61.396298       0.00000
  29     18.79       95.1250        0.0531      156.4682      156.5213      61.396298       0.00000
  28     23.16       95.1203        0.0654      156.4512      156.5166      61.396298      -0.00000
  27     28.12       95.1149        0.0795      156.4317      156.5112      61.396298       0.00000
  26     33.73       95.1088        0.0953      156.4099      156.5051      61.396298       0.00000
  25     40.54       95.1015        0.1144      156.3834      156.4978      61.396298       0.00000
  24     48.69       95.0926        0.1374      156.3515      156.4889      61.396298      -0.00000
  23     57.69       95.0829        0.1628      156.3164      156.4792      61.396298       0.00000
  22     68.43       95.0713        0.1930      156.2746      156.4676      61.396298      -0.00000
  21     81.20       95.0574        0.2291      156.2246      156.4537      61.396298       0.00000
  20     96.49       95.0408        0.2722      156.1649      156.4371      61.396298      -0.00000
  19     114.6       95.0213        0.3234      156.0879      156.4114      61.390078       0.00290
  18     136.5       94.9981        0.3843      155.9962      156.3804      61.382362       0.00297
  17     162.9       94.9704        0.4569      155.8831      156.3400      61.369558       0.00409
  16     196.4       94.9345        0.5514      155.7199      156.2713      61.336746       0.00826
  15     218.7       94.9112        0.6135      155.5733      156.1868      61.275594       0.02322
  14     243.0       94.8863        0.6810      155.3367      156.0177      61.131310       0.05004
  13     269.0       94.8608        0.7540      154.9514      155.7054      60.844576       0.09302
  12     297.5       94.8361        0.8326      154.3896      155.2222      60.386163       0.13596
  11     328.5       94.8129        0.9174      153.7151      154.6325      59.819615       0.15404
  10     361.9       94.7931        1.0084      152.9087      153.9171      59.123969       0.17601
   9     398.1       94.7800        1.1057      151.8986      153.0043      58.224294       0.20960
   8     437.6       94.7788        1.2092      150.6031      151.8123      57.033487       0.25460
   7     480.5       94.7962        1.3186      149.0014      150.3200      55.523826       0.29649
   6     533.0       94.8527        1.4511      146.7375      148.1886      53.335914       0.35197
   5     589.8       94.9783        1.5899      143.8730      145.4628      50.484583       0.42323
   4     651.6       95.2497        1.7323      140.0955      141.8278      46.578129       0.53422
   3     718.7       95.7719        1.8771      135.5278      137.4049      41.633016       0.62146
   2     792.3       96.7886        2.0207      130.0690      132.0898      35.301157       0.72619
   1     891.5       87.1319       34.6314       78.6051      113.2365      26.104649       0.78258
   0    1013.0       91.1356       32.9116       72.6987      105.6103      14.474712       0.80753



 Wavenumbers: 12850. - 16000. cm-1, ATM      1
 LEVEL PRESSURE   UPWARD FLUX   DIFDOWN FLUX  DIRDOWN FLUX  DOWNWARD FLUX   NET FLUX    HEATING RATE
          mb          W/m2          W/m2          W/m2        W/m2          W/m2       degree/day
  51    .06700       79.8505        0.0000       98.0872       98.0872      18.236732       0.00000
  50    .07753       79.8505        0.0001       98.0864       98.0864      18.235940       0.63467
  49    .09103       79.8505        0.0002       98.0853       98.0855      18.234945       0.62162
  48    0.1069       79.8505        0.0003       98.0841       98.0843      18.233802       0.60833
  47    0.1255       79.8505        0.0004       98.0826       98.0830      18.232489       0.59533
  46    0.1487       79.8505        0.0005       98.0809       98.0814      18.230832       0.60417
  45    0.1794       79.8506        0.0007       98.0784       98.0792      18.228577       0.61906
  44    0.2165       79.8507        0.0010       98.0756       98.0766      18.225924       0.60352
  43    0.2613       79.8508        0.0013       98.0723       98.0736      18.222803       0.58820
  42    0.3336       79.8510        0.0017       98.0670       98.0687      18.217709       0.59392
  41    0.4307       79.8514        0.0023       98.0602       98.0625      18.211120       0.57290
  40    0.5894       79.8522        0.0034       98.0496       98.0529      18.200734       0.55232
  39     1.339       79.8589        0.0082       98.0043       98.0125      18.153620       0.53042
  38     1.782       79.8650        0.0110       97.9793       97.9903      18.125302       0.53913
  37     2.292       79.8741        0.0143       97.9498       97.9641      18.090009       0.58454
  36     2.964       79.8890        0.0186       97.9088       97.9274      18.038363       0.64832
  35     3.853       79.9132        0.0243       97.8503       97.8746      17.961426       0.73014
  34     5.035       79.9495        0.0318       97.7680       97.7998      17.850278       0.79400
  33     6.613       80.0002        0.0419       97.6562       97.6980      17.697820       0.81504
  32     8.786       80.0663        0.0554       97.5107       97.5661      17.499805       0.76902
  31     11.80       80.1523        0.0748       97.3179       97.3926      17.240333       0.72644
  30     15.07       80.2348        0.0955       97.1283       97.2238      16.989081       0.64868
  29     18.79       80.3191        0.1190       96.9300       97.0490      16.729908       0.58763
  28     23.16       80.4073        0.1463       96.7166       96.8629      16.455577       0.53047
  27     28.12       80.4962        0.1776       96.4935       96.6711      16.174816       0.47728
  26     33.73       80.5787        0.2126       96.2731       96.4856      15.906973       0.40271
  25     40.54       80.6585        0.2548       96.0408       96.2956      15.637144       0.33475
  24     48.69       80.7354        0.3058       95.7946       96.1004      15.364967       0.28166
  23     57.69       80.8013        0.3618       95.5573       95.9191      15.117809       0.23167
  22     68.43       80.8595        0.4285       95.3106       95.7391      14.879649       0.18723
  21     81.20       80.9011        0.5081       95.0643       95.5725      14.671319       0.13766
  20     96.49       80.9252        0.6031       94.8153       95.4184      14.493195       0.09831
  19     114.6       80.9547        0.7171       94.5411       95.2581      14.303395       0.08862
  18     136.5       80.9781        0.8522       94.2320       95.0842      14.106068       0.07588
  17     162.9       80.9953        1.0130       93.8753       94.8884      13.893031       0.06810
  16     196.4       80.9950        1.2217       93.4347       94.6564      13.661368       0.05831
  15     218.7       80.9867        1.3587       93.1513       94.5100      13.523370       0.05239
  14     243.0       80.9741        1.5077       92.8439       94.3516      13.377536       0.05058
  13     269.0       80.9573        1.6691       92.5111       94.1802      13.222977       0.05014
  12     297.5       80.9367        1.8436       92.1495       93.9930      13.056398       0.04941
  11     328.5       80.9143        2.0321       91.7554       93.7875      12.873194       0.04981
  10     361.9       80.8910        2.2350       91.3262       93.5613      12.670263       0.05134
   9     398.1       80.8682        2.4535       90.8575       93.3110      12.442847       0.05298
   8     437.6       80.8486        2.6880       90.3418       93.0298      12.181169       0.05595
   7     480.5       80.8350        2.9392       89.7728       92.7120      11.876980       0.05974
   6     533.0       80.8329        3.2481       89.0428       92.2910      11.458086       0.06739
   5     589.8       80.8581        3.5803       88.2038       91.7841      10.925974       0.07898
   4     651.6       80.9420        3.9354       87.1979       91.1334      10.191330       0.10046
   3     718.7       81.1060        4.3119       86.0161       90.3280       9.222012       0.12182
   2     792.3       81.4177        4.7058       84.5970       89.3028       7.885104       0.15333
   1     891.5       76.3384       28.9461       53.0737       82.0198       5.681324       0.18753
   0    1013.0       77.6294       28.8270       51.2587       80.0857       2.456369       0.22393



 Wavenumbers: 16000. - 22650. cm-1, ATM      1
 LEVEL PRESSURE   UPWARD FLUX   DIFDOWN FLUX  DIRDOWN FLUX  DOWNWARD FLUX   NET FLUX    HEATING RATE
          mb          W/m2          W/m2          W/m2        W/m2          W/m2       degree/day
  51    .06700      140.5272        0.0000      156.3892      156.3892      15.862086       0.00000
  50    .07753      140.5271        0.0004      156.3887      156.3891      15.861938       0.11804
  49    .09103      140.5271        0.0009      156.3879      156.3888      15.861724       0.13388
  48    0.1069      140.5271        0.0015      156.3871      156.3885      15.861437       0.15267
  47    0.1255      140.5271        0.0021      156.3861      156.3882      15.861054       0.17402
  46    0.1487      140.5272        0.0030      156.3847      156.3877      15.860488       0.20621
  45    0.1794      140.5273        0.0041      156.3828      156.3869      15.859603       0.24280
  44    0.2165      140.5275        0.0054      156.3805      156.3859      15.858404       0.27288
  43    0.2613      140.5279        0.0070      156.3776      156.3846      15.856776       0.30678
  42    0.3336      140.5286        0.0096      156.3726      156.3823      15.853682       0.36077
  41    0.4307      140.5298        0.0131      156.3657      156.3788      15.849018       0.40554
  40    0.5894      140.5324        0.0188      156.3537      156.3725      15.840122       0.47305
  39     1.339      140.5548        0.0458      156.2834      156.3292      15.774402       0.73989
  38     1.782      140.5756        0.0616      156.2324      156.2940      15.718416       1.06588
  37     2.292      140.6067        0.0799      156.1641      156.2440      15.637376       1.34223
  36     2.964      140.6584        0.1040      156.0605      156.1645      15.506090       1.64803
  35     3.853      140.7420        0.1357      155.9041      156.0398      15.297773       1.97697
  34     5.035      140.8682        0.1779      155.6774      155.8552      14.986981       2.22017
  33     6.613      141.0446        0.2341      155.3656      155.5997      14.555075       2.30897
  32     8.786      141.2743        0.3097      154.9577      155.2674      13.993072       2.18261
  31     11.80      141.5733        0.4178      154.4153      154.8331      13.259814       2.05289
  30     15.07      141.8596        0.5337      153.8804      154.4141      12.554454       1.82110
  29     18.79      142.1519        0.6644      153.3191      153.9834      11.831536       1.63908
  28     23.16      142.4574        0.8168      152.7126      153.5293      11.071948       1.46880
  27     28.12      142.7647        0.9908      152.0755      153.0663      10.301612       1.30952
  26     33.73      143.0482        1.1854      151.4409      152.6263       9.578048       1.08790
  25     40.54      143.3210        1.4202      150.7637      152.1839       8.862919       0.88720
  24     48.69      143.5820        1.7031      150.0338      151.7369       8.154943       0.73264
  23     57.69      143.8030        2.0134      149.3151      151.3285       7.525492       0.59002
  22     68.43      143.9956        2.3826      148.5476      150.9302       6.934613       0.46451
  21     81.20      144.1280        2.8222      147.7517      150.5738       6.445827       0.32298
  20     96.49      144.1958        3.3454      146.9127      150.2580       6.062260       0.21170
  19     114.6      144.2301        3.9649      145.9763      149.9412       5.711022       0.16400
  18     136.5      144.2396        4.6963      144.9088      149.6051       5.365500       0.13286
  17     162.9      144.2225        5.5633      143.6785      149.2419       5.019393       0.11063
  16     196.4      144.1389        6.6819      142.1651      148.8470       4.708111       0.07835
  15     218.7      144.0615        7.4129      141.2033      148.6162       4.554762       0.05822
  14     243.0      143.9671        8.2041      140.1753      148.3794       4.412338       0.04940
  13     269.0      143.8540        9.0576      139.0797      148.1373       4.283257       0.04187
  12     297.5      143.7217        9.9755      137.9141      147.8896       4.167901       0.03421
  11     328.5      143.5741       10.9621      136.6676      147.6297       4.055657       0.03052
  10     361.9      143.4109       12.0184      135.3392      147.3576       3.946668       0.02758
   9     398.1      143.2317       13.1482      133.9235      147.0717       3.840051       0.02484
   8     437.6      143.0373       14.3537      132.4163      146.7700       3.732680       0.02296
   7     480.5      142.8275       15.6371      130.8147      146.4517       3.624274       0.02129
   6     533.0      142.5692       17.2044      128.8599      146.0644       3.495141       0.02077
   5     589.8      142.2948       18.8791      126.7679      145.6471       3.352287       0.02120
   4     651.6      142.0104       20.6627      124.5274      145.1902       3.179761       0.02359
   3     718.7      141.7222       22.5569      122.1285      144.6854       2.963234       0.02721
   2     792.3      141.4468       24.5597      119.5548      144.1145       2.667713       0.03389
   1     891.5      134.1790       61.6265       74.6977      136.3242       2.145174       0.04447
   0    1013.0      134.1429       63.5061       71.9840      135.4902       1.347272       0.05540



 Wavenumbers: 22650. - 29000. cm-1, ATM      1
 LEVEL PRESSURE   UPWARD FLUX   DIFDOWN FLUX  DIRDOWN FLUX  DOWNWARD FLUX   NET FLUX    HEATING RATE
          mb          W/m2          W/m2          W/m2        W/m2          W/m2       degree/day
  51    .06700       58.6812        0.0000       59.0156       59.0156       0.334410       0.00000
  50    .07753       58.6811        0.0005       59.0151       59.0155       0.334410       0.00000
  49    .09103       58.6810        0.0010       59.0144       59.0154       0.334410      -0.00000
  48    0.1069       58.6809        0.0017       59.0136       59.0153       0.334410       0.00000
  47    0.1255       58.6807        0.0025       59.0127       59.0151       0.334410       0.00000
  46    0.1487       58.6805        0.0035       59.0115       59.0149       0.334410       0.00000
  45    0.1794       58.6803        0.0048       59.0099       59.0147       0.334410       0.00000
  44    0.2165       58.6800        0.0063       59.0080       59.0144       0.334410       0.00000
  43    0.2613       58.6796        0.0082       59.0058       59.0140       0.334410       0.00000
  42    0.3336       58.6790        0.0113       59.0022       59.0134       0.334410       0.00000
  41    0.4307       58.6782        0.0154       58.9973       59.0127       0.334410      -0.00000
  40    0.5894       58.6770        0.0220       58.9894       59.0114       0.334410       0.00000
  39     1.339       58.6709        0.0535       58.9518       59.0053       0.334410       0.00000
  38     1.782       58.6673        0.0720       58.9297       59.0017       0.334410      -0.00000
  37     2.292       58.6632        0.0934       58.9042       58.9976       0.334410       0.00000
  36     2.964       58.6578        0.1216       58.8706       58.9922       0.334410      -0.00000
  35     3.853       58.6506        0.1587       58.8264       58.9851       0.334410       0.00000
  34     5.035       58.6412        0.2080       58.7676       58.9756       0.334410       0.00000
  33     6.613       58.6285        0.2738       58.6891       58.9629       0.334410      -0.00000
  32     8.786       58.6114        0.3624       58.5834       58.9458       0.334410       0.00000
  31     11.80       58.5870        0.4890       58.4324       58.9215       0.334410       0.00000
  30     15.07       58.5609        0.6247       58.2706       58.8953       0.334410      -0.00000
  29     18.79       58.5315        0.7776       58.0882       58.8659       0.334410       0.00000
  28     23.16       58.4972        0.9559       57.8757       58.8316       0.334410       0.00000
  27     28.12       58.4580        1.1591       57.6333       58.7924       0.334410       0.00000
  26     33.73       58.4144        1.3857       57.3631       58.7488       0.334410       0.00000
  25     40.54       58.3619        1.6584       57.0379       58.6963       0.334410       0.00000
  24     48.69       58.2989        1.9854       56.6479       58.6333       0.334410      -0.00000
  23     57.69       58.2301        2.3424       56.2221       58.5645       0.334410       0.00000
  22     68.43       58.1487        2.7646       55.7186       58.4831       0.334410       0.00000
  21     81.20       58.0527        3.2632       55.1239       58.3871       0.334410       0.00000
  20     96.49       57.9394        3.8510       54.4228       58.2738       0.334410       0.00000
  19     114.6       57.8065        4.5399       53.6010       58.1409       0.334410      -0.00000
  18     136.5       57.6514        5.3441       52.6418       57.9859       0.334410       0.00000
  17     162.9       57.4701        6.2842       51.5203       57.8045       0.334410       0.00000
  16     196.4       57.2402        7.4752       50.0994       57.5746       0.334410       0.00000
  15     218.7       57.0924        8.2406       49.1863       57.4268       0.334410       0.00000
  14     243.0       56.9346        9.0577       48.2113       57.2690       0.334410      -0.00000
  13     269.0       56.7668        9.9262       47.1749       57.1012       0.334410       0.00000
  12     297.5       56.5891       10.8453       46.0783       56.9235       0.334410      -0.00000
  11     328.5       56.4013       11.8162       44.9195       56.7357       0.334410       0.00000
  10     361.9       56.2039       12.8364       43.7018       56.5383       0.334410      -0.00000
   9     398.1       55.9967       13.9061       42.4250       56.3312       0.334410       0.00000
   8     437.6       55.7803       15.0231       41.0916       56.1147       0.334410      -0.00000
   7     480.5       55.5550       16.1849       39.7045       55.8894       0.334410       0.00000
   6     533.0       55.2868       17.5669       38.0543       55.6212       0.334410      -0.00000
   5     589.8       55.0084       18.9997       36.3431       55.3428       0.334410       0.00000
   4     651.6       54.7212       20.4760       34.5795       55.0556       0.334410       0.00000
   3     718.7       54.4261       21.9903       32.7702       54.7605       0.334410      -0.00000
   2     792.3       54.1249       23.5338       30.9256       54.4593       0.334410      -0.00000
   1     891.5       52.0667       34.0052       18.3959       52.4011       0.334367       0.00000
   0    1013.0       51.7869       35.4063       16.7149       52.1213       0.334367      -0.00000



 Wavenumbers: 29000. - 38000. cm-1, ATM      1
 LEVEL PRESSURE   UPWARD FLUX   DIFDOWN FLUX  DIRDOWN FLUX  DOWNWARD FLUX   NET FLUX    HEATING RATE
          mb          W/m2          W/m2          W/m2        W/m2          W/m2       degree/day
  51    .06700        8.7682        0.0000       20.8114       20.8114      12.043118       0.00000
  50    .07753        8.7681        0.0003       20.8070       20.8074      12.039311       3.05155
  49    .09103        8.7678        0.0007       20.8009       20.8016      12.033774       3.46085
  48    0.1069        8.7676        0.0012       20.7928       20.7939      12.026364       3.94429
  47    0.1255        8.7673        0.0017       20.7820       20.7837      12.016459       4.49034
  46    0.1487        8.7669        0.0024       20.7665       20.7688      12.001896       5.30844
  45    0.1794        8.7665        0.0033       20.7424       20.7457      11.979231       6.22204
  44    0.2165        8.7660        0.0044       20.7103       20.7147      11.948708       6.94341
  43    0.2613        8.7654        0.0056       20.6675       20.6731      11.907713       7.72733
  42    0.3336        8.7645        0.0077       20.5880       20.5957      11.831152       8.92626
  41    0.4307        8.7634        0.0104       20.4722       20.4826      11.719200       9.73403
  40    0.5894        8.7619        0.0147       20.2637       20.2784      11.516516      10.77847
  39     1.339        8.7585        0.0331       19.0984       19.1315      10.373038      12.87349
  38     1.782        8.7590        0.0427       18.4394       18.4821       9.723112      12.37353
  37     2.292        8.7616        0.0530       17.7714       17.8244       9.062766      10.93706
  36     2.964        8.7682        0.0657       17.0421       17.1078       8.339639       9.07742
  35     3.853        8.7810        0.0816       16.2678       16.3495       7.568456       7.31867
  34     5.035        8.8022        0.1018       15.4803       15.5821       6.779957       5.63272
  33     6.613        8.8329        0.1276       14.7157       14.8433       6.010366       4.11423
  32     8.786        8.8735        0.1614       13.9936       14.1549       5.281408       2.83101
  31     11.80        8.9266        0.2084       13.2835       13.4920       4.565433       2.00450
  30     15.07        8.9777        0.2573       12.7394       12.9966       4.018947       1.41092
  29     18.79        9.0305        0.3114       12.2666       12.5780       3.547487       1.06895
  28     23.16        9.0866        0.3729       11.8300       12.2029       3.116331       0.83372
  27     28.12        9.1441        0.4418       11.4279       11.8697       2.725618       0.66419
  26     33.73        9.1972        0.5178       11.0695       11.5873       2.390091       0.50447
  25     40.54        9.2475        0.6086       10.7209       11.3294       2.081900       0.38235
  24     48.69        9.2951        0.7162       10.3742       11.0904       1.795317       0.29657
  23     57.69        9.3341        0.8328       10.0549       10.8877       1.553530       0.22664
  22     68.43        9.3658        0.9695        9.7327       10.7022       1.336464       0.17064
  21     81.20        9.3810        1.1310        9.4134       10.5444       1.163372       0.11438
  20     96.49        9.3779        1.3208        9.0887       10.4095       1.031605       0.07273
  19     114.6        9.3645        1.5401        8.7388       10.2788       0.914313       0.05477
  18     136.5        9.3439        1.7908        8.3549       10.1457       0.801766       0.04328
  17     162.9        9.3162        2.0766        7.9311       10.0077       0.691566       0.03522
  16     196.4        9.2694        2.4306        7.4333        9.8639       0.594566       0.02442
  15     218.7        9.2356        2.6533        7.1295        9.7829       0.547255       0.01796
  14     243.0        9.1986        2.8861        6.8161        9.7022       0.503567       0.01515
  13     269.0        9.1582        3.1282        6.4943        9.6226       0.464337       0.01273
  12     297.5        9.1145        3.3785        6.1657        9.5442       0.429754       0.01026
  11     328.5        9.0688        3.6360        5.8295        9.4654       0.396643       0.00900
  10     361.9        9.0216        3.8981        5.4886        9.3868       0.365151       0.00797
   9     398.1        8.9731        4.1645        5.1440        9.3084       0.335306       0.00695
   8     437.6        8.9239        4.4334        4.7969        9.2304       0.306534       0.00615
   7     480.5        8.8741        4.7029        4.4504        9.1533       0.279222       0.00536
   6     533.0        8.8171        5.0103        4.0563        9.0665       0.249448       0.00479
   5     589.8        8.7609        5.3133        3.6682        8.9815       0.220617       0.00428
   4     651.6        8.7065        5.6084        3.2905        8.8989       0.192408       0.00386
   3     718.7        8.6544        5.8940        2.9252        8.8192       0.164778       0.00347
   2     792.3        8.6054        6.1667        2.5764        8.7431       0.137730       0.00310
   1     891.5        8.4077        7.1182        1.3942        8.5124       0.104703       0.00281
   0    1013.0        8.3770        7.3174        1.1281        8.4455       0.068518       0.00251



 Wavenumbers: 38000. - 50000. cm-1, ATM      1
 LEVEL PRESSURE   UPWARD FLUX   DIFDOWN FLUX  DIRDOWN FLUX  DOWNWARD FLUX   NET FLUX    HEATING RATE
          mb          W/m2          W/m2          W/m2        W/m2          W/m2       degree/day
  51    .06700        0.0061        0.0000        1.2836        1.2836       1.277518       0.00000
  50    .07753        0.0061        0.0001        1.2812        1.2812       1.275183       1.87150
  49    .09103        0.0060        0.0002        1.2777        1.2778       1.271851       2.08247
  48    0.1069        0.0059        0.0002        1.2731        1.2734       1.267473       2.33059
  47    0.1255        0.0058        0.0004        1.2672        1.2675       1.261717       2.60908
  46    0.1487        0.0057        0.0005        1.2586        1.2591       1.253391       3.03499
  45    0.1794        0.0055        0.0007        1.2455        1.2462       1.240623       3.50520
  44    0.2165        0.0054        0.0009        1.2282        1.2291       1.223697       3.85037
  43    0.2613        0.0052        0.0011        1.2054        1.2065       1.201348       4.21261
  42    0.3336        0.0049        0.0015        1.1639        1.1654       1.160524       4.75970
  41    0.4307        0.0045        0.0020        1.1051        1.1070       1.102565       5.03943
  40    0.5894        0.0039        0.0026        1.0039        1.0064       1.002524       5.32007
  39     1.339        0.0022        0.0035        0.5438        0.5473       0.545104       5.14971
  38     1.782        0.0016        0.0032        0.3635        0.3666       0.365006       3.42879
  37     2.292        0.0012        0.0027        0.2356        0.2383       0.237058       2.11916
  36     2.964        0.0009        0.0022        0.1455        0.1477       0.146786       1.13318
  35     3.853        0.0006        0.0017        0.0858        0.0875       0.086906       0.56828
  34     5.035        0.0004        0.0013        0.0488        0.0501       0.049701       0.26578
  33     6.613        0.0003        0.0010        0.0273        0.0282       0.027974       0.11615
  32     8.786        0.0002        0.0007        0.0144        0.0151       0.014928       0.05067
  31     11.80        0.0001        0.0004        0.0065        0.0070       0.006903       0.02247
  30     15.07        0.0000        0.0003        0.0031        0.0034       0.003329       0.00923
  29     18.79        0.0000        0.0002        0.0014        0.0016       0.001583       0.00396
  28     23.16        0.0000        0.0001        0.0006        0.0007       0.000720       0.00167
  27     28.12        0.0000        0.0001        0.0003        0.0003       0.000317       0.00069
  26     33.73        0.0000        0.0000        0.0001        0.0001       0.000140       0.00027
  25     40.54        0.0000        0.0000        0.0000        0.0001       0.000057       0.00010
  24     48.69        0.0000        0.0000        0.0000        0.0000       0.000021       0.00004
  23     57.69        0.0000        0.0000        0.0000        0.0000       0.000008       0.00001
  22     68.43        0.0000        0.0000        0.0000        0.0000       0.000003       0.00000
  21     81.20        0.0000        0.0000        0.0000        0.0000       0.000001       0.00000
  20     96.49        0.0000        0.0000        0.0000        0.0000       0.000000       0.00000
  19     114.6        0.0000        0.0000        0.0000        0.0000       0.000000       0.00000
  18     136.5        0.0000        0.0000        0.0000        0.0000       0.000000       0.00000
  17     162.9        0.0000        0.0000        0.0000        0.0000       0.000000       0.00000
  16     196.4        0.0000        0.0000        0.0000        0.0000       0.000000       0.00000
  15     218.7        0.0000        0.0000        0.0000        0.0000       0.000000       0.00000
  14     243.0        0.0000        0.0000        0.0000        0.0000       0.000000       0.00000
  13     269.0        0.0000        0.0000        0.0000        0.0000       0.000000       0.00000
  12     297.5        0.0000        0.0000        0.0000        0.0000       0.000000       0.00000
  11     328.5        0.0000        0.0000        0.0000        0.0000       0.000000       0.00000
  10     361.9        0.0000        0.0000        0.0000        0.0000       0.000000       0.00000
   9     398.1        0.0000        0.0000        0.0000        0.0000       0.000000       0.00000
   8     437.6        0.0000        0.0000        0.0000        0.0000       0.000000       0.00000
   7     480.5        0.0000        0.0000        0.0000        0.0000       0.000000       0.00000
   6     533.0        0.0000        0.0000        0.0000        0.0000       0.000000       0.00000
   5     589.8        0.0000        0.0000        0.0000        0.0000       0.000000       0.00000
   4     651.6        0.0000        0.0000        0.0000        0.0000       0.000000       0.00000
   3     718.7        0.0000        0.0000        0.0000        0.0000       0.000000       0.00000
   2     792.3        0.0000        0.0000        0.0000        0.0000       0.000000       0.00000
   1     891.5        0.0000        0.0000        0.0000        0.0000       0.000000       0.00000
   0    1013.0        0.0000        0.0000        0.0000        0.0000       0.000000       0.00000



 Wavenumbers:   820. -  2600. cm-1, ATM      1
 LEVEL PRESSURE   UPWARD FLUX   DIFDOWN FLUX  DIRDOWN FLUX  DOWNWARD FLUX   NET FLUX    HEATING RATE
          mb          W/m2          W/m2          W/m2        W/m2          W/m2       degree/day
  51    .06700        0.3222        0.0000        6.0047        6.0047       5.682481       0.00000
  50    .07753        0.3222        0.0000        6.0008        6.0008       5.678628       3.08820
  49    .09103        0.3222        0.0000        5.9999        5.9999       5.677742       0.55357
  48    0.1069        0.3222        0.0000        5.9989        5.9989       5.676753       0.52651
  47    0.1255        0.3222        0.0000        5.9978        5.9978       5.675636       0.50649
  46    0.1487        0.3222        0.0000        5.9964        5.9964       5.674279       0.49456
  45    0.1794        0.3222        0.0000        5.9947        5.9947       5.672560       0.47199
  44    0.2165        0.3222        0.0000        5.9929        5.9929       5.670717       0.41909
  43    0.2613        0.3222        0.0000        5.9909        5.9909       5.668758       0.36932
  42    0.3336        0.3222        0.0000        5.9880        5.9880       5.665880       0.33555
  41    0.4307        0.3222        0.0000        5.9846        5.9846       5.662411       0.30164
  40    0.5894        0.3222        0.0000        5.9791        5.9791       5.656906       0.29275
  39     1.339        0.3222        0.0000        5.9536        5.9536       5.631420       0.28693
  38     1.782        0.3222        0.0000        5.9395        5.9395       5.617282       0.26916
  37     2.292        0.3222        0.0000        5.9237        5.9237       5.601532       0.26087
  36     2.964        0.3222        0.0000        5.9039        5.9039       5.581759       0.24821
  35     3.853        0.3222        0.0000        5.8793        5.8793       5.557104       0.23398
  34     5.035        0.3222        0.0000        5.8487        5.8487       5.526542       0.21832
  33     6.613        0.3222        0.0000        5.8108        5.8108       5.488579       0.20295
  32     8.786        0.3222        0.0000        5.7631        5.7631       5.440958       0.18494
  31     11.80        0.3222        0.0000        5.7039        5.7039       5.381704       0.16589
  30     15.07        0.3222        0.0000        5.6539        5.6539       5.331667       0.12918
  29     18.79        0.3222        0.0000        5.6127        5.6127       5.290534       0.09326
  28     23.16        0.3222        0.0000        5.5794        5.5794       5.257159       0.06454
  27     28.12        0.3222        0.0000        5.5518        5.5518       5.229592       0.04686
  26     33.73        0.3222        0.0000        5.5268        5.5268       5.204538       0.03767
  25     40.54        0.3222        0.0000        5.4993        5.4993       5.177092       0.03405
  24     48.69        0.3223        0.0000        5.4678        5.4678       5.145545       0.03265
  23     57.69        0.3223        0.0000        5.4340        5.4340       5.111749       0.03168
  22     68.43        0.3223        0.0000        5.3947        5.3948       5.072465       0.03088
  21     81.20        0.3223        0.0000        5.3497        5.3497       5.027416       0.02977
  20     96.49        0.3223        0.0000        5.2982        5.2982       4.975884       0.02844
  19     114.6        0.3224        0.0000        5.2389        5.2389       4.916537       0.02771
  18     136.5        0.3224        0.0000        5.1716        5.1717       4.849248       0.02587
  17     162.9        0.3225        0.0000        5.0890        5.0890       4.766569       0.02643
  16     196.4        0.3226        0.0000        4.9668        4.9668       4.644247       0.03079
  15     218.7        0.3227        0.0000        4.8585        4.8585       4.535780       0.04118
  14     243.0        0.3229        0.0000        4.7078        4.7079       4.384993       0.05230
  13     269.0        0.3231        0.0000        4.5343        4.5343       4.211157       0.05639
  12     297.5        0.3235        0.0000        4.3419        4.3420       4.018428       0.05716
  11     328.5        0.3241        0.0000        4.1281        4.1281       3.804051       0.05829
  10     361.9        0.3248        0.0000        3.8786        3.8787       3.553848       0.06330
   9     398.1        0.3258        0.0000        3.6159        3.6159       3.290167       0.06143
   8     437.6        0.3270        0.0000        3.3759        3.3759       3.048870       0.05159
   7     480.5        0.3285        0.0000        3.1957        3.1958       2.867252       0.03567
   6     533.0        0.3308        0.0000        3.0467        3.0467       2.715874       0.02435
   5     589.8        0.3342        0.0000        2.9023        2.9023       2.568101       0.02193
   4     651.6        0.3401        0.0000        2.7183        2.7184       2.378265       0.02596
   3     718.7        0.3502        0.0000        2.5058        2.5059       2.155655       0.02798
   2     792.3        0.3693        0.0000        2.2756        2.2757       1.906335       0.02859
   1     891.5        0.0112        0.3483        1.2633        1.6116       1.600385       0.02603
   0    1013.0        0.0136        0.2802        0.9959        1.2761       1.262536       0.02346

  Modules and versions used in this calculation:

       rrtmg_sw.1col.f90:  $Revision$                    rrtmg_sw_init.f90:  $Revision$        
     rrtmgsw_cldprop.f90:  $Revision$                  rrtmgsw_cldprmc.f90:  NOT USED          
     rrtmg_sw_reftra.f90:  $Revision$                  rrtmg_sw_spcvrt.f90:  NOT USED          
     rrtmg_sw_spcvmc.f90:  NOT USED                    rrtmgsw_setcoef.f90:  NOT USED          
     rrtmg_sw_taumol.f90:  $Revision$                  rrtmg_sw_vrtqdr.f90:  NOT USED          
                rrtatm.f:  NOT USED                             util_xxx.f:  NOT USED          
                 extra.f:  NOT USED                       rrtmg_sw_k_g.f90:  $Revision$        

