

 Wavenumbers:   820. - 50000. cm-1, ATM      1
 LEVEL PRESSURE   UPWARD FLUX   DIFDOWN FLUX  DIRDOWN FLUX  DOWNWARD FLUX   NET FLUX    HEATING RATE
          mb          W/m2          W/m2          W/m2        W/m2          W/m2       degree/day
  51    .06700      408.7235        0.0000      617.8126      617.8126     209.089090       0.00000
  50    .07753      408.7231        0.0013      617.7947      617.7961     209.072951      12.93571
  49    .09103      408.7227        0.0030      617.7778      617.7808     209.058143       9.25554
  48    0.1069      408.7222        0.0050      617.7581      617.7631     209.040883       9.18724
  47    0.1255      408.7217        0.0072      617.7340      617.7412     209.019541       9.67535
  46    0.1487      408.7211        0.0100      617.7009      617.7109     208.989860      10.81915
  45    0.1794      408.7203        0.0139      617.6521      617.6660     208.945636      12.14054
  44    0.2165      408.7196        0.0184      617.5895      617.6079     208.888324      13.03742
  43    0.2613      408.7188        0.0238      617.5089      617.5327     208.813825      14.04287
  42    0.3336      408.7179        0.0326      617.3641      617.3967     208.678765      15.74665
  41    0.4307      408.7171        0.0442      617.1591      617.2033     208.486180      16.74484
  40    0.5894      408.7168        0.0629      616.8005      616.8634     208.146562      18.06042
  39     1.339      408.7333        0.1476      614.9443      615.0918     206.358510      20.13022
  38     1.782      408.7555        0.1952      613.9670      614.1622     205.406735      18.12025
  37     2.292      408.7925        0.2494      613.0059      613.2553     204.462831      15.63352
  36     2.964      408.8580        0.3199      611.9577      612.2775     203.419506      13.09688
  35     3.853      408.9683        0.4123      610.8024      611.2147     202.246327      11.13368
  34     5.035      409.1382        0.5342      609.5327      610.0669     200.928686       9.41269
  33     6.613      409.3776        0.6960      608.1464      608.8425     199.464882       7.82550
  32     8.786      409.6893        0.9131      606.6250      607.5382     197.848835       6.27614
  31     11.80      410.0928        1.2222      604.8486      606.0709     195.978076       5.23753
  30     15.07      410.4765        1.5520      603.2440      604.7960     194.319507       4.28210
  29     18.79      410.8657        1.9231      601.6511      603.5743     192.708565       3.65250
  28     23.16      411.2694        2.3543      599.9927      602.3470     191.077644       3.15367
  27     28.12      411.6714        2.8451      598.2881      601.1332     189.461810       2.74681
  26     33.73      412.0340        3.3923      596.5951      599.9874     187.953406       2.26793
  25     40.54      412.3703        4.0510      594.7727      598.8237     186.453377       1.86096
  24     48.69      412.6773        4.8414      592.7865      597.6279     184.950589       1.55515
  23     57.69      412.9190        5.7055      590.7959      596.5013     183.582361       1.28251
  22     68.43      413.1031        6.7290      588.6191      595.3481     182.245054       1.05130
  21     81.20      413.1782        7.9426      586.2690      594.2115     181.033298       0.80071
  20     96.49      413.1342        9.3794      583.6961      593.0755     179.941308       0.60270
  19     114.6      413.0288       11.0697      580.7708      591.8405     178.811697       0.52745
  18     136.5      412.8599       13.0489      577.4359      590.4848     177.624898       0.45635
  17     162.9      412.6211       15.3715      573.5624      588.9339     176.312793       0.41940
  16     196.4      412.2248       18.3332      568.5907      586.9239     174.699089       0.40619
  15     218.7      411.9361       20.2481      565.0572      585.3053     173.369204       0.50491
  14     243.0      411.6133       22.3018      560.7495      583.0514     171.438032       0.66979
  13     269.0      411.2565       24.4959      555.3947      579.8905     168.634022       0.90961
  12     297.5      410.8689       26.8308      548.9964      575.8272     164.958289       1.09018
  11     328.5      410.4588       29.3131      542.0895      571.4026     160.943789       1.09153
  10     361.9      410.0313       31.9389      534.6242      566.5631     156.531840       1.11627
   9     398.1      409.5924       34.7128      526.4204      561.1332     151.540845       1.16279
   8     437.6      409.1557       37.6334      517.3907      555.0240     145.868286       1.21283
   7     480.5      408.7348       40.6987      507.7216      548.4202     139.685412       1.21429
   6     533.0      408.3039       44.3838      495.9006      540.2844     131.980431       1.23949
   5     589.8      407.9957       48.2504      483.0788      531.3292     123.333592       1.28347
   4     651.6      407.9780       52.2861      468.6907      520.9767     112.998787       1.41331
   3     718.7      408.4622       56.4826      453.2257      509.7084     101.246183       1.47698
   2     792.3      409.9759       60.8183      436.4928      497.3112      87.335240       1.59543
   1     891.5      363.1090      218.4472      213.7684      432.2156      69.106559       1.55117
   0    1013.0      369.3343      216.8314      200.5882      417.4196      48.085230       1.45962



 Wavenumbers:  2600. -  3250. cm-1, ATM      1
 LEVEL PRESSURE   UPWARD FLUX   DIFDOWN FLUX  DIRDOWN FLUX  DOWNWARD FLUX   NET FLUX    HEATING RATE
          mb          W/m2          W/m2          W/m2        W/m2          W/m2       degree/day
  51    .06700        1.3499        0.0000        5.4450        5.4450       4.095145       0.00000
  50    .07753        1.3499        0.0000        5.4450        5.4450       4.095137       0.00640
  49    .09103        1.3499        0.0000        5.4450        5.4450       4.095127       0.00627
  48    0.1069        1.3499        0.0000        5.4450        5.4450       4.095115       0.00613
  47    0.1255        1.3499        0.0000        5.4450        5.4450       4.095102       0.00599
  46    0.1487        1.3499        0.0000        5.4450        5.4450       4.095085       0.00608
  45    0.1794        1.3499        0.0000        5.4450        5.4450       4.095063       0.00625
  44    0.2165        1.3499        0.0000        5.4449        5.4449       4.095036       0.00612
  43    0.2613        1.3499        0.0000        5.4449        5.4449       4.095004       0.00600
  42    0.3336        1.3499        0.0000        5.4448        5.4448       4.094951       0.00617
  41    0.4307        1.3499        0.0000        5.4448        5.4448       4.094880       0.00620
  40    0.5894        1.3499        0.0000        5.4446        5.4446       4.094760       0.00637
  39     1.339        1.3499        0.0000        5.4439        5.4439       4.094052       0.00797
  38     1.782        1.3499        0.0000        5.4434        5.4434       4.093509       0.01034
  37     2.292        1.3499        0.0000        5.4427        5.4427       4.092793       0.01186
  36     2.964        1.3499        0.0000        5.4416        5.4416       4.091755       0.01304
  35     3.853        1.3499        0.0000        5.4402        5.4402       4.090277       0.01402
  34     5.035        1.3499        0.0000        5.4381        5.4381       4.088222       0.01468
  33     6.613        1.3499        0.0000        5.4353        5.4353       4.085441       0.01487
  32     8.786        1.3499        0.0000        5.4317        5.4317       4.081808       0.01411
  31     11.80        1.3499        0.0000        5.4269        5.4269       4.077027       0.01339
  30     15.07        1.3499        0.0000        5.4224        5.4224       4.072499       0.01169
  29     18.79        1.3499        0.0000        5.4180        5.4180       4.068086       0.01001
  28     23.16        1.3499        0.0000        5.4135        5.4135       4.063597       0.00868
  27     28.12        1.3499        0.0000        5.4088        5.4088       4.058946       0.00791
  26     33.73        1.3499        0.0000        5.4036        5.4036       4.053700       0.00789
  25     40.54        1.3499        0.0000        5.3966        5.3967       4.046751       0.00862
  24     48.69        1.3499        0.0000        5.3872        5.3872       4.037262       0.00982
  23     57.69        1.3499        0.0000        5.3754        5.3754       4.025460       0.01106
  22     68.43        1.3500        0.0000        5.3599        5.3599       4.009947       0.01220
  21     81.20        1.3500        0.0000        5.3401        5.3401       3.990078       0.01313
  20     96.49        1.3501        0.0000        5.3155        5.3155       3.965459       0.01359
  19     114.6        1.3502        0.0000        5.2853        5.2854       3.935191       0.01413
  18     136.5        1.3503        0.0001        5.2504        5.2505       3.900182       0.01346
  17     162.9        1.3505        0.0001        5.2111        5.2112       3.860691       0.01262
  16     196.4        1.3508        0.0001        5.1640        5.1641       3.813346       0.01192
  15     218.7        1.3511        0.0001        5.1331        5.1332       3.782113       0.01186
  14     243.0        1.3516        0.0001        5.0962        5.0963       3.744695       0.01298
  13     269.0        1.3524        0.0001        5.0511        5.0512       3.698754       0.01490
  12     297.5        1.3537        0.0001        4.9956        4.9957       3.642028       0.01682
  11     328.5        1.3554        0.0001        4.9304        4.9305       3.575068       0.01821
  10     361.9        1.3578        0.0001        4.8511        4.8512       3.493432       0.02065
   9     398.1        1.3611        0.0002        4.7507        4.7508       3.389777       0.02415
   8     437.6        1.3655        0.0002        4.6220        4.6222       3.256676       0.02846
   7     480.5        1.3716        0.0002        4.4625        4.4627       3.091013       0.03254
   6     533.0        1.3815        0.0002        4.2460        4.2462       2.864737       0.03640
   5     589.8        1.3963        0.0002        3.9954        3.9956       2.599279       0.03940
   4     651.6        1.4204        0.0002        3.7089        3.7091       2.288709       0.04247
   3     718.7        1.4590        0.0002        3.4018        3.4020       1.943011       0.04344
   2     792.3        1.5264        0.0002        3.0564        3.0566       1.530214       0.04734
   1     891.5        1.1400        0.8093        1.3336        2.1430       1.002927       0.04487
   0    1013.0        1.3118        0.6787        1.0764        1.7550       0.443227       0.03886



 Wavenumbers:  3250. -  4000. cm-1, ATM      1
 LEVEL PRESSURE   UPWARD FLUX   DIFDOWN FLUX  DIRDOWN FLUX  DOWNWARD FLUX   NET FLUX    HEATING RATE
          mb          W/m2          W/m2          W/m2        W/m2          W/m2       degree/day
  51    .06700        0.0139        0.0000        9.1795        9.1795       9.165590       0.00000
  50    .07753        0.0139        0.0000        9.1747        9.1747       9.160747       3.88148
  49    .09103        0.0139        0.0000        9.1713        9.1713       9.157359       2.11747
  48    0.1069        0.0139        0.0000        9.1688        9.1688       9.154834       1.34402
  47    0.1255        0.0139        0.0000        9.1665        9.1665       9.152575       1.02422
  46    0.1487        0.0139        0.0000        9.1641        9.1641       9.150134       0.88991
  45    0.1794        0.0139        0.0000        9.1612        9.1612       9.147256       0.79008
  44    0.2165        0.0139        0.0000        9.1583        9.1583       9.144336       0.66430
  43    0.2613        0.0139        0.0000        9.1553        9.1553       9.141363       0.56041
  42    0.3336        0.0139        0.0000        9.1511        9.1511       9.137184       0.48723
  41    0.4307        0.0139        0.0000        9.1464        9.1464       9.132415       0.41459
  40    0.5894        0.0139        0.0000        9.1393        9.1394       9.125410       0.37255
  39     1.339        0.0139        0.0000        9.1127        9.1127       9.098796       0.29962
  38     1.782        0.0139        0.0000        9.1011        9.1011       9.087208       0.22062
  37     2.292        0.0139        0.0000        9.0901        9.0901       9.076141       0.18329
  36     2.964        0.0139        0.0000        9.0776        9.0776       9.063711       0.15603
  35     3.853        0.0139        0.0000        9.0629        9.0629       9.048921       0.14036
  34     5.035        0.0139        0.0000        9.0441        9.0441       9.030182       0.13386
  33     6.613        0.0139        0.0000        9.0191        9.0191       9.005181       0.13366
  32     8.786        0.0139        0.0000        8.9843        8.9843       8.970397       0.13509
  31     11.80        0.0139        0.0000        8.9327        8.9327       8.918781       0.14451
  30     15.07        0.0139        0.0000        8.8758        8.8759       8.861936       0.14676
  29     18.79        0.0139        0.0000        8.8110        8.8110       8.797109       0.14698
  28     23.16        0.0139        0.0000        8.7365        8.7366       8.722664       0.14395
  27     28.12        0.0139        0.0000        8.6554        8.6555       8.641551       0.13789
  26     33.73        0.0139        0.0000        8.5719        8.5719       8.558051       0.12554
  25     40.54        0.0139        0.0001        8.4812        8.4812       8.467327       0.11255
  24     48.69        0.0139        0.0001        8.3838        8.3839       8.370026       0.10069
  23     57.69        0.0139        0.0001        8.2861        8.2862       8.272291       0.09161
  22     68.43        0.0139        0.0001        8.1751        8.1751       8.161294       0.08726
  21     81.20        0.0138        0.0001        8.0457        8.0458       8.031936       0.08548
  20     96.49        0.0138        0.0001        7.8949        7.8950       7.881233       0.08318
  19     114.6        0.0138        0.0001        7.7162        7.7163       7.702523       0.08344
  18     136.5        0.0138        0.0002        7.5193        7.5194       7.505679       0.07569
  17     162.9        0.0137        0.0002        7.2913        7.2915       7.277788       0.07284
  16     196.4        0.0137        0.0002        6.9660        6.9662       6.952514       0.08188
  15     218.7        0.0137        0.0002        6.6648        6.6650       6.651323       0.11435
  14     243.0        0.0137        0.0002        6.2619        6.2622       6.248523       0.13970
  13     269.0        0.0137        0.0003        5.7576        5.7579       5.744210       0.16360
  12     297.5        0.0137        0.0003        5.1719        5.1722       5.158490       0.17372
  11     328.5        0.0137        0.0002        4.5757        4.5760       4.562279       0.16211
  10     361.9        0.0138        0.0002        3.9995        3.9998       3.986019       0.14580
   9     398.1        0.0139        0.0002        3.4655        3.4657       3.451824       0.12446
   8     437.6        0.0141        0.0002        2.9740        2.9743       2.960145       0.10512
   7     480.5        0.0145        0.0002        2.5307        2.5309       2.516397       0.08715
   6     533.0        0.0152        0.0002        2.0614        2.0616       2.046379       0.07561
   5     589.8        0.0165        0.0002        1.6150        1.6151       1.598629       0.06646
   4     651.6        0.0193        0.0001        1.1565        1.1566       1.137326       0.06308
   3     718.7        0.0254        0.0001        0.7390        0.7391       0.713751       0.05323
   2     792.3        0.0416        0.0001        0.3985        0.3985       0.356963       0.04092
   1     891.5        0.0006        0.0275        0.0589        0.0863       0.085754       0.02308
   0    1013.0        0.0057        0.0029        0.0048        0.0077       0.001953       0.00582



 Wavenumbers:  4000. -  4650. cm-1, ATM      1
 LEVEL PRESSURE   UPWARD FLUX   DIFDOWN FLUX  DIRDOWN FLUX  DOWNWARD FLUX   NET FLUX    HEATING RATE
          mb          W/m2          W/m2          W/m2        W/m2          W/m2       degree/day
  51    .06700        5.0830        0.0000       10.7795       10.7795       5.696576       0.00000
  50    .07753        5.0830        0.0000       10.7795       10.7795       5.696575       0.00080
  49    .09103        5.0830        0.0000       10.7795       10.7795       5.696574       0.00078
  48    0.1069        5.0830        0.0000       10.7795       10.7795       5.696573       0.00076
  47    0.1255        5.0830        0.0000       10.7795       10.7795       5.696571       0.00075
  46    0.1487        5.0830        0.0000       10.7795       10.7795       5.696569       0.00076
  45    0.1794        5.0830        0.0000       10.7795       10.7795       5.696566       0.00078
  44    0.2165        5.0830        0.0000       10.7795       10.7795       5.696563       0.00076
  43    0.2613        5.0830        0.0000       10.7795       10.7795       5.696559       0.00075
  42    0.3336        5.0830        0.0000       10.7795       10.7795       5.696552       0.00077
  41    0.4307        5.0830        0.0000       10.7795       10.7795       5.696543       0.00077
  40    0.5894        5.0830        0.0000       10.7795       10.7795       5.696528       0.00080
  39     1.339        5.0830        0.0000       10.7794       10.7794       5.696439       0.00101
  38     1.782        5.0830        0.0000       10.7793       10.7793       5.696369       0.00133
  37     2.292        5.0830        0.0000       10.7792       10.7792       5.696275       0.00156
  36     2.964        5.0830        0.0000       10.7791       10.7791       5.696135       0.00176
  35     3.853        5.0830        0.0000       10.7789       10.7789       5.695926       0.00197
  34     5.035        5.0830        0.0000       10.7786       10.7786       5.695619       0.00219
  33     6.613        5.0830        0.0000       10.7781       10.7781       5.695167       0.00242
  32     8.786        5.0829        0.0000       10.7774       10.7774       5.694500       0.00259
  31     11.80        5.0829        0.0001       10.7763       10.7764       5.693452       0.00293
  30     15.07        5.0829        0.0001       10.7751       10.7752       5.692222       0.00318
  29     18.79        5.0829        0.0001       10.7736       10.7737       5.690734       0.00337
  28     23.16        5.0829        0.0001       10.7717       10.7718       5.688887       0.00357
  27     28.12        5.0829        0.0001       10.7695       10.7696       5.686651       0.00380
  26     33.73        5.0829        0.0002       10.7667       10.7668       5.683893       0.00415
  25     40.54        5.0830        0.0002       10.7629       10.7631       5.680151       0.00464
  24     48.69        5.0830        0.0002       10.7579       10.7581       5.675165       0.00516
  23     57.69        5.0830        0.0003       10.7520       10.7523       5.669252       0.00554
  22     68.43        5.0831        0.0003       10.7446       10.7449       5.661839       0.00583
  21     81.20        5.0832        0.0004       10.7355       10.7359       5.652709       0.00603
  20     96.49        5.0833        0.0004       10.7245       10.7249       5.641595       0.00613
  19     114.6        5.0836        0.0005       10.7107       10.7112       5.627690       0.00649
  18     136.5        5.0839        0.0006       10.6942       10.6948       5.610930       0.00644
  17     162.9        5.0844        0.0007       10.6740       10.6748       5.590366       0.00657
  16     196.4        5.0853        0.0009       10.6464       10.6473       5.561966       0.00715
  15     218.7        5.0861        0.0010       10.6255       10.6265       5.540334       0.00821
  14     243.0        5.0874        0.0011       10.5980       10.5992       5.511791       0.00990
  13     269.0        5.0893        0.0012       10.5611       10.5623       5.473064       0.01256
  12     297.5        5.0920        0.0014       10.5119       10.5133       5.421248       0.01537
  11     328.5        5.0959        0.0015       10.4499       10.4514       5.355455       0.01789
  10     361.9        5.1010        0.0016       10.3702       10.3718       5.270834       0.02141
   9     398.1        5.1073        0.0018       10.2678       10.2696       5.162259       0.02530
   8     437.6        5.1153        0.0019       10.1390       10.1409       5.025644       0.02921
   7     480.5        5.1253        0.0021        9.9877        9.9898       4.864469       0.03165
   6     533.0        5.1405        0.0023        9.7937        9.7960       4.655466       0.03362
   5     589.8        5.1620        0.0025        9.5752        9.5777       4.415674       0.03559
   4     651.6        5.1955        0.0027        9.2958        9.2985       4.102978       0.04276
   3     718.7        5.2497        0.0029        8.9267        8.9296       3.679970       0.05316
   2     792.3        5.3452        0.0031        8.4542        8.4573       3.112118       0.06513
   1     891.5        4.2770        2.6153        4.0252        6.6405       2.363481       0.06371
   0    1013.0        4.5473        2.4220        3.6543        6.0764       1.529093       0.05794



 Wavenumbers:  4650. -  5150. cm-1, ATM      1
 LEVEL PRESSURE   UPWARD FLUX   DIFDOWN FLUX  DIRDOWN FLUX  DOWNWARD FLUX   NET FLUX    HEATING RATE
          mb          W/m2          W/m2          W/m2        W/m2          W/m2       degree/day
  51    .06700        3.6038        0.0000       10.2033       10.2033       6.599560       0.00000
  50    .07753        3.6038        0.0000       10.2031       10.2031       6.599325       0.18901
  49    .09103        3.6038        0.0000       10.2028       10.2028       6.599030       0.18428
  48    0.1069        3.6038        0.0000       10.2025       10.2025       6.598693       0.17931
  47    0.1255        3.6038        0.0000       10.2021       10.2021       6.598308       0.17426
  46    0.1487        3.6038        0.0000       10.2016       10.2016       6.597827       0.17536
  45    0.1794        3.6038        0.0000       10.2010       10.2010       6.597177       0.17850
  44    0.2165        3.6038        0.0000       10.2002       10.2002       6.596418       0.17277
  43    0.2613        3.6038        0.0000       10.1993       10.1993       6.595532       0.16690
  42    0.3336        3.6038        0.0000       10.1979       10.1979       6.594100       0.16702
  41    0.4307        3.6038        0.0000       10.1960       10.1960       6.592259       0.16002
  40    0.5894        3.6038        0.0000       10.1932       10.1932       6.589385       0.15283
  39     1.339        3.6038        0.0000       10.1816       10.1816       6.577794       0.13050
  38     1.782        3.6038        0.0000       10.1760       10.1760       6.572265       0.10526
  37     2.292        3.6038        0.0000       10.1706       10.1706       6.566808       0.09038
  36     2.964        3.6038        0.0000       10.1646       10.1647       6.560885       0.07436
  35     3.853        3.6038        0.0000       10.1584       10.1584       6.554670       0.05898
  34     5.035        3.6038        0.0000       10.1521       10.1521       6.548334       0.04527
  33     6.613        3.6038        0.0000       10.1456       10.1456       6.541875       0.03453
  32     8.786        3.6038        0.0001       10.1386       10.1386       6.534861       0.02724
  31     11.80        3.6038        0.0001       10.1295       10.1296       6.525815       0.02533
  30     15.07        3.6038        0.0001       10.1196       10.1197       6.515929       0.02553
  29     18.79        3.6038        0.0001       10.1076       10.1077       6.503910       0.02725
  28     23.16        3.6038        0.0002       10.0923       10.0924       6.488589       0.02963
  27     28.12        3.6039        0.0002       10.0731       10.0733       6.469471       0.03250
  26     33.73        3.6039        0.0002       10.0500       10.0503       6.446346       0.03477
  25     40.54        3.6040        0.0003       10.0201       10.0204       6.416396       0.03716
  24     48.69        3.6041        0.0003        9.9820        9.9823       6.378158       0.03957
  23     57.69        3.6043        0.0004        9.9384        9.9388       6.334532       0.04089
  22     68.43        3.6045        0.0005        9.8858        9.8862       6.281678       0.04155
  21     81.20        3.6049        0.0005        9.8234        9.8240       6.219115       0.04134
  20     96.49        3.6053        0.0006        9.7518        9.7524       6.147057       0.03977
  19     114.6        3.6060        0.0008        9.6719        9.6727       6.066671       0.03753
  18     136.5        3.6069        0.0009        9.5858        9.5867       5.979766       0.03342
  17     162.9        3.6082        0.0010        9.4940        9.4951       5.886881       0.02969
  16     196.4        3.6102        0.0013        9.3883        9.3895       5.779322       0.02707
  15     218.7        3.6118        0.0014        9.3229        9.3243       5.712505       0.02537
  14     243.0        3.6139        0.0015        9.2520        9.2535       5.639621       0.02528
  13     269.0        3.6167        0.0017        9.1717        9.1733       5.556618       0.02693
  12     297.5        3.6207        0.0018        9.0763        9.0781       5.457378       0.02943
  11     328.5        3.6260        0.0020        8.9650        8.9670       5.340973       0.03165
  10     361.9        3.6328        0.0022        8.8349        8.8371       5.204293       0.03458
   9     398.1        3.6417        0.0024        8.6820        8.6844       5.042729       0.03764
   8     437.6        3.6532        0.0026        8.5028        8.5054       4.852205       0.04074
   7     480.5        3.6681        0.0028        8.2948        8.2976       4.629488       0.04374
   6     533.0        3.6908        0.0030        8.0209        8.0239       4.333087       0.04768
   5     589.8        3.7222        0.0032        7.7063        7.7096       3.987327       0.05132
   4     651.6        3.7684        0.0034        7.3412        7.3447       3.576266       0.05621
   3     718.7        3.8373        0.0036        6.9387        6.9423       3.104983       0.05923
   2     792.3        3.9447        0.0038        6.5066        6.5104       2.565753       0.06184
   1     891.5        3.1376        1.9642        3.0659        5.0301       1.892471       0.05729
   0    1013.0        3.3909        1.7938        2.7387        4.5324       1.141545       0.05214



 Wavenumbers:  5150. -  6150. cm-1, ATM      1
 LEVEL PRESSURE   UPWARD FLUX   DIFDOWN FLUX  DIRDOWN FLUX  DOWNWARD FLUX   NET FLUX    HEATING RATE
          mb          W/m2          W/m2          W/m2        W/m2          W/m2       degree/day
  51    .06700        9.0195        0.0000       25.5798       25.5798      16.560279       0.00000
  50    .07753        9.0195        0.0000       25.5798       25.5798      16.560240       0.03160
  49    .09103        9.0195        0.0000       25.5797       25.5797      16.560188       0.03208
  48    0.1069        9.0195        0.0000       25.5797       25.5797      16.560127       0.03259
  47    0.1255        9.0195        0.0000       25.5796       25.5796      16.560054       0.03309
  46    0.1487        9.0195        0.0000       25.5795       25.5795      16.559958       0.03487
  45    0.1794        9.0195        0.0000       25.5794       25.5794      16.559823       0.03711
  44    0.2165        9.0195        0.0000       25.5792       25.5792      16.559658       0.03767
  43    0.2613        9.0195        0.0000       25.5790       25.5790      16.559455       0.03825
  42    0.3336        9.0195        0.0000       25.5786       25.5786      16.559108       0.04041
  41    0.4307        9.0195        0.0000       25.5782       25.5782      16.558637       0.04095
  40    0.5894        9.0195        0.0000       25.5774       25.5774      16.557848       0.04196
  39     1.339        9.0195        0.0000       25.5735       25.5736      16.554046       0.04280
  38     1.782        9.0195        0.0001       25.5713       25.5714      16.551833       0.04214
  37     2.292        9.0195        0.0001       25.5688       25.5688      16.549328       0.04149
  36     2.964        9.0195        0.0001       25.5656       25.5657      16.546145       0.03996
  35     3.853        9.0195        0.0001       25.5615       25.5616      16.542099       0.03839
  34     5.035        9.0195        0.0002       25.5562       25.5564      16.536889       0.03722
  33     6.613        9.0195        0.0002       25.5494       25.5496      16.530129       0.03614
  32     8.786        9.0195        0.0003       25.5406       25.5409      16.521369       0.03402
  31     11.80        9.0195        0.0004       25.5287       25.5290      16.509520       0.03317
  30     15.07        9.0195        0.0005       25.5167       25.5172      16.497636       0.03068
  29     18.79        9.0195        0.0006       25.5042       25.5047      16.485209       0.02818
  28     23.16        9.0196        0.0007       25.4907       25.4914      16.471820       0.02589
  27     28.12        9.0196        0.0009       25.4764       25.4773      16.457699       0.02401
  26     33.73        9.0197        0.0010       25.4620       25.4631      16.443382       0.02153
  25     40.54        9.0198        0.0012       25.4463       25.4475      16.427717       0.01943
  24     48.69        9.0199        0.0015       25.4294       25.4309      16.410929       0.01737
  23     57.69        9.0201        0.0018       25.4126       25.4144      16.394246       0.01564
  22     68.43        9.0204        0.0021       25.3944       25.3965      16.376118       0.01425
  21     81.20        9.0207        0.0025       25.3744       25.3769      16.356152       0.01319
  20     96.49        9.0212        0.0029       25.3519       25.3549      16.333700       0.01239
  19     114.6        9.0217        0.0035       25.3262       25.3297      16.307937       0.01203
  18     136.5        9.0224        0.0042       25.2962       25.3004      16.277937       0.01154
  17     162.9        9.0233        0.0049       25.2521       25.2570      16.233769       0.01412
  16     196.4        9.0245        0.0059       25.1593       25.1652      16.140786       0.02340
  15     218.7        9.0253        0.0066       25.0159       25.0225      15.997208       0.05451
  14     243.0        9.0264        0.0073       24.7089       24.7162      15.689801       0.10662
  13     269.0        9.0277        0.0079       24.1619       24.1698      15.142044       0.17769
  12     297.5        9.0295        0.0085       23.4544       23.4629      14.433407       0.21017
  11     328.5        9.0319        0.0092       22.7355       22.7447      13.712815       0.19593
  10     361.9        9.0349        0.0099       21.9224       21.9323      12.897413       0.20630
   9     398.1        9.0389        0.0105       20.9939       21.0044      11.965573       0.21710
   8     437.6        9.0442        0.0111       19.9833       19.9945      10.950239       0.21708
   7     480.5        9.0514        0.0117       18.9483       18.9600       9.908582       0.20458
   6     533.0        9.0633        0.0124       17.7796       17.7920       8.728672       0.18981
   5     589.8        9.0820        0.0131       16.6726       16.6857       7.603675       0.16699
   4     651.6        9.1150        0.0138       15.6343       15.6481       6.533052       0.14641
   3     718.7        9.1738        0.0146       14.7738       14.7883       5.614581       0.11543
   2     792.3        9.2863        0.0154       14.0291       14.0445       4.758273       0.09821
   1     891.5        7.4886        4.4696        6.7559       11.2255       3.736881       0.08692
   0    1013.0        7.8031        4.2050        6.2170       10.4219       2.618784       0.07764



 Wavenumbers:  6150. -  7700. cm-1, ATM      1
 LEVEL PRESSURE   UPWARD FLUX   DIFDOWN FLUX  DIRDOWN FLUX  DOWNWARD FLUX   NET FLUX    HEATING RATE
          mb          W/m2          W/m2          W/m2        W/m2          W/m2       degree/day
  51    .06700       13.6176        0.0000       47.3109       47.3109      33.693277       0.00000
  50    .07753       13.6176        0.0000       47.3108       47.3108      33.693221       0.04553
  49    .09103       13.6176        0.0000       47.3107       47.3107      33.693147       0.04583
  48    0.1069       13.6176        0.0000       47.3106       47.3106      33.693061       0.04614
  47    0.1255       13.6176        0.0000       47.3105       47.3105      33.692958       0.04645
  46    0.1487       13.6176        0.0000       47.3104       47.3104      33.692825       0.04852
  45    0.1794       13.6176        0.0000       47.3102       47.3102      33.692638       0.05127
  44    0.2165       13.6176        0.0000       47.3100       47.3100      33.692411       0.05167
  43    0.2613       13.6176        0.0000       47.3097       47.3097      33.692135       0.05210
  42    0.3336       13.6176        0.0000       47.3092       47.3092      33.691665       0.05471
  41    0.4307       13.6176        0.0000       47.3085       47.3086      33.691030       0.05521
  40    0.5894       13.6175        0.0001       47.3074       47.3075      33.689971       0.05633
  39     1.339       13.6175        0.0002       47.3022       47.3024      33.684879       0.05733
  38     1.782       13.6174        0.0002       47.2991       47.2993      33.681909       0.05655
  37     2.292       13.6174        0.0003       47.2956       47.2959      33.678533       0.05591
  36     2.964       13.6173        0.0004       47.2912       47.2916      33.674215       0.05421
  35     3.853       13.6173        0.0005       47.2855       47.2859      33.668680       0.05252
  34     5.035       13.6172        0.0006       47.2780       47.2787      33.661500       0.05129
  33     6.613       13.6170        0.0008       47.2683       47.2691      33.652112       0.05019
  32     8.786       13.6169        0.0011       47.2556       47.2567      33.639813       0.04777
  31     11.80       13.6166        0.0015       47.2380       47.2395      33.622909       0.04732
  30     15.07       13.6163        0.0019       47.2201       47.2220      33.605622       0.04463
  29     18.79       13.6160        0.0024       47.2008       47.2032      33.587143       0.04190
  28     23.16       13.6157        0.0029       47.1795       47.1824      33.566753       0.03943
  27     28.12       13.6152        0.0035       47.1565       47.1600      33.544759       0.03739
  26     33.73       13.6148        0.0042       47.1324       47.1366      33.521838       0.03446
  25     40.54       13.6142        0.0051       47.1054       47.1104      33.496203       0.03180
  24     48.69       13.6136        0.0061       47.0754       47.0815      33.467950       0.02924
  23     57.69       13.6128        0.0072       47.0449       47.0521      33.439330       0.02683
  22     68.43       13.6119        0.0085       47.0110       47.0195      33.407594       0.02495
  21     81.20       13.6109        0.0101       46.9729       46.9830      33.372103       0.02345
  20     96.49       13.6096        0.0120       46.9294       46.9414      33.331766       0.02226
  19     114.6       13.6081        0.0143       46.8790       46.8933      33.285138       0.02177
  18     136.5       13.6064        0.0169       46.8200       46.8369      33.230523       0.02100
  17     162.9       13.6043        0.0201       46.7361       46.7562      33.151917       0.02513
  16     196.4       13.6017        0.0242       46.5703       46.5945      32.992759       0.04006
  15     218.7       13.6001        0.0269       46.3473       46.3742      32.774052       0.08303
  14     243.0       13.5986        0.0296       45.9299       45.9595      32.360933       0.14328
  13     269.0       13.5973        0.0324       45.1708       45.2032      31.605882       0.24494
  12     297.5       13.5967        0.0351       44.0115       44.0466      30.449873       0.34286
  11     328.5       13.5970        0.0379       42.7242       42.7621      29.165084       0.34933
  10     361.9       13.5987        0.0407       41.3539       41.3946      27.795931       0.34641
   9     398.1       13.6025        0.0434       39.7953       39.8387      26.236197       0.36338
   8     437.6       13.6097        0.0460       37.9948       38.0407      24.431018       0.38596
   7     480.5       13.6220        0.0484       36.0647       36.1131      22.491156       0.38098
   6     533.0       13.6458        0.0510       33.7773       33.8283      20.182510       0.37139
   5     589.8       13.6881        0.0534       31.4082       31.4615      17.773433       0.35759
   4     651.6       13.7700        0.0552       28.8834       28.9386      15.168689       0.35621
   3     718.7       13.9232        0.0569       26.4104       26.4673      12.544112       0.32984
   2     792.3       14.2306        0.0583       24.0056       24.0639       9.833307       0.31090
   1     891.5       11.1735        7.0803       10.9651       18.0453       6.871855       0.25201
   0    1013.0       11.9903        6.4078        9.6121       16.0200       4.029675       0.19735



 Wavenumbers:  7700. -  8050. cm-1, ATM      1
 LEVEL PRESSURE   UPWARD FLUX   DIFDOWN FLUX  DIRDOWN FLUX  DOWNWARD FLUX   NET FLUX    HEATING RATE
          mb          W/m2          W/m2          W/m2        W/m2          W/m2       degree/day
  51    .06700        6.9563        0.0000       11.1810       11.1810       4.224692       0.00000
  50    .07753        6.9563        0.0000       11.1809       11.1809       4.224669       0.01796
  49    .09103        6.9563        0.0000       11.1809       11.1809       4.224641       0.01761
  48    0.1069        6.9563        0.0000       11.1809       11.1809       4.224609       0.01724
  47    0.1255        6.9563        0.0000       11.1809       11.1809       4.224572       0.01687
  46    0.1487        6.9563        0.0000       11.1808       11.1808       4.224525       0.01711
  45    0.1794        6.9563        0.0000       11.1808       11.1808       4.224461       0.01761
  44    0.2165        6.9563        0.0000       11.1807       11.1807       4.224385       0.01728
  43    0.2613        6.9563        0.0000       11.1806       11.1806       4.224295       0.01695
  42    0.3336        6.9564        0.0000       11.1805       11.1805       4.224146       0.01735
  41    0.4307        6.9564        0.0000       11.1803       11.1804       4.223949       0.01716
  40    0.5894        6.9565        0.0000       11.1801       11.1801       4.223626       0.01714
  39     1.339        6.9568        0.0001       11.1788       11.1789       4.222102       0.01717
  38     1.782        6.9570        0.0001       11.1781       11.1782       4.221206       0.01705
  37     2.292        6.9572        0.0001       11.1772       11.1773       4.220169       0.01717
  36     2.964        6.9574        0.0002       11.1761       11.1762       4.218808       0.01709
  35     3.853        6.9578        0.0002       11.1746       11.1748       4.217010       0.01706
  34     5.035        6.9583        0.0003       11.1726       11.1729       4.214621       0.01706
  33     6.613        6.9589        0.0004       11.1700       11.1703       4.211431       0.01706
  32     8.786        6.9598        0.0005       11.1664       11.1669       4.207132       0.01669
  31     11.80        6.9610        0.0007       11.1613       11.1620       4.200987       0.01721
  30     15.07        6.9623        0.0009       11.1558       11.1567       4.194394       0.01702
  29     18.79        6.9638        0.0011       11.1497       11.1508       4.186952       0.01687
  28     23.16        6.9656        0.0013       11.1425       11.1438       4.178271       0.01679
  27     28.12        6.9676        0.0016       11.1343       11.1359       4.168357       0.01685
  26     33.73        6.9698        0.0019       11.1252       11.1271       4.157282       0.01665
  25     40.54        6.9726        0.0023       11.1142       11.1165       4.143931       0.01656
  24     48.69        6.9759        0.0028       11.1010       11.1038       4.127878       0.01661
  23     57.69        6.9796        0.0033       11.0866       11.0899       4.110300       0.01648
  22     68.43        6.9840        0.0039       11.0695       11.0735       4.089442       0.01640
  21     81.20        6.9893        0.0046       11.0494       11.0540       4.064703       0.01635
  20     96.49        6.9957        0.0055       11.0255       11.0310       4.035381       0.01618
  19     114.6        7.0033        0.0065       10.9975       11.0041       4.000785       0.01615
  18     136.5        7.0125        0.0078       10.9648       10.9725       3.960078       0.01565
  17     162.9        7.0235        0.0092       10.9263       10.9355       3.912002       0.01537
  16     196.4        7.0381        0.0111       10.8773       10.8884       3.850261       0.01554
  15     218.7        7.0478        0.0123       10.8455       10.8579       3.810030       0.01527
  14     243.0        7.0586        0.0137       10.8114       10.8251       3.766518       0.01509
  13     269.0        7.0704        0.0151       10.7749       10.7900       3.719535       0.01524
  12     297.5        7.0836        0.0167       10.7357       10.7524       3.668820       0.01504
  11     328.5        7.0981        0.0184       10.6937       10.7121       3.614023       0.01490
  10     361.9        7.1142        0.0202       10.6489       10.6690       3.554873       0.01497
   9     398.1        7.1321        0.0221       10.6008       10.6229       3.490812       0.01492
   8     437.6        7.1521        0.0242       10.5491       10.5733       3.421143       0.01490
   7     480.5        7.1747        0.0265       10.4934       10.5199       3.345213       0.01491
   6     533.0        7.2041        0.0292       10.4243       10.4535       3.249442       0.01541
   5     589.8        7.2383        0.0322       10.3479       10.3801       3.141774       0.01598
   4     651.6        7.2794        0.0354       10.2613       10.2967       3.017332       0.01702
   3     718.7        7.3297        0.0387       10.1618       10.2005       2.870848       0.01841
   2     792.3        7.3934        0.0423       10.0439       10.0862       2.692820       0.02042
   1     891.5        6.1445        3.4908        5.0926        8.5834       2.438900       0.02161
   0    1013.0        6.2770        3.4176        4.9623        8.3799       2.102894       0.02333



 Wavenumbers:  8050. - 12850. cm-1, ATM      1
 LEVEL PRESSURE   UPWARD FLUX   DIFDOWN FLUX  DIRDOWN FLUX  DOWNWARD FLUX   NET FLUX    HEATING RATE
          mb          W/m2          W/m2          W/m2        W/m2          W/m2       degree/day
  51    .06700       86.4152        0.0000      156.5418      156.5418      70.126532       0.00000
  50    .07753       86.4152        0.0000      156.5417      156.5417      70.126532       0.00000
  49    .09103       86.4152        0.0001      156.5417      156.5417      70.126532      -0.00000
  48    0.1069       86.4152        0.0001      156.5416      156.5417      70.126532      -0.00000
  47    0.1255       86.4151        0.0002      156.5415      156.5417      70.126532      -0.00000
  46    0.1487       86.4151        0.0002      156.5414      156.5417      70.126532       0.00000
  45    0.1794       86.4151        0.0003      156.5413      156.5416      70.126532       0.00000
  44    0.2165       86.4150        0.0004      156.5412      156.5416      70.126532       0.00000
  43    0.2613       86.4150        0.0005      156.5410      156.5415      70.126532      -0.00000
  42    0.3336       86.4149        0.0007      156.5407      156.5414      70.126532      -0.00000
  41    0.4307       86.4148        0.0010      156.5403      156.5413      70.126532       0.00000
  40    0.5894       86.4146        0.0014      156.5397      156.5411      70.126532       0.00000
  39     1.339       86.4137        0.0035      156.5367      156.5403      70.126532      -0.00000
  38     1.782       86.4132        0.0047      156.5350      156.5397      70.126532      -0.00000
  37     2.292       86.4126        0.0062      156.5330      156.5391      70.126532       0.00000
  36     2.964       86.4118        0.0080      156.5303      156.5383      70.126532       0.00000
  35     3.853       86.4108        0.0105      156.5268      156.5373      70.126532       0.00000
  34     5.035       86.4094        0.0137      156.5222      156.5359      70.126532      -0.00000
  33     6.613       86.4075        0.0181      156.5160      156.5341      70.126532      -0.00000
  32     8.786       86.4050        0.0239      156.5076      156.5316      70.126532      -0.00000
  31     11.80       86.4015        0.0323      156.4957      156.5280      70.126532       0.00000
  30     15.07       86.3976        0.0414      156.4828      156.5242      70.126532       0.00000
  29     18.79       86.3933        0.0516      156.4682      156.5198      70.126532       0.00000
  28     23.16       86.3882        0.0635      156.4512      156.5147      70.126532      -0.00000
  27     28.12       86.3824        0.0772      156.4317      156.5089      70.126532      -0.00000
  26     33.73       86.3759        0.0925      156.4099      156.5024      70.126532       0.00000
  25     40.54       86.3680        0.1111      156.3834      156.4945      70.126532       0.00000
  24     48.69       86.3584        0.1334      156.3515      156.4850      70.126532      -0.00000
  23     57.69       86.3480        0.1581      156.3164      156.4745      70.126532       0.00000
  22     68.43       86.3354        0.1874      156.2746      156.4620      70.126532       0.00000
  21     81.20       86.3205        0.2225      156.2246      156.4471      70.126532      -0.00000
  20     96.49       86.3027        0.2643      156.1649      156.4292      70.126532       0.00000
  19     114.6       86.2817        0.3141      156.0879      156.4020      70.120325       0.00290
  18     136.5       86.2567        0.3732      155.9962      156.3693      70.112624       0.00296
  17     162.9       86.2269        0.4437      155.8831      156.3267      70.099841       0.00409
  16     196.4       86.1883        0.5354      155.7199      156.2553      70.067061       0.00825
  15     218.7       86.1631        0.5957      155.5733      156.1690      70.005924       0.02321
  14     243.0       86.1363        0.6612      155.3367      155.9979      69.861650       0.05004
  13     269.0       86.1086        0.7321      154.9514      155.6835      69.574904       0.09302
  12     297.5       86.0816        0.8084      154.3896      155.1980      69.116453       0.13597
  11     328.5       86.0559        0.8907      153.7151      154.6058      68.549837       0.15406
  10     361.9       86.0336        0.9789      152.9087      153.8877      67.854079       0.17603
   9     398.1       86.0177        1.0733      151.8986      152.9719      66.954223       0.20965
   8     437.6       86.0136        1.1736      150.6031      151.7767      65.763115       0.25467
   7     480.5       86.0281        1.2796      149.0014      150.2810      64.252955       0.29659
   6     533.0       86.0813        1.4078      146.7375      148.1453      62.064069       0.35212
   5     589.8       86.2041        1.5420      143.8730      145.4149      59.210885       0.42351
   4     651.6       86.4747        1.6794      140.0955      141.7749      55.300197       0.53480
   3     718.7       87.0022        1.8188      135.5278      137.3465      50.344326       0.62282
   2     792.3       88.0451        1.9566      130.0690      132.0256      43.980521       0.72986
   1     891.5       71.4035       43.5447       63.0713      106.6159      35.212439       0.74612
   0    1013.0       74.6319       41.2387       58.3323       99.5710      24.939038       0.71333



 Wavenumbers: 12850. - 16000. cm-1, ATM      1
 LEVEL PRESSURE   UPWARD FLUX   DIFDOWN FLUX  DIRDOWN FLUX  DOWNWARD FLUX   NET FLUX    HEATING RATE
          mb          W/m2          W/m2          W/m2        W/m2          W/m2       degree/day
  51    .06700       74.2269        0.0000       98.0872       98.0872      23.860377       0.00000
  50    .07753       74.2269        0.0001       98.0864       98.0864      23.859586       0.63372
  49    .09103       74.2269        0.0002       98.0853       98.0854      23.858593       0.62054
  48    0.1069       74.2269        0.0003       98.0841       98.0843      23.857453       0.60709
  47    0.1255       74.2269        0.0004       98.0826       98.0830      23.856143       0.59392
  46    0.1487       74.2269        0.0005       98.0809       98.0814      23.854490       0.60250
  45    0.1794       74.2269        0.0007       98.0784       98.0792      23.852242       0.61709
  44    0.2165       74.2270        0.0009       98.0756       98.0766      23.849599       0.60130
  43    0.2613       74.2271        0.0012       98.0723       98.0736      23.846491       0.58571
  42    0.3336       74.2273        0.0017       98.0670       98.0687      23.841422       0.59099
  41    0.4307       74.2276        0.0023       98.0602       98.0625      23.834871       0.56961
  40    0.5894       74.2283        0.0033       98.0496       98.0529      23.824557       0.54848
  39     1.339       74.2344        0.0080       98.0043       98.0123      23.777977       0.52441
  38     1.782       74.2399        0.0107       97.9793       97.9900      23.750114       0.53047
  37     2.292       74.2482        0.0139       97.9498       97.9637      23.715481       0.57362
  36     2.964       74.2620        0.0181       97.9088       97.9270      23.664902       0.63491
  35     3.853       74.2844        0.0237       97.8503       97.8740      23.589661       0.71405
  34     5.035       74.3180        0.0310       97.7680       97.7990      23.481046       0.77590
  33     6.613       74.3649        0.0408       97.6562       97.6970      23.332114       0.79619
  32     8.786       74.4260        0.0541       97.5107       97.5647      23.138700       0.75115
  31     11.80       74.5055        0.0729       97.3179       97.3908      22.885254       0.70957
  30     15.07       74.5817        0.0932       97.1283       97.2215      22.639825       0.63365
  29     18.79       74.6594        0.1161       96.9300       97.0461      22.386645       0.57404
  28     23.16       74.7407        0.1427       96.7166       96.8593      22.118641       0.51823
  27     28.12       74.8224        0.1732       96.4935       96.6667      21.844329       0.46631
  26     33.73       74.8979        0.2073       96.2731       96.4804      21.582579       0.39355
  25     40.54       74.9705        0.2486       96.0408       96.2893      21.318805       0.32724
  24     48.69       75.0402        0.2983       95.7946       96.0928      21.052658       0.27542
  23     57.69       75.0992        0.3529       95.5573       95.9101      20.810884       0.22663
  22     68.43       75.1507        0.4179       95.3106       95.7285      20.577790       0.18324
  21     81.20       75.1862        0.4955       95.0643       95.5599      20.373651       0.13489
  20     96.49       75.2046        0.5881       94.8153       95.4034      20.198805       0.09650
  19     114.6       75.2270        0.6991       94.5411       95.2402      20.013219       0.08666
  18     136.5       75.2428        0.8307       94.2320       95.0628      19.820019       0.07429
  17     162.9       75.2517        0.9874       93.8753       94.8628      19.611079       0.06679
  16     196.4       75.2423        1.1906       93.4347       94.6253      19.383018       0.05741
  15     218.7       75.2286        1.3241       93.1513       94.4754      19.246749       0.05174
  14     243.0       75.2106        1.4691       92.8439       94.3131      19.102489       0.05003
  13     269.0       75.1881        1.6263       92.5111       94.1374      18.949331       0.04968
  12     297.5       75.1616        1.7961       92.1495       93.9456      18.783987       0.04904
  11     328.5       75.1329        1.9795       91.7554       93.7349      18.601989       0.04948
  10     361.9       75.1030        2.1770       91.3262       93.5033      18.400253       0.05104
   9     398.1       75.0730        2.3895       90.8575       93.2471      18.174070       0.05270
   8     437.6       75.0457        2.6176       90.3418       92.9594      17.913766       0.05565
   7     480.5       75.0235        2.8619       89.7728       92.6347      17.611173       0.05943
   6     533.0       75.0104        3.1622       89.0428       92.2050      17.194590       0.06701
   5     589.8       75.0230        3.4849       88.2038       91.6887      16.665759       0.07850
   4     651.6       75.0912        3.8297       87.1979       91.0277      15.936462       0.09973
   3     718.7       75.2362        4.1950       86.0161       90.2111      14.974946       0.12084
   2     792.3       75.5240        4.5770       84.5970       89.1740      13.650012       0.15196
   1     891.5       66.8572       35.8409       42.5754       78.4163      11.559063       0.17793
   0    1013.0       67.9593       35.4745       41.1196       76.5941       8.634757       0.20305



 Wavenumbers: 16000. - 22650. cm-1, ATM      1
 LEVEL PRESSURE   UPWARD FLUX   DIFDOWN FLUX  DIRDOWN FLUX  DOWNWARD FLUX   NET FLUX    HEATING RATE
          mb          W/m2          W/m2          W/m2        W/m2          W/m2       degree/day
  51    .06700      140.3307        0.0000      156.3892      156.3892      16.058501       0.00000
  50    .07753      140.3307        0.0004      156.3887      156.3891      16.058354       0.11798
  49    .09103      140.3307        0.0009      156.3879      156.3888      16.058140       0.13381
  48    0.1069      140.3307        0.0015      156.3871      156.3885      16.057853       0.15259
  47    0.1255      140.3307        0.0021      156.3861      156.3882      16.057469       0.17393
  46    0.1487      140.3308        0.0029      156.3847      156.3877      16.056904       0.20611
  45    0.1794      140.3309        0.0041      156.3828      156.3869      16.056020       0.24268
  44    0.2165      140.3311        0.0054      156.3805      156.3859      16.054821       0.27274
  43    0.2613      140.3314        0.0070      156.3776      156.3846      16.053194       0.30663
  42    0.3336      140.3322        0.0096      156.3726      156.3823      16.050101       0.36059
  41    0.4307      140.3334        0.0131      156.3657      156.3788      16.045440       0.40534
  40    0.5894      140.3360        0.0188      156.3537      156.3725      16.036549       0.47281
  39     1.339      140.3583        0.0458      156.2834      156.3292      15.970861       0.73952
  38     1.782      140.3790        0.0616      156.2324      156.2939      15.914903       1.06535
  37     2.292      140.4101        0.0799      156.1641      156.2440      15.833904       1.34156
  36     2.964      140.4617        0.1039      156.0605      156.1644      15.702685       1.64720
  35     3.853      140.5453        0.1357      155.9041      156.0397      15.494472       1.97597
  34     5.035      140.6713        0.1778      155.6774      155.8551      15.183838       2.21905
  33     6.613      140.8474        0.2339      155.3656      155.5996      14.752150       2.30781
  32     8.786      141.0768        0.3096      154.9577      155.2672      14.190432       2.18151
  31     11.80      141.3753        0.4176      154.4153      154.8328      13.457547       2.05185
  30     15.07      141.6612        0.5334      153.8804      154.4137      12.752548       1.82017
  29     18.79      141.9531        0.6640      153.3191      153.9831      12.030002       1.63823
  28     23.16      142.2581        0.8163      152.7126      153.5289      11.270806       1.46804
  27     28.12      142.5649        0.9902      152.0755      153.0657      10.500869       1.30884
  26     33.73      142.8479        1.1847      151.4409      152.6256       9.777682       1.08733
  25     40.54      143.1202        1.4194      150.7637      152.1831       9.062927       0.88673
  24     48.69      143.3806        1.7021      150.0338      151.7359       8.355323       0.73226
  23     57.69      143.6012        2.0122      149.3151      151.3274       7.726205       0.58970
  22     68.43      143.7932        2.3812      148.5476      150.9288       7.135641       0.46426
  21     81.20      143.9251        2.8205      147.7517      150.5722       6.647116       0.32281
  20     96.49      143.9923        3.3434      146.9127      150.2561       6.263754       0.21159
  19     114.6      144.0261        3.9625      145.9763      149.9388       5.912721       0.16391
  18     136.5      144.0349        4.6936      144.9088      149.6023       5.567401       0.13278
  17     162.9      144.0171        5.5600      143.6785      149.2385       5.221498       0.11056
  16     196.4      143.9326        6.6779      142.1651      148.8430       4.910400       0.07831
  15     218.7      143.8546        7.4084      141.2033      148.6118       4.757142       0.05819
  14     243.0      143.7597        8.1991      140.1753      148.3745       4.614802       0.04937
  13     269.0      143.6460        9.0521      139.0797      148.1318       4.485794       0.04185
  12     297.5      143.5130        9.9694      137.9141      147.8835       4.370498       0.03420
  11     328.5      143.3647       10.9554      136.6676      147.6230       4.258305       0.03050
  10     361.9      143.2008       12.0110      135.3392      147.3501       4.149357       0.02756
   9     398.1      143.0208       13.1401      133.9235      147.0635       4.042768       0.02483
   8     437.6      142.8256       14.3448      132.4163      146.7610       3.935409       0.02295
   7     480.5      142.6149       15.6272      130.8147      146.4419       3.826992       0.02129
   6     533.0      142.3556       17.1935      128.8599      146.0535       3.697812       0.02078
   5     589.8      142.0801       18.8670      126.7679      145.6350       3.554855       0.02122
   4     651.6      141.7947       20.6493      124.5274      145.1768       3.382122       0.02362
   3     718.7      141.5054       22.5422      122.1285      144.6706       3.165236       0.02726
   2     792.3      141.2291       24.5434      119.5548      144.0982       2.869112       0.03396
   1     891.5      131.3718       73.7932       59.9347      133.7279       2.356146       0.04365
   0    1013.0      131.3994       75.2270       57.7573      132.9843       1.584938       0.05355



 Wavenumbers: 22650. - 29000. cm-1, ATM      1
 LEVEL PRESSURE   UPWARD FLUX   DIFDOWN FLUX  DIRDOWN FLUX  DOWNWARD FLUX   NET FLUX    HEATING RATE
          mb          W/m2          W/m2          W/m2        W/m2          W/m2       degree/day
  51    .06700       58.3867        0.0000       59.0156       59.0156       0.628929       0.00000
  50    .07753       58.3866        0.0005       59.0151       59.0155       0.628929      -0.00000
  49    .09103       58.3865        0.0010       59.0144       59.0154       0.628929       0.00000
  48    0.1069       58.3863        0.0017       59.0136       59.0153       0.628929      -0.00000
  47    0.1255       58.3862        0.0025       59.0127       59.0151       0.628929      -0.00000
  46    0.1487       58.3860        0.0034       59.0115       59.0149       0.628929       0.00000
  45    0.1794       58.3858        0.0048       59.0099       59.0147       0.628929      -0.00000
  44    0.2165       58.3854        0.0063       59.0080       59.0144       0.628929       0.00000
  43    0.2613       58.3851        0.0082       59.0058       59.0140       0.628929       0.00000
  42    0.3336       58.3845        0.0113       59.0022       59.0134       0.628929       0.00000
  41    0.4307       58.3837        0.0153       58.9973       59.0126       0.628929      -0.00000
  40    0.5894       58.3824        0.0220       58.9894       59.0113       0.628929       0.00000
  39     1.339       58.3763        0.0534       58.9518       59.0052       0.628929      -0.00000
  38     1.782       58.3727        0.0719       58.9297       59.0016       0.628929       0.00000
  37     2.292       58.3685        0.0933       58.9042       58.9974       0.628929       0.00000
  36     2.964       58.3630        0.1213       58.8706       58.9920       0.628929       0.00000
  35     3.853       58.3558        0.1584       58.8264       58.9847       0.628929      -0.00000
  34     5.035       58.3462        0.2076       58.7676       58.9751       0.628929       0.00000
  33     6.613       58.3334        0.2732       58.6891       58.9623       0.628929      -0.00000
  32     8.786       58.3162        0.3617       58.5834       58.9451       0.628929       0.00000
  31     11.80       58.2915        0.4880       58.4324       58.9205       0.628929       0.00000
  30     15.07       58.2651        0.6234       58.2706       58.8941       0.628929       0.00000
  29     18.79       58.2354        0.7761       58.0882       58.8643       0.628929      -0.00000
  28     23.16       58.2007        0.9539       57.8757       58.8296       0.628929       0.00000
  27     28.12       58.1611        1.1567       57.6333       58.7900       0.628929       0.00000
  26     33.73       58.1170        1.3829       57.3631       58.7459       0.628929       0.00000
  25     40.54       58.0639        1.6550       57.0379       58.6928       0.628929      -0.00000
  24     48.69       58.0002        1.9813       56.6479       58.6292       0.628929       0.00000
  23     57.69       57.9307        2.3375       56.2221       58.5596       0.628929      -0.00000
  22     68.43       57.8484        2.7588       55.7186       58.4774       0.628929       0.00000
  21     81.20       57.7513        3.2563       55.1239       58.3802       0.628929       0.00000
  20     96.49       57.6367        3.8428       54.4228       58.2656       0.628929      -0.00000
  19     114.6       57.5023        4.5303       53.6010       58.1313       0.628929      -0.00000
  18     136.5       57.3454        5.3326       52.6418       57.9744       0.628929       0.00000
  17     162.9       57.1619        6.2705       51.5203       57.7908       0.628929      -0.00000
  16     196.4       56.9292        7.4587       50.0994       57.5581       0.628929       0.00000
  15     218.7       56.7795        8.2222       49.1863       57.4085       0.628929      -0.00000
  14     243.0       56.6196        9.0373       48.2113       57.2486       0.628929      -0.00000
  13     269.0       56.4496        9.9036       47.1749       57.0785       0.628929       0.00000
  12     297.5       56.2695       10.8202       46.0783       56.8985       0.628929       0.00000
  11     328.5       56.0791       11.7885       44.9195       56.7081       0.628929      -0.00000
  10     361.9       55.8789       12.8060       43.7018       56.5078       0.628929      -0.00000
   9     398.1       55.6687       13.8726       42.4250       56.2976       0.628929       0.00000
   8     437.6       55.4490       14.9863       41.0916       56.0779       0.628929      -0.00000
   7     480.5       55.2201       16.1446       39.7045       55.8490       0.628929       0.00000
   6     533.0       54.9475       17.5221       38.0543       55.5764       0.628929      -0.00000
   5     589.8       54.6643       18.9501       36.3431       55.2932       0.628929       0.00000
   4     651.6       54.3719       20.4212       34.5795       55.0008       0.628929       0.00000
   3     718.7       54.0712       21.9299       32.7702       54.7001       0.628929       0.00000
   2     792.3       53.7639       23.4672       30.9256       54.3928       0.628929      -0.00000
   1     891.5       51.0256       36.8967       14.7578       51.6545       0.628865       0.00001
   0    1013.0       50.7886       38.0082       13.4093       51.4175       0.628865       0.00000



 Wavenumbers: 29000. - 38000. cm-1, ATM      1
 LEVEL PRESSURE   UPWARD FLUX   DIFDOWN FLUX  DIRDOWN FLUX  DOWNWARD FLUX   NET FLUX    HEATING RATE
          mb          W/m2          W/m2          W/m2        W/m2          W/m2       degree/day
  51    .06700        8.7378        0.0000       20.8114       20.8114      12.073532       0.00000
  50    .07753        8.7376        0.0003       20.8070       20.8074      12.069725       3.05152
  49    .09103        8.7374        0.0007       20.8009       20.8016      12.064188       3.46081
  48    0.1069        8.7372        0.0012       20.7928       20.7939      12.056778       3.94425
  47    0.1255        8.7369        0.0017       20.7820       20.7837      12.046873       4.49029
  46    0.1487        8.7365        0.0024       20.7665       20.7688      12.032310       5.30838
  45    0.1794        8.7361        0.0033       20.7424       20.7457      12.009645       6.22197
  44    0.2165        8.7355        0.0044       20.7103       20.7147      11.979123       6.94333
  43    0.2613        8.7350        0.0056       20.6675       20.6731      11.938129       7.72724
  42    0.3336        8.7341        0.0077       20.5880       20.5956      11.861569       8.92615
  41    0.4307        8.7330        0.0104       20.4722       20.4826      11.749618       9.73391
  40    0.5894        8.7314        0.0147       20.2637       20.2784      11.546936      10.77832
  39     1.339        8.7280        0.0331       19.0984       19.1315      10.403480      12.87325
  38     1.782        8.7285        0.0427       18.4394       18.4820       9.753572      12.37319
  37     2.292        8.7311        0.0530       17.7714       17.8244       9.093252      10.93663
  36     2.964        8.7376        0.0656       17.0421       17.1078       8.370166       9.07691
  35     3.853        8.7504        0.0816       16.2678       16.3494       7.599047       7.31806
  34     5.035        8.7714        0.1017       15.4803       15.5820       6.810641       5.63204
  33     6.613        8.8020        0.1275       14.7157       14.8432       6.041182       4.11353
  32     8.786        8.8424        0.1612       13.9936       14.1548       5.312393       2.83035
  31     11.80        8.8951        0.2082       13.2835       13.4918       4.596642       2.00388
  30     15.07        8.9460        0.2570       12.7394       12.9964       4.050373       1.41036
  29     18.79        8.9985        0.3110       12.2666       12.5776       3.579140       1.06843
  28     23.16        9.0543        0.3725       11.8300       12.2025       3.148229       0.83324
  27     28.12        9.1114        0.4413       11.4279       11.8692       2.757771       0.66375
  26     33.73        9.1642        0.5172       11.0695       11.5866       2.422490       0.50410
  25     40.54        9.2142        0.6078       10.7209       11.3287       2.114550       0.38203
  24     48.69        9.2613        0.7153       10.3742       11.0895       1.828225       0.29630
  23     57.69        9.3000        0.8317       10.0549       10.8866       1.586675       0.22642
  22     68.43        9.3312        0.9683        9.7327       10.7010       1.369839       0.17046
  21     81.20        9.3459        1.1295        9.4134       10.5429       1.196944       0.11425
  20     96.49        9.3424        1.3190        9.0887       10.4077       1.065338       0.07264
  19     114.6        9.3285        1.5379        8.7388       10.2767       0.948198       0.05470
  18     136.5        9.3073        1.7882        8.3549       10.1431       0.835805       0.04322
  17     162.9        9.2789        2.0735        7.9311       10.0047       0.725768       0.03517
  16     196.4        9.2313        2.4269        7.4333        9.8602       0.628921       0.02438
  15     218.7        9.1970        2.6491        7.1295        9.7787       0.581690       0.01793
  14     243.0        9.1595        2.8815        6.8161        9.6975       0.538079       0.01513
  13     269.0        9.1184        3.1230        6.4943        9.6174       0.498922       0.01270
  12     297.5        9.0740        3.3727        6.1657        9.5384       0.464407       0.01024
  11     328.5        9.0276        3.6296        5.8295        9.4590       0.431363       0.00898
  10     361.9        8.9797        3.8911        5.4886        9.3797       0.399939       0.00795
   9     398.1        8.9305        4.1566        5.1440        9.3006       0.370162       0.00694
   8     437.6        8.8803        4.4248        4.7969        9.2218       0.341459       0.00614
   7     480.5        8.8296        4.6935        4.4504        9.1438       0.314216       0.00535
   6     533.0        8.7715        4.9997        4.0563        9.0560       0.284520       0.00478
   5     589.8        8.7140        5.3016        3.6682        8.9698       0.255772       0.00427
   4     651.6        8.6583        5.5954        3.2905        8.8860       0.227650       0.00385
   3     718.7        8.6047        5.8796        2.9252        8.8048       0.200109       0.00346
   2     792.3        8.5541        6.1508        2.5764        8.7273       0.173155       0.00309
   1     891.5        8.2930        7.3149        1.1185        8.4334       0.140427       0.00279
   0    1013.0        8.2678        7.4674        0.9051        8.3725       0.104702       0.00248



 Wavenumbers: 38000. - 50000. cm-1, ATM      1
 LEVEL PRESSURE   UPWARD FLUX   DIFDOWN FLUX  DIRDOWN FLUX  DOWNWARD FLUX   NET FLUX    HEATING RATE
          mb          W/m2          W/m2          W/m2        W/m2          W/m2       degree/day
  51    .06700        0.0061        0.0000        1.2836        1.2836       1.277518       0.00000
  50    .07753        0.0061        0.0001        1.2812        1.2812       1.275183       1.87150
  49    .09103        0.0060        0.0002        1.2777        1.2778       1.271851       2.08247
  48    0.1069        0.0059        0.0002        1.2731        1.2734       1.267473       2.33059
  47    0.1255        0.0058        0.0004        1.2672        1.2675       1.261717       2.60908
  46    0.1487        0.0057        0.0005        1.2586        1.2591       1.253391       3.03499
  45    0.1794        0.0055        0.0007        1.2455        1.2462       1.240623       3.50520
  44    0.2165        0.0054        0.0009        1.2282        1.2291       1.223697       3.85037
  43    0.2613        0.0052        0.0011        1.2054        1.2065       1.201348       4.21261
  42    0.3336        0.0049        0.0015        1.1639        1.1654       1.160524       4.75970
  41    0.4307        0.0045        0.0020        1.1051        1.1070       1.102565       5.03943
  40    0.5894        0.0039        0.0026        1.0039        1.0064       1.002524       5.32007
  39     1.339        0.0022        0.0035        0.5438        0.5473       0.545104       5.14971
  38     1.782        0.0016        0.0032        0.3635        0.3666       0.365006       3.42879
  37     2.292        0.0012        0.0027        0.2356        0.2383       0.237058       2.11916
  36     2.964        0.0009        0.0022        0.1455        0.1477       0.146786       1.13318
  35     3.853        0.0006        0.0017        0.0858        0.0875       0.086906       0.56828
  34     5.035        0.0004        0.0013        0.0488        0.0501       0.049701       0.26578
  33     6.613        0.0003        0.0010        0.0273        0.0282       0.027974       0.11615
  32     8.786        0.0002        0.0007        0.0144        0.0151       0.014928       0.05067
  31     11.80        0.0001        0.0004        0.0065        0.0070       0.006903       0.02247
  30     15.07        0.0000        0.0003        0.0031        0.0034       0.003329       0.00923
  29     18.79        0.0000        0.0002        0.0014        0.0016       0.001583       0.00396
  28     23.16        0.0000        0.0001        0.0006        0.0007       0.000720       0.00167
  27     28.12        0.0000        0.0001        0.0003        0.0003       0.000317       0.00069
  26     33.73        0.0000        0.0000        0.0001        0.0001       0.000140       0.00027
  25     40.54        0.0000        0.0000        0.0000        0.0001       0.000057       0.00010
  24     48.69        0.0000        0.0000        0.0000        0.0000       0.000021       0.00004
  23     57.69        0.0000        0.0000        0.0000        0.0000       0.000008       0.00001
  22     68.43        0.0000        0.0000        0.0000        0.0000       0.000003       0.00000
  21     81.20        0.0000        0.0000        0.0000        0.0000       0.000001       0.00000
  20     96.49        0.0000        0.0000        0.0000        0.0000       0.000000       0.00000
  19     114.6        0.0000        0.0000        0.0000        0.0000       0.000000       0.00000
  18     136.5        0.0000        0.0000        0.0000        0.0000       0.000000       0.00000
  17     162.9        0.0000        0.0000        0.0000        0.0000       0.000000       0.00000
  16     196.4        0.0000        0.0000        0.0000        0.0000       0.000000       0.00000
  15     218.7        0.0000        0.0000        0.0000        0.0000       0.000000       0.00000
  14     243.0        0.0000        0.0000        0.0000        0.0000       0.000000       0.00000
  13     269.0        0.0000        0.0000        0.0000        0.0000       0.000000       0.00000
  12     297.5        0.0000        0.0000        0.0000        0.0000       0.000000       0.00000
  11     328.5        0.0000        0.0000        0.0000        0.0000       0.000000       0.00000
  10     361.9        0.0000        0.0000        0.0000        0.0000       0.000000       0.00000
   9     398.1        0.0000        0.0000        0.0000        0.0000       0.000000       0.00000
   8     437.6        0.0000        0.0000        0.0000        0.0000       0.000000       0.00000
   7     480.5        0.0000        0.0000        0.0000        0.0000       0.000000       0.00000
   6     533.0        0.0000        0.0000        0.0000        0.0000       0.000000       0.00000
   5     589.8        0.0000        0.0000        0.0000        0.0000       0.000000       0.00000
   4     651.6        0.0000        0.0000        0.0000        0.0000       0.000000       0.00000
   3     718.7        0.0000        0.0000        0.0000        0.0000       0.000000       0.00000
   2     792.3        0.0000        0.0000        0.0000        0.0000       0.000000       0.00000
   1     891.5        0.0000        0.0000        0.0000        0.0000       0.000000       0.00000
   0    1013.0        0.0000        0.0000        0.0000        0.0000       0.000000       0.00000



 Wavenumbers:   820. -  2600. cm-1, ATM      1
 LEVEL PRESSURE   UPWARD FLUX   DIFDOWN FLUX  DIRDOWN FLUX  DOWNWARD FLUX   NET FLUX    HEATING RATE
          mb          W/m2          W/m2          W/m2        W/m2          W/m2       degree/day
  51    .06700        0.9761        0.0000        6.0047        6.0047       5.028582       0.00000
  50    .07753        0.9761        0.0000        6.0008        6.0008       5.024729       3.08822
  49    .09103        0.9761        0.0000        5.9999        5.9999       5.023844       0.55358
  48    0.1069        0.9761        0.0000        5.9989        5.9989       5.022855       0.52653
  47    0.1255        0.9761        0.0000        5.9978        5.9978       5.021737       0.50650
  46    0.1487        0.9761        0.0000        5.9964        5.9964       5.020380       0.49457
  45    0.1794        0.9761        0.0000        5.9947        5.9947       5.018661       0.47200
  44    0.2165        0.9761        0.0000        5.9929        5.9929       5.016819       0.41911
  43    0.2613        0.9761        0.0000        5.9909        5.9909       5.014859       0.36933
  42    0.3336        0.9761        0.0000        5.9880        5.9880       5.011981       0.33557
  41    0.4307        0.9761        0.0000        5.9846        5.9846       5.008512       0.30165
  40    0.5894        0.9761        0.0000        5.9791        5.9791       5.003006       0.29277
  39     1.339        0.9761        0.0000        5.9536        5.9536       4.977519       0.28695
  38     1.782        0.9761        0.0000        5.9395        5.9395       4.963380       0.26918
  37     2.292        0.9761        0.0000        5.9237        5.9237       4.947628       0.26089
  36     2.964        0.9761        0.0000        5.9039        5.9039       4.927853       0.24823
  35     3.853        0.9761        0.0000        5.8793        5.8793       4.903196       0.23400
  34     5.035        0.9761        0.0000        5.8487        5.8487       4.872632       0.21834
  33     6.613        0.9761        0.0000        5.8108        5.8108       4.834665       0.20297
  32     8.786        0.9761        0.0000        5.7631        5.7631       4.787039       0.18496
  31     11.80        0.9761        0.0000        5.7039        5.7039       4.727778       0.16591
  30     15.07        0.9761        0.0000        5.6539        5.6539       4.677733       0.12920
  29     18.79        0.9761        0.0000        5.6127        5.6127       4.636591       0.09328
  28     23.16        0.9762        0.0000        5.5794        5.5794       4.603206       0.06456
  27     28.12        0.9762        0.0000        5.5518        5.5518       4.575628       0.04688
  26     33.73        0.9762        0.0000        5.5268        5.5268       4.550561       0.03769
  25     40.54        0.9762        0.0000        5.4993        5.4993       4.523099       0.03407
  24     48.69        0.9763        0.0000        5.4678        5.4678       4.491534       0.03267
  23     57.69        0.9763        0.0000        5.4340        5.4340       4.457717       0.03170
  22     68.43        0.9763        0.0000        5.3947        5.3948       4.418408       0.03090
  21     81.20        0.9764        0.0000        5.3497        5.3497       4.373330       0.02979
  20     96.49        0.9765        0.0000        5.2982        5.2982       4.321760       0.02846
  19     114.6        0.9765        0.0000        5.2389        5.2389       4.262369       0.02773
  18     136.5        0.9766        0.0000        5.1716        5.1717       4.195024       0.02590
  17     162.9        0.9768        0.0000        5.0890        5.0890       4.112265       0.02645
  16     196.4        0.9770        0.0000        4.9668        4.9668       3.989805       0.03082
  15     218.7        0.9773        0.0000        4.8585        4.8585       3.881205       0.04123
  14     243.0        0.9777        0.0000        4.7078        4.7079       3.730201       0.05237
  13     269.0        0.9782        0.0000        4.5343        4.5343       3.556036       0.05650
  12     297.5        0.9792        0.0000        4.3419        4.3420       3.362772       0.05732
  11     328.5        0.9805        0.0000        4.1281        4.1281       3.147670       0.05849
  10     361.9        0.9822        0.0000        3.8786        3.8787       2.896488       0.06355
   9     398.1        0.9844        0.0000        3.6159        3.6160       2.631520       0.06173
   8     437.6        0.9874        0.0000        3.3759        3.3759       2.388537       0.05195
   7     480.5        0.9910        0.0000        3.1957        3.1958       2.204828       0.03608
   6     533.0        0.9965        0.0000        3.0467        3.0467       2.050217       0.02487
   5     589.8        1.0047        0.0000        2.9023        2.9023       1.897598       0.02265
   4     651.6        1.0193        0.0000        2.7183        2.7184       1.699074       0.02715
   3     718.7        1.0445        0.0000        2.5058        2.5059       1.461381       0.02987
   2     792.3        1.0916        0.0001        2.2756        2.2757       1.184062       0.03181
   1     891.5        0.7960        0.5999        1.0135        1.6134       0.817351       0.03121
   0    1013.0        0.9612        0.4880        0.7990        1.2870       0.325757       0.03413

  Modules and versions used in this calculation:

       rrtmg_sw.1col.f90:  $Revision$                    rrtmg_sw_init.f90:  $Revision$        
     rrtmgsw_cldprop.f90:  $Revision$                  rrtmgsw_cldprmc.f90:  NOT USED          
     rrtmg_sw_reftra.f90:  $Revision$                  rrtmg_sw_spcvrt.f90:  NOT USED          
     rrtmg_sw_spcvmc.f90:  NOT USED                    rrtmgsw_setcoef.f90:  NOT USED          
     rrtmg_sw_taumol.f90:  $Revision$                  rrtmg_sw_vrtqdr.f90:  NOT USED          
                rrtatm.f:  NOT USED                             util_xxx.f:  NOT USED          
                 extra.f:  NOT USED                       rrtmg_sw_k_g.f90:  $Revision$        

