

 Wavenumbers:   820. - 50000. cm-1, ATM      1
 LEVEL PRESSURE   UPWARD FLUX   DIFDOWN FLUX  DIRDOWN FLUX  DOWNWARD FLUX   NET FLUX    HEATING RATE
          mb          W/m2          W/m2          W/m2        W/m2          W/m2       degree/day
  51    .06700      445.4640        0.0000      617.8126      617.8126     172.348562       0.00000
  50    .07753      445.4636        0.0014      617.7947      617.7961     172.332419      12.93834
  49    .09103      445.4632        0.0030      617.7778      617.7808     172.317606       9.25837
  48    0.1069      445.4627        0.0050      617.7581      617.7631     172.300341       9.19033
  47    0.1255      445.4622        0.0072      617.7340      617.7412     172.278992       9.67872
  46    0.1487      445.4616        0.0101      617.7009      617.7109     172.249300      10.82300
  45    0.1794      445.4609        0.0139      617.6521      617.6660     172.205060      12.14493
  44    0.2165      445.4602        0.0185      617.5895      617.6079     172.147727      13.04223
  43    0.2613      445.4595        0.0238      617.5089      617.5327     172.073200      14.04814
  42    0.3336      445.4587        0.0327      617.3641      617.3968     171.938088      15.75272
  41    0.4307      445.4580        0.0443      617.1591      617.2034     171.745426      16.75154
  40    0.5894      445.4579        0.0631      616.8005      616.8636     171.405664      18.06809
  39     1.339      445.4757        0.1481      614.9443      615.0923     169.616591      20.14171
  38     1.782      445.4989        0.1959      613.9670      614.1629     168.663968      18.13640
  37     2.292      445.5373        0.2503      613.0059      613.2562     167.718850      15.65363
  36     2.964      445.6051        0.3210      611.9577      612.2786     166.673575      13.12136
  35     3.853      445.7188        0.4137      610.8024      611.2161     165.497319      11.16289
  34     5.035      445.8937        0.5361      609.5327      610.0688     164.175093       9.44543
  33     6.613      446.1400        0.6985      608.1464      608.8449     162.704907       7.85962
  32     8.786      446.4609        0.9164      606.6250      607.5415     161.080515       6.30855
  31     11.80      446.8765        1.2267      604.8486      606.0753     159.198776       5.26827
  30     15.07      447.2722        1.5577      603.2440      604.8017     157.529536       4.30965
  29     18.79      447.6738        1.9302      601.6511      603.5814     155.907542       3.67756
  28     23.16      448.0909        2.3631      599.9927      602.3558     154.264867       3.17640
  27     28.12      448.5069        2.8558      598.2881      601.1438     152.636942       2.76736
  26     33.73      448.8832        3.4050      596.5951      600.0001     151.116952       2.28535
  25     40.54      449.2338        4.0663      594.7727      598.8390     149.605169       1.87554
  24     48.69      449.5560        4.8598      592.7865      597.6463     148.090358       1.56759
  23     57.69      449.8122        5.7273      590.7959      596.5232     146.710967       1.29297
  22     68.43      450.0115        6.7550      588.6191      595.3740     145.362548       1.06004
  21     81.20      450.1018        7.9734      586.2690      594.2423     144.140577       0.80746
  20     96.49      450.0730        9.4160      583.6961      593.1121     143.039149       0.60791
  19     114.6      449.9834       11.1133      580.7708      591.8841     141.900708       0.53157
  18     136.5      449.8328       13.1006      577.4359      590.5365     140.703771       0.46025
  17     162.9      449.6159       15.4330      573.5624      588.9954     139.379587       0.42326
  16     196.4      449.2478       18.4076      568.5907      586.9983     137.750438       0.41008
  15     218.7      448.9784       20.3308      565.0572      585.3880     136.409635       0.50905
  14     243.0      448.6785       22.3937      560.7495      583.1433     134.464733       0.67456
  13     269.0      448.3501       24.5977      555.3947      579.9924     131.642321       0.91558
  12     297.5      447.9995       26.9435      548.9964      575.9398     127.940337       1.09797
  11     328.5      447.6373       29.4375      542.0895      571.5270     123.889705       1.10136
  10     361.9      447.2723       32.0759      534.6242      566.7001     119.427844       1.12890
   9     398.1      446.9169       34.8634      526.4204      561.2838     114.366932       1.17908
   8     437.6      446.5953       37.7985      517.3907      555.1892     108.593839       1.23432
   7     480.5      446.3340       40.8795      507.7216      548.6010     102.267038       1.24256
   6     533.0      446.1683       44.5837      495.9006      540.4843      94.315989       1.27907
   5     589.8      446.2751       48.4707      483.0788      531.5496      85.274434       1.34206
   4     651.6      446.9847       52.5277      468.6907      521.2184      74.233608       1.50986
   3     718.7      448.7678       56.7464      453.2257      509.9722      61.204350       1.63742
   2     792.3      452.8800       61.1047      436.4928      497.5975      44.717487       1.89086
   1     891.5      279.3990      311.0275        0.0617      311.0893      31.690234       1.10856
   0    1013.0      282.4791      306.0030        0.0579      306.0609      23.581879       0.56300



 Wavenumbers:  2600. -  3250. cm-1, ATM      1
 LEVEL PRESSURE   UPWARD FLUX   DIFDOWN FLUX  DIRDOWN FLUX  DOWNWARD FLUX   NET FLUX    HEATING RATE
          mb          W/m2          W/m2          W/m2        W/m2          W/m2       degree/day
  51    .06700        1.9574        0.0000        5.4450        5.4450       3.487667       0.00000
  50    .07753        1.9574        0.0000        5.4450        5.4450       3.487659       0.00640
  49    .09103        1.9574        0.0000        5.4450        5.4450       3.487649       0.00627
  48    0.1069        1.9574        0.0000        5.4450        5.4450       3.487638       0.00613
  47    0.1255        1.9574        0.0000        5.4450        5.4450       3.487624       0.00599
  46    0.1487        1.9574        0.0000        5.4450        5.4450       3.487608       0.00608
  45    0.1794        1.9574        0.0000        5.4450        5.4450       3.487585       0.00625
  44    0.2165        1.9574        0.0000        5.4449        5.4449       3.487558       0.00612
  43    0.2613        1.9574        0.0000        5.4449        5.4449       3.487526       0.00600
  42    0.3336        1.9574        0.0000        5.4448        5.4448       3.487473       0.00617
  41    0.4307        1.9574        0.0000        5.4448        5.4448       3.487402       0.00620
  40    0.5894        1.9574        0.0000        5.4446        5.4446       3.487282       0.00637
  39     1.339        1.9574        0.0000        5.4439        5.4439       3.486575       0.00797
  38     1.782        1.9574        0.0000        5.4434        5.4434       3.486032       0.01034
  37     2.292        1.9574        0.0000        5.4427        5.4427       3.485316       0.01186
  36     2.964        1.9574        0.0000        5.4416        5.4416       3.484277       0.01304
  35     3.853        1.9574        0.0000        5.4402        5.4402       3.482800       0.01402
  34     5.035        1.9574        0.0000        5.4381        5.4381       3.480744       0.01469
  33     6.613        1.9574        0.0000        5.4353        5.4353       3.477962       0.01487
  32     8.786        1.9574        0.0000        5.4317        5.4317       3.474329       0.01411
  31     11.80        1.9574        0.0000        5.4269        5.4269       3.469547       0.01339
  30     15.07        1.9574        0.0000        5.4224        5.4224       3.465018       0.01169
  29     18.79        1.9574        0.0000        5.4180        5.4180       3.460602       0.01001
  28     23.16        1.9574        0.0000        5.4135        5.4135       3.456110       0.00869
  27     28.12        1.9574        0.0000        5.4088        5.4088       3.451454       0.00792
  26     33.73        1.9574        0.0000        5.4036        5.4036       3.446201       0.00790
  25     40.54        1.9574        0.0000        5.3966        5.3967       3.439241       0.00864
  24     48.69        1.9575        0.0000        5.3872        5.3872       3.429735       0.00984
  23     57.69        1.9575        0.0000        5.3754        5.3754       3.417911       0.01108
  22     68.43        1.9576        0.0000        5.3599        5.3599       3.402366       0.01222
  21     81.20        1.9576        0.0000        5.3401        5.3401       3.382450       0.01316
  20     96.49        1.9578        0.0000        5.3155        5.3155       3.357767       0.01362
  19     114.6        1.9579        0.0001        5.2853        5.2854       3.327410       0.01417
  18     136.5        1.9582        0.0001        5.2504        5.2505       3.292277       0.01351
  17     162.9        1.9586        0.0001        5.2111        5.2112       3.252608       0.01268
  16     196.4        1.9591        0.0001        5.1640        5.1641       3.204974       0.01199
  15     218.7        1.9597        0.0001        5.1331        5.1332       3.173466       0.01196
  14     243.0        1.9607        0.0001        5.0962        5.0963       3.135597       0.01313
  13     269.0        1.9622        0.0001        5.0511        5.0512       3.088961       0.01513
  12     297.5        1.9646        0.0001        4.9956        4.9957       3.031176       0.01714
  11     328.5        1.9678        0.0001        4.9304        4.9305       2.962722       0.01861
  10     361.9        1.9722        0.0002        4.8511        4.8513       2.879008       0.02118
   9     398.1        1.9784        0.0002        4.7507        4.7509       2.772442       0.02483
   8     437.6        1.9870        0.0002        4.6220        4.6222       2.635225       0.02934
   7     480.5        1.9989        0.0002        4.4625        4.4627       2.463742       0.03368
   6     533.0        2.0185        0.0002        4.2460        4.2462       2.227790       0.03796
   5     589.8        2.0484        0.0002        3.9954        3.9956       1.947217       0.04165
   4     651.6        2.0982        0.0002        3.7089        3.7091       1.610882       0.04599
   3     718.7        2.1813        0.0002        3.4018        3.4020       1.220703       0.04903
   2     792.3        2.3348        0.0002        3.0564        3.0567       0.721895       0.05721
   1     891.5        0.5588        0.9086        0.0004        0.9090       0.350225       0.03163
   0    1013.0        0.6263        0.7885        0.0003        0.7888       0.162518       0.01303



 Wavenumbers:  3250. -  4000. cm-1, ATM      1
 LEVEL PRESSURE   UPWARD FLUX   DIFDOWN FLUX  DIRDOWN FLUX  DOWNWARD FLUX   NET FLUX    HEATING RATE
          mb          W/m2          W/m2          W/m2        W/m2          W/m2       degree/day
  51    .06700        0.0629        0.0000        9.1795        9.1795       9.116598       0.00000
  50    .07753        0.0629        0.0000        9.1747        9.1747       9.111756       3.88148
  49    .09103        0.0629        0.0000        9.1713        9.1713       9.108368       2.11747
  48    0.1069        0.0629        0.0000        9.1688        9.1688       9.105843       1.34402
  47    0.1255        0.0629        0.0000        9.1665        9.1665       9.103584       1.02422
  46    0.1487        0.0629        0.0000        9.1641        9.1641       9.101142       0.88991
  45    0.1794        0.0629        0.0000        9.1612        9.1612       9.098264       0.79008
  44    0.2165        0.0629        0.0000        9.1583        9.1583       9.095344       0.66430
  43    0.2613        0.0629        0.0000        9.1553        9.1553       9.092371       0.56041
  42    0.3336        0.0629        0.0000        9.1511        9.1511       9.088192       0.48723
  41    0.4307        0.0629        0.0000        9.1464        9.1464       9.083424       0.41459
  40    0.5894        0.0629        0.0000        9.1393        9.1394       9.076418       0.37255
  39     1.339        0.0629        0.0000        9.1127        9.1127       9.049805       0.29962
  38     1.782        0.0629        0.0000        9.1011        9.1011       9.038216       0.22062
  37     2.292        0.0629        0.0000        9.0901        9.0901       9.027150       0.18329
  36     2.964        0.0629        0.0000        9.0776        9.0776       9.014720       0.15603
  35     3.853        0.0629        0.0000        9.0629        9.0629       8.999930       0.14036
  34     5.035        0.0629        0.0000        9.0441        9.0441       8.981191       0.13386
  33     6.613        0.0629        0.0000        9.0191        9.0191       8.956189       0.13366
  32     8.786        0.0629        0.0000        8.9843        8.9843       8.921406       0.13509
  31     11.80        0.0629        0.0000        8.9327        8.9327       8.869789       0.14451
  30     15.07        0.0629        0.0000        8.8758        8.8759       8.812944       0.14676
  29     18.79        0.0629        0.0000        8.8110        8.8110       8.748117       0.14698
  28     23.16        0.0629        0.0000        8.7365        8.7366       8.673672       0.14395
  27     28.12        0.0629        0.0000        8.6554        8.6555       8.592559       0.13789
  26     33.73        0.0629        0.0000        8.5719        8.5719       8.509059       0.12554
  25     40.54        0.0629        0.0001        8.4812        8.4812       8.418336       0.11255
  24     48.69        0.0629        0.0001        8.3838        8.3839       8.321034       0.10069
  23     57.69        0.0629        0.0001        8.2861        8.2862       8.223299       0.09161
  22     68.43        0.0628        0.0001        8.1751        8.1751       8.112302       0.08726
  21     81.20        0.0628        0.0001        8.0457        8.0458       7.982944       0.08548
  20     96.49        0.0628        0.0001        7.8949        7.8951       7.832240       0.08318
  19     114.6        0.0628        0.0001        7.7162        7.7163       7.653530       0.08344
  18     136.5        0.0628        0.0002        7.5193        7.5195       7.456686       0.07569
  17     162.9        0.0627        0.0002        7.2913        7.2915       7.228793       0.07284
  16     196.4        0.0627        0.0002        6.9660        6.9662       6.903515       0.08188
  15     218.7        0.0627        0.0002        6.6648        6.6650       6.602316       0.11435
  14     243.0        0.0627        0.0002        6.2619        6.2622       6.199495       0.13971
  13     269.0        0.0627        0.0003        5.7576        5.7579       5.695132       0.16361
  12     297.5        0.0629        0.0003        5.1719        5.1722       5.109304       0.17375
  11     328.5        0.0631        0.0002        4.5757        4.5760       4.512906       0.16216
  10     361.9        0.0635        0.0002        3.9995        3.9998       3.936335       0.14588
   9     398.1        0.0641        0.0002        3.4655        3.4657       3.401631       0.12457
   8     437.6        0.0651        0.0002        2.9740        2.9743       2.909106       0.10530
   7     480.5        0.0669        0.0002        2.5307        2.5309       2.463990       0.08742
   6     533.0        0.0702        0.0002        2.0614        2.0616       1.991330       0.07604
   5     589.8        0.0764        0.0002        1.6150        1.6151       1.538754       0.06718
   4     651.6        0.0892        0.0001        1.1565        1.1566       1.067365       0.06446
   3     718.7        0.1176        0.0001        0.7390        0.7391       0.621548       0.05603
   2     792.3        0.1933        0.0001        0.3985        0.3985       0.205235       0.04775
   1     891.5        0.0001        0.0154        0.0000        0.0154       0.015296       0.01616
   0    1013.0        0.0013        0.0016        0.0000        0.0016       0.000330       0.00104



 Wavenumbers:  4000. -  4650. cm-1, ATM      1
 LEVEL PRESSURE   UPWARD FLUX   DIFDOWN FLUX  DIRDOWN FLUX  DOWNWARD FLUX   NET FLUX    HEATING RATE
          mb          W/m2          W/m2          W/m2        W/m2          W/m2       degree/day
  51    .06700        6.4613        0.0000       10.7795       10.7795       4.318238       0.00000
  50    .07753        6.4613        0.0000       10.7795       10.7795       4.318237       0.00080
  49    .09103        6.4613        0.0000       10.7795       10.7795       4.318236       0.00078
  48    0.1069        6.4613        0.0000       10.7795       10.7795       4.318234       0.00077
  47    0.1255        6.4613        0.0000       10.7795       10.7795       4.318232       0.00075
  46    0.1487        6.4613        0.0000       10.7795       10.7795       4.318230       0.00076
  45    0.1794        6.4613        0.0000       10.7795       10.7795       4.318228       0.00078
  44    0.2165        6.4613        0.0000       10.7795       10.7795       4.318224       0.00076
  43    0.2613        6.4613        0.0000       10.7795       10.7795       4.318220       0.00075
  42    0.3336        6.4613        0.0000       10.7795       10.7795       4.318214       0.00077
  41    0.4307        6.4613        0.0000       10.7795       10.7795       4.318205       0.00077
  40    0.5894        6.4613        0.0000       10.7795       10.7795       4.318190       0.00080
  39     1.339        6.4613        0.0000       10.7794       10.7794       4.318100       0.00101
  38     1.782        6.4613        0.0000       10.7793       10.7793       4.318030       0.00133
  37     2.292        6.4613        0.0000       10.7792       10.7792       4.317936       0.00156
  36     2.964        6.4613        0.0000       10.7791       10.7791       4.317795       0.00177
  35     3.853        6.4613        0.0000       10.7789       10.7789       4.317587       0.00198
  34     5.035        6.4613        0.0000       10.7786       10.7786       4.317279       0.00220
  33     6.613        6.4613        0.0000       10.7781       10.7781       4.316826       0.00242
  32     8.786        6.4613        0.0000       10.7774       10.7775       4.316157       0.00260
  31     11.80        6.4613        0.0001       10.7763       10.7764       4.315106       0.00294
  30     15.07        6.4613        0.0001       10.7751       10.7752       4.313871       0.00319
  29     18.79        6.4613        0.0001       10.7736       10.7737       4.312377       0.00339
  28     23.16        6.4613        0.0001       10.7717       10.7718       4.310521       0.00359
  27     28.12        6.4613        0.0001       10.7695       10.7696       4.308272       0.00382
  26     33.73        6.4613        0.0002       10.7667       10.7668       4.305496       0.00417
  25     40.54        6.4614        0.0002       10.7629       10.7631       4.301727       0.00468
  24     48.69        6.4615        0.0002       10.7579       10.7582       4.296699       0.00520
  23     57.69        6.4616        0.0003       10.7520       10.7523       4.290729       0.00560
  22     68.43        6.4617        0.0003       10.7446       10.7449       4.283234       0.00589
  21     81.20        6.4619        0.0004       10.7355       10.7359       4.273986       0.00611
  20     96.49        6.4622        0.0005       10.7245       10.7249       4.262708       0.00622
  19     114.6        6.4627        0.0006       10.7107       10.7113       4.248569       0.00660
  18     136.5        6.4634        0.0007       10.6942       10.6949       4.231485       0.00657
  17     162.9        6.4644        0.0008       10.6740       10.6748       4.210464       0.00672
  16     196.4        6.4660        0.0010       10.6464       10.6473       4.181327       0.00733
  15     218.7        6.4675        0.0011       10.6255       10.6265       4.159068       0.00845
  14     243.0        6.4696        0.0012       10.5980       10.5992       4.129647       0.01020
  13     269.0        6.4727        0.0013       10.5611       10.5624       4.089661       0.01297
  12     297.5        6.4773        0.0014       10.5119       10.5134       4.036043       0.01590
  11     328.5        6.4837        0.0016       10.4499       10.4515       3.967798       0.01856
  10     361.9        6.4920        0.0017       10.3702       10.3719       3.879960       0.02222
   9     398.1        6.5024        0.0019       10.2678       10.2697       3.767280       0.02625
   8     437.6        6.5158        0.0021       10.1390       10.1411       3.625290       0.03036
   7     480.5        6.5330        0.0023        9.9877        9.9900       3.456988       0.03305
   6     533.0        6.5595        0.0025        9.7937        9.7961       3.236599       0.03545
   5     589.8        6.5982        0.0027        9.5752        9.5778       2.979610       0.03815
   4     651.6        6.6611        0.0029        9.2958        9.2987       2.637554       0.04678
   3     718.7        6.7682        0.0031        8.9267        8.9298       2.161651       0.05981
   2     792.3        6.9732        0.0033        8.4542        8.4575       1.484375       0.07768
   1     891.5        2.4159        3.3715        0.0012        3.3727       0.956833       0.04489
   0    1013.0        2.5286        3.1837        0.0011        3.1848       0.656141       0.02088



 Wavenumbers:  4650. -  5150. cm-1, ATM      1
 LEVEL PRESSURE   UPWARD FLUX   DIFDOWN FLUX  DIRDOWN FLUX  DOWNWARD FLUX   NET FLUX    HEATING RATE
          mb          W/m2          W/m2          W/m2        W/m2          W/m2       degree/day
  51    .06700        4.6514        0.0000       10.2033       10.2033       5.551973       0.00000
  50    .07753        4.6514        0.0000       10.2031       10.2031       5.551737       0.18901
  49    .09103        4.6514        0.0000       10.2028       10.2028       5.551442       0.18428
  48    0.1069        4.6514        0.0000       10.2025       10.2025       5.551105       0.17931
  47    0.1255        4.6514        0.0000       10.2021       10.2021       5.550721       0.17426
  46    0.1487        4.6514        0.0000       10.2016       10.2016       5.550240       0.17536
  45    0.1794        4.6514        0.0000       10.2010       10.2010       5.549589       0.17850
  44    0.2165        4.6514        0.0000       10.2002       10.2002       5.548830       0.17277
  43    0.2613        4.6514        0.0000       10.1993       10.1993       5.547944       0.16690
  42    0.3336        4.6514        0.0000       10.1979       10.1979       5.546512       0.16702
  41    0.4307        4.6514        0.0000       10.1960       10.1960       5.544671       0.16002
  40    0.5894        4.6514        0.0000       10.1932       10.1932       5.541798       0.15283
  39     1.339        4.6514        0.0000       10.1816       10.1816       5.530205       0.13051
  38     1.782        4.6514        0.0000       10.1760       10.1760       5.524676       0.10527
  37     2.292        4.6514        0.0000       10.1706       10.1706       5.519219       0.09039
  36     2.964        4.6514        0.0000       10.1646       10.1647       5.513295       0.07437
  35     3.853        4.6514        0.0000       10.1584       10.1584       5.507078       0.05900
  34     5.035        4.6514        0.0000       10.1521       10.1521       5.500739       0.04528
  33     6.613        4.6514        0.0000       10.1456       10.1456       5.494276       0.03455
  32     8.786        4.6514        0.0001       10.1386       10.1386       5.487254       0.02727
  31     11.80        4.6514        0.0001       10.1295       10.1296       5.478194       0.02537
  30     15.07        4.6514        0.0001       10.1196       10.1197       5.468287       0.02558
  29     18.79        4.6515        0.0001       10.1076       10.1077       5.456241       0.02731
  28     23.16        4.6515        0.0002       10.0923       10.0924       5.440881       0.02970
  27     28.12        4.6516        0.0002       10.0731       10.0733       5.421711       0.03259
  26     33.73        4.6518        0.0002       10.0500       10.0503       5.398515       0.03488
  25     40.54        4.6519        0.0003       10.0201       10.0204       5.368467       0.03728
  24     48.69        4.6522        0.0003        9.9820        9.9823       5.330090       0.03971
  23     57.69        4.6526        0.0004        9.9384        9.9388       5.286286       0.04106
  22     68.43        4.6530        0.0005        9.8858        9.8862       5.233188       0.04174
  21     81.20        4.6537        0.0006        9.8234        9.8240       5.170289       0.04156
  20     96.49        4.6547        0.0007        9.7518        9.7524       5.097769       0.04003
  19     114.6        4.6560        0.0008        9.6719        9.6727       5.016751       0.03783
  18     136.5        4.6578        0.0009        9.5858        9.5867       4.928979       0.03375
  17     162.9        4.6603        0.0011        9.4940        9.4952       4.834895       0.03007
  16     196.4        4.6641        0.0013        9.3883        9.3896       4.725509       0.02753
  15     218.7        4.6671        0.0015        9.3229        9.3244       4.657272       0.02591
  14     243.0        4.6710        0.0016        9.2520        9.2536       4.582576       0.02591
  13     269.0        4.6763        0.0018        9.1717        9.1734       4.497184       0.02770
  12     297.5        4.6836        0.0020        9.0763        9.0782       4.394670       0.03040
  11     328.5        4.6931        0.0021        8.9650        8.9671       4.274025       0.03280
  10     361.9        4.7054        0.0023        8.8349        8.8373       4.131884       0.03596
   9     398.1        4.7213        0.0025        8.6820        8.6846       3.963223       0.03929
   8     437.6        4.7421        0.0028        8.5028        8.5056       3.763438       0.04272
   7     480.5        4.7692        0.0030        8.2948        8.2978       3.528599       0.04612
   6     533.0        4.8106        0.0032        8.0209        8.0241       3.213547       0.05068
   5     589.8        4.8682        0.0035        7.7063        7.7098       2.841553       0.05522
   4     651.6        4.9539        0.0037        7.3412        7.3449       2.390983       0.06162
   3     718.7        5.0844        0.0039        6.9387        6.9426       1.858186       0.06696
   2     792.3        5.2950        0.0041        6.5066        6.5107       1.215665       0.07369
   1     891.5        1.7080        2.4489        0.0009        2.4497       0.741700       0.04033
   0    1013.0        1.8118        2.2812        0.0008        2.2820       0.470145       0.01886



 Wavenumbers:  5150. -  6150. cm-1, ATM      1
 LEVEL PRESSURE   UPWARD FLUX   DIFDOWN FLUX  DIRDOWN FLUX  DOWNWARD FLUX   NET FLUX    HEATING RATE
          mb          W/m2          W/m2          W/m2        W/m2          W/m2       degree/day
  51    .06700       11.1393        0.0000       25.5798       25.5798      14.440569       0.00000
  50    .07753       11.1393        0.0000       25.5798       25.5798      14.440530       0.03162
  49    .09103       11.1393        0.0000       25.5797       25.5797      14.440478       0.03211
  48    0.1069       11.1393        0.0000       25.5797       25.5797      14.440417       0.03262
  47    0.1255       11.1393        0.0000       25.5796       25.5796      14.440344       0.03312
  46    0.1487       11.1393        0.0000       25.5795       25.5795      14.440248       0.03489
  45    0.1794       11.1393        0.0000       25.5794       25.5794      14.440113       0.03713
  44    0.2165       11.1393        0.0000       25.5792       25.5792      14.439947       0.03769
  43    0.2613       11.1392        0.0000       25.5790       25.5790      14.439744       0.03827
  42    0.3336       11.1392        0.0000       25.5786       25.5786      14.439398       0.04044
  41    0.4307       11.1392        0.0000       25.5782       25.5782      14.438926       0.04098
  40    0.5894       11.1392        0.0000       25.5774       25.5774      14.438137       0.04199
  39     1.339       11.1392        0.0000       25.5735       25.5736      14.434332       0.04283
  38     1.782       11.1392        0.0001       25.5713       25.5714      14.432117       0.04218
  37     2.292       11.1392        0.0001       25.5688       25.5688      14.429609       0.04154
  36     2.964       11.1392        0.0001       25.5656       25.5657      14.426421       0.04001
  35     3.853       11.1392        0.0001       25.5615       25.5616      14.422369       0.03845
  34     5.035       11.1393        0.0002       25.5562       25.5564      14.417150       0.03729
  33     6.613       11.1393        0.0002       25.5494       25.5496      14.410377       0.03621
  32     8.786       11.1393        0.0003       25.5406       25.5409      14.401596       0.03410
  31     11.80       11.1393        0.0004       25.5287       25.5290      14.389715       0.03326
  30     15.07       11.1394        0.0005       25.5167       25.5172      14.377793       0.03078
  29     18.79       11.1395        0.0006       25.5042       25.5048      14.365320       0.02828
  28     23.16       11.1395        0.0007       25.4907       25.4914      14.351874       0.02600
  27     28.12       11.1397        0.0009       25.4764       25.4773      14.337683       0.02412
  26     33.73       11.1398        0.0011       25.4620       25.4631      14.323280       0.02166
  25     40.54       11.1401        0.0013       25.4463       25.4475      14.307497       0.01958
  24     48.69       11.1404        0.0016       25.4294       25.4309      14.290548       0.01754
  23     57.69       11.1408        0.0018       25.4126       25.4145      14.273674       0.01582
  22     68.43       11.1413        0.0022       25.3944       25.3966      14.255302       0.01444
  21     81.20       11.1420        0.0026       25.3744       25.3770      14.235033       0.01339
  20     96.49       11.1428        0.0031       25.3519       25.3550      14.212205       0.01260
  19     114.6       11.1439        0.0037       25.3262       25.3298      14.185981       0.01224
  18     136.5       11.1451        0.0043       25.2962       25.3005      14.155416       0.01175
  17     162.9       11.1467        0.0052       25.2521       25.2573      14.110550       0.01434
  16     196.4       11.1489        0.0062       25.1593       25.1655      14.016611       0.02365
  15     218.7       11.1505        0.0069       25.0159       25.0228      13.872345       0.05477
  14     243.0       11.1524        0.0076       24.7089       24.7165      13.564085       0.10691
  13     269.0       11.1549        0.0083       24.1619       24.1701      13.015226       0.17805
  12     297.5       11.1583        0.0090       23.4544       23.4633      12.305067       0.21063
  11     328.5       11.1627        0.0097       22.7355       22.7451      11.582447       0.19648
  10     361.9       11.1685        0.0104       21.9224       21.9328      10.764299       0.20700
   9     398.1       11.1763        0.0111       20.9939       21.0050       9.828663       0.21798
   8     437.6       11.1872        0.0117       19.9833       19.9951       8.807899       0.21825
   7     480.5       11.2022        0.0124       18.9483       18.9607       7.758503       0.20610
   6     533.0       11.2277        0.0131       17.7796       17.7927       6.565064       0.19199
   5     589.8       11.2690        0.0139       16.6726       16.6865       5.417488       0.17034
   4     651.6       11.3447        0.0147       15.6343       15.6490       4.304289       0.15223
   3     718.7       11.4839        0.0155       14.7738       14.7893       3.305416       0.12553
   2     792.3       11.7643        0.0165       14.0291       14.0456       2.281282       0.11746
   1     891.5        4.4276        5.9726        0.0020        5.9746       1.546938       0.06249
   0    1013.0        4.5532        5.7328        0.0018        5.7346       1.181472       0.02538



 Wavenumbers:  6150. -  7700. cm-1, ATM      1
 LEVEL PRESSURE   UPWARD FLUX   DIFDOWN FLUX  DIRDOWN FLUX  DOWNWARD FLUX   NET FLUX    HEATING RATE
          mb          W/m2          W/m2          W/m2        W/m2          W/m2       degree/day
  51    .06700       17.7215        0.0000       47.3109       47.3109      29.589400       0.00000
  50    .07753       17.7215        0.0000       47.3108       47.3108      29.589343       0.04553
  49    .09103       17.7215        0.0000       47.3107       47.3107      29.589270       0.04583
  48    0.1069       17.7215        0.0000       47.3106       47.3106      29.589183       0.04614
  47    0.1255       17.7215        0.0000       47.3105       47.3105      29.589081       0.04645
  46    0.1487       17.7215        0.0000       47.3104       47.3104      29.588948       0.04852
  45    0.1794       17.7215        0.0000       47.3102       47.3102      29.588761       0.05127
  44    0.2165       17.7214        0.0000       47.3100       47.3100      29.588534       0.05167
  43    0.2613       17.7214        0.0000       47.3097       47.3097      29.588257       0.05210
  42    0.3336       17.7214        0.0000       47.3092       47.3092      29.587788       0.05471
  41    0.4307       17.7214        0.0000       47.3085       47.3086      29.587153       0.05521
  40    0.5894       17.7214        0.0001       47.3074       47.3075      29.586094       0.05633
  39     1.339       17.7214        0.0002       47.3022       47.3024      29.581002       0.05733
  38     1.782       17.7213        0.0002       47.2991       47.2994      29.578031       0.05655
  37     2.292       17.7213        0.0003       47.2956       47.2959      29.574656       0.05591
  36     2.964       17.7212        0.0004       47.2912       47.2916      29.570337       0.05421
  35     3.853       17.7212        0.0005       47.2855       47.2860      29.564803       0.05252
  34     5.035       17.7211        0.0007       47.2780       47.2787      29.557622       0.05129
  33     6.613       17.7210        0.0009       47.2683       47.2692      29.548234       0.05019
  32     8.786       17.7208        0.0011       47.2556       47.2567      29.535935       0.04777
  31     11.80       17.7206        0.0015       47.2380       47.2396      29.519031       0.04733
  30     15.07       17.7203        0.0020       47.2201       47.2220      29.501742       0.04463
  29     18.79       17.7200        0.0025       47.2008       47.2033      29.483262       0.04190
  28     23.16       17.7197        0.0030       47.1795       47.1826      29.462870       0.03943
  27     28.12       17.7193        0.0037       47.1565       47.1602      29.440875       0.03739
  26     33.73       17.7189        0.0044       47.1324       47.1368      29.417952       0.03447
  25     40.54       17.7184        0.0053       47.1054       47.1107      29.392312       0.03181
  24     48.69       17.7177        0.0064       47.0754       47.0818      29.364055       0.02924
  23     57.69       17.7171        0.0075       47.0449       47.0525      29.335429       0.02683
  22     68.43       17.7163        0.0089       47.0110       47.0199      29.303685       0.02495
  21     81.20       17.7153        0.0106       46.9729       46.9835      29.268183       0.02346
  20     96.49       17.7142        0.0126       46.9294       46.9420      29.227830       0.02227
  19     114.6       17.7128        0.0150       46.8790       46.8940      29.181180       0.02178
  18     136.5       17.7112        0.0178       46.8200       46.8378      29.126532       0.02101
  17     162.9       17.7094        0.0211       46.7361       46.7572      29.047866       0.02514
  16     196.4       17.7071        0.0254       46.5703       46.5957      28.888555       0.04010
  15     218.7       17.7059        0.0282       46.3473       46.3755      28.669654       0.08311
  14     243.0       17.7049        0.0311       45.9299       45.9610      28.256134       0.14342
  13     269.0       17.7046        0.0341       45.1708       45.2049      27.500229       0.24521
  12     297.5       17.7059        0.0370       44.0115       44.0484      26.342491       0.34337
  11     328.5       17.7093        0.0399       42.7242       42.7641      25.054792       0.35012
  10     361.9       17.7159        0.0429       41.3539       41.3968      23.680951       0.34760
   9     398.1       17.7274        0.0459       39.7953       39.8411      22.113753       0.36512
   8     437.6       17.7468        0.0487       37.9948       38.0434      20.296590       0.38852
   7     480.5       17.7780        0.0513       36.0647       36.1161      18.338053       0.38465
   6     533.0       17.8367        0.0542       33.7773       33.8315      15.994836       0.37695
   5     589.8       17.9392        0.0569       31.4082       31.4651      13.525920       0.36647
   4     651.6       18.1374        0.0591       28.8834       28.9425      10.805141       0.37207
   3     718.7       18.5178        0.0611       26.4104       26.4715       7.953659       0.35835
   2     792.3       19.3328        0.0628       24.0056       24.0684       4.735616       0.36907
   1     891.5        6.3477        8.9823        0.0032        8.9855       2.637795       0.17851
   0    1013.0        6.6606        8.3862        0.0028        8.3890       1.728341       0.06315



 Wavenumbers:  7700. -  8050. cm-1, ATM      1
 LEVEL PRESSURE   UPWARD FLUX   DIFDOWN FLUX  DIRDOWN FLUX  DOWNWARD FLUX   NET FLUX    HEATING RATE
          mb          W/m2          W/m2          W/m2        W/m2          W/m2       degree/day
  51    .06700        8.2145        0.0000       11.1810       11.1810       2.966445       0.00000
  50    .07753        8.2145        0.0000       11.1809       11.1809       2.966421       0.01886
  49    .09103        8.2145        0.0000       11.1809       11.1809       2.966392       0.01848
  48    0.1069        8.2145        0.0000       11.1809       11.1809       2.966358       0.01810
  47    0.1255        8.2145        0.0000       11.1809       11.1809       2.966319       0.01771
  46    0.1487        8.2146        0.0000       11.1808       11.1808       2.966269       0.01797
  45    0.1794        8.2146        0.0000       11.1808       11.1808       2.966202       0.01849
  44    0.2165        8.2146        0.0000       11.1807       11.1807       2.966122       0.01814
  43    0.2613        8.2146        0.0000       11.1806       11.1806       2.966028       0.01780
  42    0.3336        8.2147        0.0000       11.1805       11.1805       2.965872       0.01821
  41    0.4307        8.2147        0.0000       11.1803       11.1804       2.965664       0.01801
  40    0.5894        8.2148        0.0000       11.1801       11.1801       2.965326       0.01799
  39     1.339        8.2152        0.0001       11.1788       11.1789       2.963725       0.01802
  38     1.782        8.2154        0.0001       11.1781       11.1782       2.962785       0.01790
  37     2.292        8.2156        0.0001       11.1772       11.1773       2.961696       0.01803
  36     2.964        8.2160        0.0002       11.1761       11.1763       2.960267       0.01794
  35     3.853        8.2164        0.0002       11.1746       11.1748       2.958379       0.01792
  34     5.035        8.2170        0.0003       11.1726       11.1729       2.955870       0.01792
  33     6.613        8.2178        0.0004       11.1700       11.1704       2.952519       0.01791
  32     8.786        8.2189        0.0005       11.1664       11.1669       2.948005       0.01753
  31     11.80        8.2205        0.0007       11.1613       11.1620       2.941549       0.01807
  30     15.07        8.2221        0.0009       11.1558       11.1568       2.934621       0.01789
  29     18.79        8.2240        0.0011       11.1497       11.1508       2.926800       0.01773
  28     23.16        8.2262        0.0014       11.1425       11.1439       2.917674       0.01765
  27     28.12        8.2288        0.0017       11.1343       11.1360       2.907250       0.01772
  26     33.73        8.2316        0.0020       11.1252       11.1272       2.895602       0.01751
  25     40.54        8.2351        0.0025       11.1142       11.1167       2.881553       0.01743
  24     48.69        8.2393        0.0029       11.1010       11.1040       2.864655       0.01749
  23     57.69        8.2439        0.0035       11.0866       11.0901       2.846142       0.01735
  22     68.43        8.2495        0.0041       11.0695       11.0737       2.824161       0.01728
  21     81.20        8.2562        0.0049       11.0494       11.0543       2.798072       0.01724
  20     96.49        8.2642        0.0058       11.0255       11.0313       2.767125       0.01708
  19     114.6        8.2739        0.0069       10.9975       11.0044       2.730574       0.01707
  18     136.5        8.2854        0.0082       10.9648       10.9730       2.687515       0.01656
  17     162.9        8.2994        0.0097       10.9263       10.9360       2.636589       0.01628
  16     196.4        8.3179        0.0117       10.8773       10.8890       2.571071       0.01649
  15     218.7        8.3302        0.0130       10.8455       10.8585       2.528306       0.01624
  14     243.0        8.3439        0.0144       10.8114       10.8259       2.481989       0.01606
  13     269.0        8.3589        0.0159       10.7749       10.7908       2.431901       0.01625
  12     297.5        8.3755        0.0176       10.7357       10.7533       2.377745       0.01606
  11     328.5        8.3940        0.0194       10.6937       10.7131       2.319125       0.01594
  10     361.9        8.4144        0.0213       10.6489       10.6701       2.255727       0.01604
   9     398.1        8.4372        0.0234       10.6008       10.6241       2.186925       0.01603
   8     437.6        8.4627        0.0256       10.5491       10.5746       2.111935       0.01603
   7     480.5        8.4914        0.0279       10.4934       10.5214       2.030017       0.01609
   6     533.0        8.5287        0.0309       10.4243       10.4552       1.926409       0.01667
   5     589.8        8.5723        0.0340       10.3479       10.3819       1.809568       0.01734
   4     651.6        8.6247        0.0374       10.2613       10.2987       1.674038       0.01853
   3     718.7        8.6889        0.0410       10.1618       10.2027       1.513819       0.02014
   2     792.3        8.7707        0.0448       10.0439       10.0887       1.317988       0.02246
   1     891.5        3.6181        4.7483        0.0015        4.7497       1.131643       0.01586
   0    1013.0        3.6926        4.6493        0.0014        4.6508       0.958166       0.01205



 Wavenumbers:  8050. - 12850. cm-1, ATM      1
 LEVEL PRESSURE   UPWARD FLUX   DIFDOWN FLUX  DIRDOWN FLUX  DOWNWARD FLUX   NET FLUX    HEATING RATE
          mb          W/m2          W/m2          W/m2        W/m2          W/m2       degree/day
  51    .06700      106.6195        0.0000      156.5418      156.5418      49.922260       0.00000
  50    .07753      106.6195        0.0000      156.5417      156.5417      49.922260      -0.00000
  49    .09103      106.6195        0.0001      156.5417      156.5417      49.922260      -0.00000
  48    0.1069      106.6195        0.0001      156.5416      156.5417      49.922260       0.00000
  47    0.1255      106.6194        0.0002      156.5415      156.5417      49.922260       0.00000
  46    0.1487      106.6194        0.0002      156.5414      156.5417      49.922260       0.00000
  45    0.1794      106.6194        0.0003      156.5413      156.5416      49.922260       0.00000
  44    0.2165      106.6193        0.0004      156.5412      156.5416      49.922260      -0.00000
  43    0.2613      106.6193        0.0006      156.5410      156.5416      49.922260       0.00000
  42    0.3336      106.6192        0.0008      156.5407      156.5415      49.922260       0.00000
  41    0.4307      106.6191        0.0011      156.5403      156.5414      49.922260      -0.00000
  40    0.5894      106.6190        0.0015      156.5397      156.5412      49.922260       0.00000
  39     1.339      106.6182        0.0037      156.5367      156.5405      49.922260      -0.00000
  38     1.782      106.6178        0.0050      156.5350      156.5400      49.922260       0.00000
  37     2.292      106.6173        0.0065      156.5330      156.5395      49.922260      -0.00000
  36     2.964      106.6166        0.0085      156.5303      156.5388      49.922260       0.00000
  35     3.853      106.6157        0.0111      156.5268      156.5380      49.922260       0.00000
  34     5.035      106.6145        0.0146      156.5222      156.5368      49.922260      -0.00000
  33     6.613      106.6129        0.0192      156.5160      156.5352      49.922260      -0.00000
  32     8.786      106.6108        0.0254      156.5076      156.5331      49.922260       0.00000
  31     11.80      106.6078        0.0344      156.4957      156.5300      49.922260       0.00000
  30     15.07      106.6045        0.0440      156.4828      156.5268      49.922260       0.00000
  29     18.79      106.6008        0.0548      156.4682      156.5231      49.922260      -0.00000
  28     23.16      106.5965        0.0675      156.4512      156.5187      49.922260      -0.00000
  27     28.12      106.5915        0.0821      156.4317      156.5138      49.922260       0.00000
  26     33.73      106.5859        0.0983      156.4099      156.5082      49.922260       0.00000
  25     40.54      106.5792        0.1181      156.3834      156.5015      49.922260      -0.00000
  24     48.69      106.5711        0.1418      156.3515      156.4934      49.922260      -0.00000
  23     57.69      106.5622        0.1680      156.3164      156.4844      49.922260       0.00000
  22     68.43      106.5515        0.1992      156.2746      156.4738      49.922260       0.00000
  21     81.20      106.5388        0.2365      156.2246      156.4611      49.922260      -0.00000
  20     96.49      106.5236        0.2810      156.1649      156.4459      49.922260       0.00000
  19     114.6      106.5058        0.3338      156.0879      156.4218      49.915985       0.00293
  18     136.5      106.4846        0.3967      155.9962      156.3928      49.908206       0.00299
  17     162.9      106.4594        0.4717      155.8831      156.3547      49.895309       0.00412
  16     196.4      106.4268        0.5692      155.7199      156.2891      49.862310       0.00831
  15     218.7      106.4058        0.6333      155.5733      156.2066      49.800795       0.02335
  14     243.0      106.3842        0.7030      155.3367      156.0397      49.655518       0.05039
  13     269.0      106.3635        0.7784      154.9514      155.7298      49.366292       0.09382
  12     297.5      106.3467        0.8596      154.3896      155.2492      48.902502       0.13756
  11     328.5      106.3356        0.9472      153.7151      154.6623      48.326733       0.15655
  10     361.9      106.3338        1.0412      152.9087      153.9499      47.616115       0.17979
   9     398.1      106.3478        1.1417      151.8986      153.0404      46.692505       0.21518
   8     437.6      106.3886        1.2487      150.6031      151.8519      45.463298       0.26281
   7     480.5      106.4693        1.3619      149.0014      150.3633      43.893988       0.30821
   6     533.0      106.6390        1.4988      146.7375      148.2363      41.597311       0.36946
   5     589.8      106.9534        1.6423      143.8730      145.5153      38.561885       0.45056
   4     651.6      107.5745        1.7894      140.0955      141.8849      34.310459       0.58139
   3     718.7      108.7449        1.9387      135.5278      137.4665      28.721561       0.70237
   2     792.3      111.0827        2.0863      130.0690      132.1553      21.072641       0.87725
   1     891.5       41.6888       56.5140        0.0182       56.5322      14.843423       0.53008
   0    1013.0       43.0428       54.1949        0.0168       54.2117      11.168888       0.25514



 Wavenumbers: 12850. - 16000. cm-1, ATM      1
 LEVEL PRESSURE   UPWARD FLUX   DIFDOWN FLUX  DIRDOWN FLUX  DOWNWARD FLUX   NET FLUX    HEATING RATE
          mb          W/m2          W/m2          W/m2        W/m2          W/m2       degree/day
  51    .06700       79.2819        0.0000       98.0872       98.0872      18.805302       0.00000
  50    .07753       79.2819        0.0001       98.0864       98.0864      18.804509       0.63512
  49    .09103       79.2819        0.0002       98.0853       98.0855      18.803514       0.62213
  48    0.1069       79.2819        0.0003       98.0841       98.0843      18.802370       0.60890
  47    0.1255       79.2820        0.0004       98.0826       98.0830      18.801055       0.59598
  46    0.1487       79.2820        0.0005       98.0809       98.0814      18.799396       0.60494
  45    0.1794       79.2820        0.0007       98.0784       98.0792      18.797137       0.61998
  44    0.2165       79.2821        0.0010       98.0756       98.0766      18.794480       0.60454
  43    0.2613       79.2822        0.0013       98.0723       98.0736      18.791353       0.58935
  42    0.3336       79.2825        0.0017       98.0670       98.0687      18.786248       0.59528
  41    0.4307       79.2829        0.0023       98.0602       98.0625      18.779641       0.57442
  40    0.5894       79.2837        0.0034       98.0496       98.0530      18.769221       0.55410
  39     1.339       79.2907        0.0082       98.0043       98.0125      18.721860       0.53320
  38     1.782       79.2970        0.0110       97.9793       97.9903      18.693332       0.54314
  37     2.292       79.3063        0.0143       97.9498       97.9641      18.657735       0.58958
  36     2.964       79.3218        0.0186       97.9088       97.9274      18.605595       0.65451
  35     3.853       79.3467        0.0243       97.8503       97.8746      18.527874       0.73758
  34     5.035       79.3842        0.0318       97.7680       97.7998      18.415554       0.80237
  33     6.613       79.4366        0.0419       97.6562       97.6981      18.261463       0.82377
  32     8.786       79.5048        0.0554       97.5107       97.5661      18.061316       0.77730
  31     11.80       79.5936        0.0748       97.3179       97.3926      17.799049       0.73426
  30     15.07       79.6788        0.0956       97.1283       97.2239      17.545094       0.65566
  29     18.79       79.7659        0.1190       96.9300       97.0490      17.283137       0.59394
  28     23.16       79.8571        0.1464       96.7166       96.8629      17.005862       0.53616
  27     28.12       79.9490        0.1777       96.4935       96.6711      16.722096       0.48238
  26     33.73       80.0343        0.2127       96.2731       96.4857      16.451411       0.40698
  25     40.54       80.1170        0.2549       96.0408       96.2957      16.178744       0.33827
  24     48.69       80.1968        0.3059       95.7946       96.1005      15.903702       0.28462
  23     57.69       80.2653        0.3620       95.5573       95.9192      15.653898       0.23415
  22     68.43       80.3262        0.4287       95.3106       95.7393      15.413098       0.18930
  21     81.20       80.3704        0.5084       95.0643       95.5727      15.202332       0.13927
  20     96.49       80.3968        0.6034       94.8153       95.4187      15.021917       0.09958
  19     114.6       80.4264        0.7173       94.5411       95.2583      14.831935       0.08871
  18     136.5       80.4504        0.8523       94.2320       95.0843      14.633934       0.07614
  17     162.9       80.4688        1.0130       93.8753       94.8883      14.419533       0.06853
  16     196.4       80.4710        1.2215       93.4347       94.6561      14.185108       0.05901
  15     218.7       80.4649        1.3584       93.1513       94.5096      14.044746       0.05329
  14     243.0       80.4553        1.5072       92.8439       94.3511      13.895840       0.05165
  13     269.0       80.4422        1.6684       92.5111       94.1795      13.737291       0.05143
  12     297.5       80.4267        1.8426       92.1495       93.9921      13.565468       0.05096
  11     328.5       80.4108        2.0309       91.7554       93.7863      13.375533       0.05164
  10     361.9       80.3958        2.2336       91.3262       93.5598      13.163940       0.05354
   9     398.1       80.3838        2.4516       90.8575       93.3091      12.925318       0.05559
   8     437.6       80.3785        2.6856       90.3418       93.0274      12.648900       0.05910
   7     480.5       80.3837        2.9362       89.7728       92.7090      12.325286       0.06356
   6     533.0       80.4110        3.2443       89.0428       92.2871      11.876141       0.07225
   5     589.8       80.4784        3.5752       88.2038       91.7790      11.300595       0.08543
   4     651.6       80.6280        3.9286       87.1979       91.1265      10.498527       0.10968
   3     718.7       80.8928        4.3029       86.0161       90.3190       9.426263       0.13475
   2     792.3       81.3707        4.6944       84.5970       89.2914       7.920651       0.17268
   1     891.5       47.4484       53.8417        0.0123       53.8540       6.405660       0.12892
   0    1013.0       48.0785       53.0145        0.0119       53.0263       4.947785       0.10123



 Wavenumbers: 16000. - 22650. cm-1, ATM      1
 LEVEL PRESSURE   UPWARD FLUX   DIFDOWN FLUX  DIRDOWN FLUX  DOWNWARD FLUX   NET FLUX    HEATING RATE
          mb          W/m2          W/m2          W/m2        W/m2          W/m2       degree/day
  51    .06700      140.6931        0.0000      156.3892      156.3892      15.696113       0.00000
  50    .07753      140.6931        0.0004      156.3887      156.3891      15.695966       0.11824
  49    .09103      140.6931        0.0009      156.3879      156.3888      15.695751       0.13411
  48    0.1069      140.6931        0.0015      156.3871      156.3885      15.695464       0.15293
  47    0.1255      140.6931        0.0021      156.3861      156.3882      15.695079       0.17432
  46    0.1487      140.6932        0.0030      156.3847      156.3877      15.694513       0.20656
  45    0.1794      140.6933        0.0041      156.3828      156.3869      15.693627       0.24321
  44    0.2165      140.6935        0.0054      156.3805      156.3859      15.692425       0.27334
  43    0.2613      140.6938        0.0070      156.3776      156.3846      15.690795       0.30730
  42    0.3336      140.6946        0.0096      156.3726      156.3823      15.687695       0.36138
  41    0.4307      140.6958        0.0131      156.3657      156.3789      15.683023       0.40623
  40    0.5894      140.6984        0.0188      156.3537      156.3725      15.674113       0.47385
  39     1.339      140.7209        0.0458      156.2834      156.3292      15.608281       0.74115
  38     1.782      140.7418        0.0616      156.2324      156.2940      15.552200       1.06769
  37     2.292      140.7730        0.0800      156.1641      156.2441      15.471022       1.34452
  36     2.964      140.8250        0.1040      156.0605      156.1645      15.339513       1.65083
  35     3.853      140.9090        0.1358      155.9041      156.0398      15.130841       1.98034
  34     5.035      141.0357        0.1779      155.6774      155.8552      14.819518       2.22396
  33     6.613      141.2128        0.2341      155.3656      155.5997      14.386872       2.31293
  32     8.786      141.4435        0.3098      154.9577      155.2674      13.823902       2.18637
  31     11.80      141.7438        0.4179      154.4153      154.8331      13.089374       2.05645
  30     15.07      142.0313        0.5337      153.8804      154.4141      12.382785       1.82428
  29     18.79      142.3249        0.6645      153.3191      153.9835      11.658599       1.64195
  28     23.16      142.6318        0.8169      152.7126      153.5294      10.897670       1.47139
  27     28.12      142.9405        0.9909      152.0755      153.0664      10.125964       1.31185
  26     33.73      143.2254        1.1855      151.4409      152.6265       9.401104       1.08985
  25     40.54      143.4994        1.4204      150.7637      152.1841       8.684685       0.88880
  24     48.69      143.7618        1.7033      150.0338      151.7372       7.975422       0.73398
  23     57.69      143.9840        2.0137      149.3151      151.3288       7.344820       0.59109
  22     68.43      144.1777        2.3829      148.5476      150.9306       6.752854       0.46536
  21     81.20      144.3111        2.8226      147.7517      150.5743       6.263162       0.32358
  20     96.49      144.3797        3.3459      146.9127      150.2586       5.878880       0.21210
  19     114.6      144.4147        3.9655      145.9763      149.9418       5.527132       0.16424
  18     136.5      144.4248        4.6971      144.9088      149.6059       5.181106       0.13306
  17     162.9      144.4083        5.5642      143.6785      149.2428       4.834491       0.11079
  16     196.4      144.3253        6.6830      142.1651      148.8481       4.522747       0.07847
  15     218.7      144.2483        7.4142      141.2033      148.6175       4.369163       0.05831
  14     243.0      144.1543        8.2055      140.1753      148.3808       4.226505       0.04948
  13     269.0      144.0417        9.0592      139.0797      148.1389       4.097168       0.04196
  12     297.5      143.9098        9.9773      137.9141      147.8913       3.981511       0.03430
  11     328.5      143.7628       10.9641      136.6676      147.6317       3.868889       0.03062
  10     361.9      143.6003       12.0205      135.3392      147.3597       3.759424       0.02770
   9     398.1      143.4219       13.1506      133.9235      147.0741       3.652187       0.02498
   8     437.6      143.2286       14.3563      132.4163      146.7726       3.543980       0.02314
   7     480.5      143.0201       15.6399      130.8147      146.4546       3.434456       0.02151
   6     533.0      142.7639       17.2076      128.8599      146.0675       3.303559       0.02106
   5     589.8      142.4924       18.8826      126.7679      145.6505       3.158124       0.02159
   4     651.6      142.2124       20.6664      124.5274      145.1939       2.981463       0.02416
   3     718.7      141.9309       22.5609      122.1285      144.6894       2.758504       0.02802
   2     792.3      141.6659       24.5639      119.5548      144.1187       2.452753       0.03507
   1     891.5      116.0823      118.1063        0.0173      118.1236       2.041304       0.03501
   0    1013.0      116.3275      117.8072        0.0167      117.8238       1.496333       0.03784



 Wavenumbers: 22650. - 29000. cm-1, ATM      1
 LEVEL PRESSURE   UPWARD FLUX   DIFDOWN FLUX  DIRDOWN FLUX  DOWNWARD FLUX   NET FLUX    HEATING RATE
          mb          W/m2          W/m2          W/m2        W/m2          W/m2       degree/day
  51    .06700       58.4102        0.0000       59.0156       59.0156       0.605449       0.00000
  50    .07753       58.4101        0.0005       59.0151       59.0155       0.605449       0.00000
  49    .09103       58.4100        0.0010       59.0144       59.0154       0.605449      -0.00000
  48    0.1069       58.4098        0.0017       59.0136       59.0153       0.605449       0.00000
  47    0.1255       58.4097        0.0025       59.0127       59.0151       0.605449       0.00000
  46    0.1487       58.4095        0.0034       59.0115       59.0149       0.605449      -0.00000
  45    0.1794       58.4092        0.0048       59.0099       59.0147       0.605449       0.00000
  44    0.2165       58.4089        0.0063       59.0080       59.0144       0.605449      -0.00000
  43    0.2613       58.4086        0.0082       59.0058       59.0140       0.605449       0.00000
  42    0.3336       58.4080        0.0113       59.0022       59.0134       0.605449       0.00000
  41    0.4307       58.4072        0.0153       58.9973       59.0126       0.605449       0.00000
  40    0.5894       58.4059        0.0220       58.9894       59.0113       0.605449      -0.00000
  39     1.339       58.3998        0.0534       58.9518       59.0052       0.605449       0.00000
  38     1.782       58.3962        0.0719       58.9297       59.0016       0.605449      -0.00000
  37     2.292       58.3920        0.0933       58.9042       58.9974       0.605449       0.00000
  36     2.964       58.3865        0.1213       58.8706       58.9920       0.605449       0.00000
  35     3.853       58.3793        0.1584       58.8264       58.9848       0.605449      -0.00000
  34     5.035       58.3697        0.2076       58.7676       58.9752       0.605449       0.00000
  33     6.613       58.3569        0.2733       58.6891       58.9624       0.605449       0.00000
  32     8.786       58.3397        0.3617       58.5834       58.9452       0.605449      -0.00000
  31     11.80       58.3151        0.4881       58.4324       58.9205       0.605449       0.00000
  30     15.07       58.2887        0.6235       58.2706       58.8942       0.605449      -0.00000
  29     18.79       58.2590        0.7762       58.0882       58.8644       0.605449       0.00000
  28     23.16       58.2243        0.9541       57.8757       58.8298       0.605449       0.00000
  27     28.12       58.1848        1.1569       57.6333       58.7902       0.605449       0.00000
  26     33.73       58.1407        1.3831       57.3631       58.7462       0.605449       0.00000
  25     40.54       58.0877        1.6552       57.0379       58.6931       0.605449      -0.00000
  24     48.69       58.0240        1.9816       56.6479       58.6295       0.605449      -0.00000
  23     57.69       57.9546        2.3379       56.2221       58.5600       0.605449       0.00000
  22     68.43       57.8724        2.7593       55.7186       58.4778       0.605449      -0.00000
  21     81.20       57.7753        3.2568       55.1239       58.3808       0.605449       0.00000
  20     96.49       57.6608        3.8435       54.4228       58.2663       0.605449       0.00000
  19     114.6       57.5266        4.5310       53.6010       58.1320       0.605449       0.00000
  18     136.5       57.3698        5.3335       52.6418       57.9753       0.605449      -0.00000
  17     162.9       57.1865        6.2716       51.5203       57.7919       0.605449      -0.00000
  16     196.4       56.9540        7.4600       50.0994       57.5594       0.605449       0.00000
  15     218.7       56.8045        8.2236       49.1863       57.4099       0.605449       0.00000
  14     243.0       56.6447        9.0389       48.2113       57.2502       0.605449      -0.00000
  13     269.0       56.4749        9.9054       47.1749       57.0803       0.605449      -0.00000
  12     297.5       56.2950       10.8222       46.0783       56.9005       0.605449       0.00000
  11     328.5       56.1048       11.7907       44.9195       56.7103       0.605449      -0.00000
  10     361.9       55.9048       12.8084       43.7018       56.5102       0.605449      -0.00000
   9     398.1       55.6948       13.8752       42.4250       56.3003       0.605449       0.00000
   8     437.6       55.4754       14.9892       41.0916       56.0808       0.605449      -0.00000
   7     480.5       55.2468       16.1478       39.7045       55.8522       0.605449       0.00000
   6     533.0       54.9745       17.5257       38.0543       55.5799       0.605449       0.00000
   5     589.8       54.6917       18.9541       36.3431       55.2971       0.605449      -0.00000
   4     651.6       54.3997       20.4256       34.5795       55.0051       0.605449       0.00000
   3     718.7       54.0994       21.9347       32.7702       54.7049       0.605449       0.00000
   2     792.3       53.7926       23.4725       30.9256       54.3981       0.605449       0.00000
   1     891.5       47.0285       47.6289        0.0043       47.6331       0.604665       0.00007
   0    1013.0       47.0073       47.6081        0.0039       47.6120       0.604665       0.00000



 Wavenumbers: 29000. - 38000. cm-1, ATM      1
 LEVEL PRESSURE   UPWARD FLUX   DIFDOWN FLUX  DIRDOWN FLUX  DOWNWARD FLUX   NET FLUX    HEATING RATE
          mb          W/m2          W/m2          W/m2        W/m2          W/m2       degree/day
  51    .06700        8.7445        0.0000       20.8114       20.8114      12.066827       0.00000
  50    .07753        8.7443        0.0003       20.8070       20.8074      12.063020       3.05154
  49    .09103        8.7441        0.0007       20.8009       20.8016      12.057483       3.46083
  48    0.1069        8.7439        0.0012       20.7928       20.7939      12.050073       3.94427
  47    0.1255        8.7436        0.0017       20.7820       20.7837      12.040168       4.49032
  46    0.1487        8.7432        0.0024       20.7665       20.7688      12.025605       5.30842
  45    0.1794        8.7428        0.0033       20.7424       20.7457      12.002940       6.22201
  44    0.2165        8.7423        0.0044       20.7103       20.7147      11.972418       6.94337
  43    0.2613        8.7417        0.0056       20.6675       20.6731      11.931423       7.72729
  42    0.3336        8.7408        0.0077       20.5880       20.5956      11.854863       8.92621
  41    0.4307        8.7397        0.0104       20.4722       20.4826      11.742911       9.73397
  40    0.5894        8.7381        0.0147       20.2637       20.2784      11.540228      10.77840
  39     1.339        8.7347        0.0331       19.0984       19.1315      10.396760      12.87338
  38     1.782        8.7352        0.0427       18.4394       18.4821       9.746843      12.37337
  37     2.292        8.7379        0.0530       17.7714       17.8244       9.086508      10.93686
  36     2.964        8.7444        0.0657       17.0421       17.1078       8.363400       9.07719
  35     3.853        8.7572        0.0816       16.2678       16.3494       7.592246       7.31840
  34     5.035        8.7783        0.1017       15.4803       15.5820       6.803787       5.63242
  33     6.613        8.8089        0.1275       14.7157       14.8432       6.034251       4.11394
  32     8.786        8.8495        0.1613       13.9936       14.1548       5.305362       2.83074
  31     11.80        8.9024        0.2083       13.2835       13.4918       4.589471       2.00427
  30     15.07        8.9534        0.2571       12.7394       12.9964       4.043061       1.41072
  29     18.79        9.0061        0.3111       12.2666       12.5777       3.571673       1.06878
  28     23.16        9.0620        0.3726       11.8300       12.2026       3.140587       0.83358
  27     28.12        9.1194        0.4415       11.4279       11.8693       2.749938       0.66408
  26     33.73        9.1723        0.5173       11.0695       11.5868       2.414463       0.50440
  25     40.54        9.2226        0.6080       10.7209       11.3289       2.106315       0.38229
  24     48.69        9.2700        0.7156       10.3742       11.0898       1.819765       0.29653
  23     57.69        9.3089        0.8320       10.0549       10.8869       1.577999       0.22662
  22     68.43        9.3404        0.9686        9.7327       10.7013       1.360943       0.17063
  21     81.20        9.3554        1.1299        9.4134       10.5433       1.187852       0.11438
  20     96.49        9.3521        1.3194        9.0887       10.4082       1.056081       0.07273
  19     114.6        9.3385        1.5385        8.7388       10.2773       0.938781       0.05477
  18     136.5        9.3176        1.7889        8.3549       10.1438       0.826221       0.04328
  17     162.9        9.2895        2.0744        7.9311       10.0055       0.716002       0.03523
  16     196.4        9.2423        2.4279        7.4333        9.8612       0.618980       0.02442
  15     218.7        9.2082        2.6503        7.1295        9.7799       0.571656       0.01797
  14     243.0        9.1709        2.8828        6.8161        9.6989       0.527955       0.01516
  13     269.0        9.1302        3.1246        6.4943        9.6189       0.488712       0.01273
  12     297.5        9.0860        3.3744        6.1657        9.5401       0.454116       0.01026
  11     328.5        9.0399        3.6315        5.8295        9.4609       0.420991       0.00901
  10     361.9        8.9923        3.8932        5.4886        9.3818       0.389486       0.00797
   9     398.1        8.9434        4.1590        5.1440        9.3030       0.359626       0.00696
   8     437.6        8.8936        4.4275        4.7969        9.2244       0.330839       0.00615
   7     480.5        8.8432        4.6964        4.4504        9.1468       0.303512       0.00537
   6     533.0        8.7855        5.0030        4.0563        9.0592       0.273718       0.00479
   5     589.8        8.7286        5.3053        3.6682        8.9735       0.244868       0.00428
   4     651.6        8.6734        5.5995        3.2905        8.8900       0.216638       0.00386
   3     718.7        8.6204        5.8842        2.9252        8.8094       0.188984       0.00348
   2     792.3        8.5704        6.1559        2.5764        8.7324       0.161912       0.00310
   1     891.5        7.7265        7.8576        0.0003        7.8580       0.131450       0.00259
   0    1013.0        7.7338        7.8330        0.0003        7.8333       0.099482       0.00222



 Wavenumbers: 38000. - 50000. cm-1, ATM      1
 LEVEL PRESSURE   UPWARD FLUX   DIFDOWN FLUX  DIRDOWN FLUX  DOWNWARD FLUX   NET FLUX    HEATING RATE
          mb          W/m2          W/m2          W/m2        W/m2          W/m2       degree/day
  51    .06700        0.0061        0.0000        1.2836        1.2836       1.277518       0.00000
  50    .07753        0.0061        0.0001        1.2812        1.2812       1.275183       1.87150
  49    .09103        0.0060        0.0002        1.2777        1.2778       1.271851       2.08247
  48    0.1069        0.0059        0.0002        1.2731        1.2734       1.267473       2.33059
  47    0.1255        0.0058        0.0004        1.2672        1.2675       1.261717       2.60908
  46    0.1487        0.0057        0.0005        1.2586        1.2591       1.253391       3.03499
  45    0.1794        0.0055        0.0007        1.2455        1.2462       1.240623       3.50520
  44    0.2165        0.0054        0.0009        1.2282        1.2291       1.223697       3.85037
  43    0.2613        0.0052        0.0011        1.2054        1.2065       1.201348       4.21261
  42    0.3336        0.0049        0.0015        1.1639        1.1654       1.160524       4.75970
  41    0.4307        0.0045        0.0020        1.1051        1.1070       1.102565       5.03943
  40    0.5894        0.0039        0.0026        1.0039        1.0064       1.002524       5.32007
  39     1.339        0.0022        0.0035        0.5438        0.5473       0.545104       5.14971
  38     1.782        0.0016        0.0032        0.3635        0.3666       0.365006       3.42879
  37     2.292        0.0012        0.0027        0.2356        0.2383       0.237058       2.11916
  36     2.964        0.0009        0.0022        0.1455        0.1477       0.146786       1.13318
  35     3.853        0.0006        0.0017        0.0858        0.0875       0.086906       0.56828
  34     5.035        0.0004        0.0013        0.0488        0.0501       0.049701       0.26578
  33     6.613        0.0003        0.0010        0.0273        0.0282       0.027974       0.11615
  32     8.786        0.0002        0.0007        0.0144        0.0151       0.014928       0.05067
  31     11.80        0.0001        0.0004        0.0065        0.0070       0.006903       0.02247
  30     15.07        0.0000        0.0003        0.0031        0.0034       0.003329       0.00923
  29     18.79        0.0000        0.0002        0.0014        0.0016       0.001583       0.00396
  28     23.16        0.0000        0.0001        0.0006        0.0007       0.000720       0.00167
  27     28.12        0.0000        0.0001        0.0003        0.0003       0.000317       0.00069
  26     33.73        0.0000        0.0000        0.0001        0.0001       0.000140       0.00027
  25     40.54        0.0000        0.0000        0.0000        0.0001       0.000057       0.00010
  24     48.69        0.0000        0.0000        0.0000        0.0000       0.000021       0.00004
  23     57.69        0.0000        0.0000        0.0000        0.0000       0.000008       0.00001
  22     68.43        0.0000        0.0000        0.0000        0.0000       0.000003       0.00000
  21     81.20        0.0000        0.0000        0.0000        0.0000       0.000001       0.00000
  20     96.49        0.0000        0.0000        0.0000        0.0000       0.000000       0.00000
  19     114.6        0.0000        0.0000        0.0000        0.0000       0.000000       0.00000
  18     136.5        0.0000        0.0000        0.0000        0.0000       0.000000       0.00000
  17     162.9        0.0000        0.0000        0.0000        0.0000       0.000000       0.00000
  16     196.4        0.0000        0.0000        0.0000        0.0000       0.000000       0.00000
  15     218.7        0.0000        0.0000        0.0000        0.0000       0.000000       0.00000
  14     243.0        0.0000        0.0000        0.0000        0.0000       0.000000       0.00000
  13     269.0        0.0000        0.0000        0.0000        0.0000       0.000000       0.00000
  12     297.5        0.0000        0.0000        0.0000        0.0000       0.000000       0.00000
  11     328.5        0.0000        0.0000        0.0000        0.0000       0.000000       0.00000
  10     361.9        0.0000        0.0000        0.0000        0.0000       0.000000       0.00000
   9     398.1        0.0000        0.0000        0.0000        0.0000       0.000000       0.00000
   8     437.6        0.0000        0.0000        0.0000        0.0000       0.000000       0.00000
   7     480.5        0.0000        0.0000        0.0000        0.0000       0.000000       0.00000
   6     533.0        0.0000        0.0000        0.0000        0.0000       0.000000       0.00000
   5     589.8        0.0000        0.0000        0.0000        0.0000       0.000000       0.00000
   4     651.6        0.0000        0.0000        0.0000        0.0000       0.000000       0.00000
   3     718.7        0.0000        0.0000        0.0000        0.0000       0.000000       0.00000
   2     792.3        0.0000        0.0000        0.0000        0.0000       0.000000       0.00000
   1     891.5        0.0000        0.0000        0.0000        0.0000       0.000000       0.00000
   0    1013.0        0.0000        0.0000        0.0000        0.0000       0.000000       0.00000



 Wavenumbers:   820. -  2600. cm-1, ATM      1
 LEVEL PRESSURE   UPWARD FLUX   DIFDOWN FLUX  DIRDOWN FLUX  DOWNWARD FLUX   NET FLUX    HEATING RATE
          mb          W/m2          W/m2          W/m2        W/m2          W/m2       degree/day
  51    .06700        1.5004        0.0000        6.0047        6.0047       4.504204       0.00000
  50    .07753        1.5004        0.0000        6.0008        6.0008       4.500351       3.08825
  49    .09103        1.5004        0.0000        5.9999        5.9999       4.499465       0.55361
  48    0.1069        1.5004        0.0000        5.9989        5.9989       4.498476       0.52656
  47    0.1255        1.5004        0.0000        5.9978        5.9978       4.497358       0.50653
  46    0.1487        1.5004        0.0000        5.9964        5.9964       4.496002       0.49461
  45    0.1794        1.5004        0.0000        5.9947        5.9947       4.494282       0.47204
  44    0.2165        1.5004        0.0000        5.9929        5.9929       4.492439       0.41914
  43    0.2613        1.5004        0.0000        5.9909        5.9909       4.490480       0.36937
  42    0.3336        1.5004        0.0000        5.9880        5.9880       4.487601       0.33561
  41    0.4307        1.5004        0.0000        5.9846        5.9846       4.484132       0.30170
  40    0.5894        1.5005        0.0000        5.9791        5.9791       4.478625       0.29281
  39     1.339        1.5005        0.0000        5.9536        5.9536       4.453134       0.28699
  38     1.782        1.5005        0.0000        5.9395        5.9395       4.438993       0.26922
  37     2.292        1.5005        0.0000        5.9237        5.9237       4.423238       0.26093
  36     2.964        1.5005        0.0000        5.9039        5.9039       4.403460       0.24827
  35     3.853        1.5005        0.0000        5.8793        5.8793       4.378799       0.23404
  34     5.035        1.5005        0.0000        5.8487        5.8487       4.348229       0.21838
  33     6.613        1.5005        0.0000        5.8108        5.8108       4.310254       0.20301
  32     8.786        1.5005        0.0000        5.7631        5.7631       4.262618       0.18500
  31     11.80        1.5006        0.0000        5.7039        5.7039       4.203342       0.16595
  30     15.07        1.5006        0.0000        5.6539        5.6539       4.153282       0.12925
  29     18.79        1.5006        0.0000        5.6127        5.6127       4.112121       0.09332
  28     23.16        1.5007        0.0000        5.5794        5.5794       4.078715       0.06460
  27     28.12        1.5007        0.0000        5.5518        5.5518       4.051114       0.04692
  26     33.73        1.5007        0.0000        5.5268        5.5268       4.026020       0.03773
  25     40.54        1.5008        0.0000        5.4993        5.4993       3.998526       0.03411
  24     48.69        1.5009        0.0000        5.4678        5.4678       3.966923       0.03270
  23     57.69        1.5010        0.0000        5.4340        5.4340       3.933064       0.03174
  22     68.43        1.5010        0.0000        5.3947        5.3948       3.893704       0.03094
  21     81.20        1.5012        0.0000        5.3497        5.3497       3.848564       0.02983
  20     96.49        1.5013        0.0000        5.2982        5.2982       3.796918       0.02851
  19     114.6        1.5015        0.0000        5.2389        5.2389       3.737431       0.02778
  18     136.5        1.5017        0.0000        5.1716        5.1717       3.669966       0.02594
  17     162.9        1.5020        0.0000        5.0890        5.0891       3.587038       0.02651
  16     196.4        1.5026        0.0000        4.9668        4.9668       3.464282       0.03090
  15     218.7        1.5031        0.0000        4.8585        4.8585       3.355399       0.04134
  14     243.0        1.5039        0.0000        4.7078        4.7079       3.203942       0.05253
  13     269.0        1.5052        0.0000        4.5343        4.5343       3.029115       0.05671
  12     297.5        1.5072        0.0000        4.3419        4.3420       2.834797       0.05763
  11     328.5        1.5099        0.0000        4.1281        4.1281       2.618295       0.05887
  10     361.9        1.5134        0.0000        3.8786        3.8787       2.365267       0.06402
   9     398.1        1.5180        0.0000        3.6159        3.6160       2.097929       0.06228
   8     437.6        1.5240        0.0000        3.3759        3.3759       1.851889       0.05260
   7     480.5        1.5313        0.0000        3.1957        3.1958       1.664456       0.03681
   6     533.0        1.5425        0.0000        3.0467        3.0467       1.504237       0.02577
   5     589.8        1.5589        0.0001        2.9023        2.9023       1.343404       0.02387
   4     651.6        1.5876        0.0001        2.7183        2.7184       1.130819       0.02907
   3     718.7        1.6373        0.0001        2.5058        2.5059       0.868608       0.03295
   2     792.3        1.7337        0.0001        2.2756        2.2757       0.542026       0.03746
   1     891.5        0.3484        0.6314        0.0003        0.6317       0.283301       0.02202
   0    1013.0        0.4147        0.5221        0.0002        0.5223       0.107612       0.01220

  Modules and versions used in this calculation:

       rrtmg_sw.1col.f90:  $Revision$                    rrtmg_sw_init.f90:  $Revision$        
     rrtmgsw_cldprop.f90:  $Revision$                  rrtmgsw_cldprmc.f90:  NOT USED          
     rrtmg_sw_reftra.f90:  $Revision$                  rrtmg_sw_spcvrt.f90:  NOT USED          
     rrtmg_sw_spcvmc.f90:  NOT USED                    rrtmgsw_setcoef.f90:  NOT USED          
     rrtmg_sw_taumol.f90:  $Revision$                  rrtmg_sw_vrtqdr.f90:  NOT USED          
                rrtatm.f:  NOT USED                             util_xxx.f:  NOT USED          
                 extra.f:  NOT USED                       rrtmg_sw_k_g.f90:  $Revision$        

