

 Wavenumbers:   820. - 50000. cm-1, ATM      1
 LEVEL PRESSURE   UPWARD FLUX   DIFDOWN FLUX  DIRDOWN FLUX  DOWNWARD FLUX   NET FLUX    HEATING RATE
          mb          W/m2          W/m2          W/m2        W/m2          W/m2       degree/day
  51    .06700      475.8317        0.0000      617.8126      617.8126     141.980848       0.00000
  50    .07753      475.8314        0.0014      617.7947      617.7961     141.964702      12.94120
  49    .09103      475.8309        0.0031      617.7778      617.7808     141.949884       9.26150
  48    0.1069      475.8305        0.0050      617.7581      617.7631     141.932612       9.19379
  47    0.1255      475.8300        0.0073      617.7340      617.7412     141.911255       9.68256
  46    0.1487      475.8294        0.0101      617.7009      617.7110     141.881550      10.82744
  45    0.1794      475.8288        0.0140      617.6521      617.6661     141.837292      12.15006
  44    0.2165      475.8281        0.0185      617.5895      617.6080     141.779934      13.04790
  43    0.2613      475.8275        0.0239      617.5089      617.5328     141.705373      14.05443
  42    0.3336      475.8267        0.0328      617.3641      617.3969     141.570199      15.76002
  41    0.4307      475.8262        0.0445      617.1591      617.2036     141.377443      16.75967
  40    0.5894      475.8264        0.0634      616.8005      616.8639     141.037505      18.07747
  39     1.339      475.8459        0.1488      614.9443      615.0930     139.247160      20.15603
  38     1.782      475.8704        0.1968      613.9670      614.1638     138.293469      18.15673
  37     2.292      475.9106        0.2515      613.0059      613.2574     137.346816      15.67905
  36     2.964      475.9812        0.3226      611.9577      612.2802     136.299068      13.15241
  35     3.853      476.0993        0.4158      610.8024      611.2182     135.118898      11.20003
  34     5.035      476.2807        0.5388      609.5327      610.0715     133.790837       9.48712
  33     6.613      476.5360        0.7021      608.1464      608.8485     132.312524       7.90306
  32     8.786      476.8687        0.9211      606.6250      607.5462     130.677505       6.34982
  31     11.80      477.2999        1.2331      604.8486      606.0817     128.781792       5.30740
  30     15.07      477.7109        1.5659      603.2440      604.8099     127.098979       4.34470
  29     18.79      478.1287        1.9405      601.6511      603.5916     125.462934       3.70942
  28     23.16      478.5630        2.3757      599.9927      602.3684     123.805324       3.20528
  27     28.12      478.9971        2.8711      598.2881      601.1591     122.162049       2.79346
  26     33.73      479.3911        3.4234      596.5951      600.0185     120.627396       2.30739
  25     40.54      479.7603        4.0884      594.7727      598.8611     119.100817       1.89389
  24     48.69      480.1019        4.8864      592.7865      597.6729     117.570993       1.58313
  23     57.69      480.3769        5.7588      590.7959      596.5547     116.177833       1.30588
  22     68.43      480.5955        6.7924      588.6191      595.4115     114.815969       1.07061
  21     81.20      480.7048        8.0179      586.2690      594.2869     113.582101       0.81532
  20     96.49      480.6949        9.4691      583.6961      593.1652     112.470302       0.61363
  19     114.6      480.6251       11.1764      580.7708      591.9472     111.322160       0.53610
  18     136.5      480.4971       13.1758      577.4359      590.6117     110.114643       0.46432
  17     162.9      480.3065       15.5226      573.5624      589.0850     108.778505       0.42708
  16     196.4      479.9712       18.5159      568.5907      587.1066     107.135436       0.41358
  15     218.7      479.7233       20.4516      565.0572      585.5088     105.785503       0.51252
  14     243.0      479.4479       22.5280      560.7495      583.2775     103.829666       0.67835
  13     269.0      479.1481       24.7467      555.3947      580.1414     100.993277       0.92011
  12     297.5      478.8327       27.1084      548.9964      576.1048      97.272115       1.10366
  11     328.5      478.5136       29.6197      542.0895      571.7092      93.195584       1.10840
  10     361.9      478.2026       32.2768      534.6242      566.9010      88.698435       1.13782
   9     398.1      477.9163       35.0845      526.4204      561.5049      83.588551       1.19049
   8     437.6      477.6866       38.0414      517.3907      555.4320      77.745457       1.24929
   7     480.5      477.5485       41.1457      507.7216      548.8672      71.318778       1.26218
   6     533.0      477.5821       44.8787      495.9006      540.7793      63.197222       1.30650
   5     589.8      477.9938       48.7968      483.0788      531.8757      53.881876       1.38270
   4     651.6      479.2285       52.8869      468.6907      521.5776      42.349035       1.57715
   3     718.7      481.9472       57.1409      453.2257      510.3666      28.419497       1.75056
   2     792.3      487.9756       61.5363      436.4928      498.0292      10.053582       2.10636
   1     891.5      134.7112      138.8127        0.0000      138.8127       4.101452       0.50650
   0    1013.0      134.9691      138.4524        0.0000      138.4524       3.483285       0.04292



 Wavenumbers:  2600. -  3250. cm-1, ATM      1
 LEVEL PRESSURE   UPWARD FLUX   DIFDOWN FLUX  DIRDOWN FLUX  DOWNWARD FLUX   NET FLUX    HEATING RATE
          mb          W/m2          W/m2          W/m2        W/m2          W/m2       degree/day
  51    .06700        2.3662        0.0000        5.4450        5.4450       3.078840       0.00000
  50    .07753        2.3662        0.0000        5.4450        5.4450       3.078832       0.00640
  49    .09103        2.3662        0.0000        5.4450        5.4450       3.078822       0.00627
  48    0.1069        2.3662        0.0000        5.4450        5.4450       3.078810       0.00613
  47    0.1255        2.3662        0.0000        5.4450        5.4450       3.078797       0.00599
  46    0.1487        2.3662        0.0000        5.4450        5.4450       3.078780       0.00608
  45    0.1794        2.3662        0.0000        5.4450        5.4450       3.078758       0.00625
  44    0.2165        2.3662        0.0000        5.4449        5.4449       3.078731       0.00612
  43    0.2613        2.3662        0.0000        5.4449        5.4449       3.078699       0.00600
  42    0.3336        2.3662        0.0000        5.4448        5.4448       3.078646       0.00617
  41    0.4307        2.3662        0.0000        5.4448        5.4448       3.078575       0.00620
  40    0.5894        2.3662        0.0000        5.4446        5.4446       3.078455       0.00637
  39     1.339        2.3662        0.0000        5.4439        5.4439       3.077747       0.00797
  38     1.782        2.3662        0.0000        5.4434        5.4434       3.077204       0.01034
  37     2.292        2.3662        0.0000        5.4427        5.4427       3.076488       0.01186
  36     2.964        2.3662        0.0000        5.4416        5.4416       3.075450       0.01304
  35     3.853        2.3662        0.0000        5.4402        5.4402       3.073972       0.01402
  34     5.035        2.3662        0.0000        5.4381        5.4381       3.071916       0.01469
  33     6.613        2.3662        0.0000        5.4353        5.4353       3.069134       0.01487
  32     8.786        2.3662        0.0000        5.4317        5.4317       3.065501       0.01411
  31     11.80        2.3662        0.0000        5.4269        5.4269       3.060718       0.01339
  30     15.07        2.3662        0.0000        5.4224        5.4224       3.056188       0.01170
  29     18.79        2.3662        0.0000        5.4180        5.4180       3.051770       0.01002
  28     23.16        2.3662        0.0000        5.4135        5.4135       3.047276       0.00869
  27     28.12        2.3662        0.0000        5.4088        5.4088       3.042616       0.00792
  26     33.73        2.3662        0.0000        5.4036        5.4036       3.037359       0.00790
  25     40.54        2.3663        0.0000        5.3966        5.3967       3.030391       0.00864
  24     48.69        2.3663        0.0000        5.3872        5.3872       3.020874       0.00985
  23     57.69        2.3664        0.0000        5.3754        5.3754       3.009035       0.01110
  22     68.43        2.3665        0.0000        5.3599        5.3599       2.993468       0.01224
  21     81.20        2.3666        0.0000        5.3401        5.3401       2.973521       0.01318
  20     96.49        2.3667        0.0000        5.3155        5.3155       2.948794       0.01365
  19     114.6        2.3670        0.0001        5.2853        5.2854       2.918377       0.01420
  18     136.5        2.3673        0.0001        5.2504        5.2505       2.883161       0.01354
  17     162.9        2.3678        0.0001        5.2111        5.2112       2.843373       0.01272
  16     196.4        2.3686        0.0001        5.1640        5.1641       2.795544       0.01204
  15     218.7        2.3694        0.0001        5.1331        5.1332       2.763850       0.01203
  14     243.0        2.3706        0.0001        5.0962        5.0963       2.725679       0.01324
  13     269.0        2.3726        0.0001        5.0511        5.0512       2.678576       0.01528
  12     297.5        2.3757        0.0001        4.9956        4.9957       2.620076       0.01735
  11     328.5        2.3799        0.0001        4.9304        4.9305       2.550613       0.01889
  10     361.9        2.3858        0.0002        4.8511        4.8513       2.465495       0.02154
   9     398.1        2.3939        0.0002        4.7507        4.7509       2.356959       0.02529
   8     437.6        2.4053        0.0002        4.6220        4.6222       2.216953       0.02993
   7     480.5        2.4212        0.0002        4.4625        4.4627       2.041519       0.03445
   6     533.0        2.4473        0.0002        4.2460        4.2463       1.798983       0.03902
   5     589.8        2.4875        0.0002        3.9954        3.9956       1.508081       0.04318
   4     651.6        2.5551        0.0002        3.7089        3.7091       1.154032       0.04842
   3     718.7        2.6691        0.0002        3.4018        3.4021       0.732978       0.05291
   2     792.3        2.8833        0.0002        3.0564        3.0567       0.173419       0.06418
   1     891.5        0.0001        0.0168        0.0000        0.0168       0.016645       0.01334
   0    1013.0        0.0002        0.0155        0.0000        0.0155       0.015308       0.00009



 Wavenumbers:  3250. -  4000. cm-1, ATM      1
 LEVEL PRESSURE   UPWARD FLUX   DIFDOWN FLUX  DIRDOWN FLUX  DOWNWARD FLUX   NET FLUX    HEATING RATE
          mb          W/m2          W/m2          W/m2        W/m2          W/m2       degree/day
  51    .06700        0.1079        0.0000        9.1795        9.1795       9.071665       0.00000
  50    .07753        0.1079        0.0000        9.1747        9.1747       9.066823       3.88148
  49    .09103        0.1079        0.0000        9.1713        9.1713       9.063435       2.11747
  48    0.1069        0.1079        0.0000        9.1688        9.1688       9.060910       1.34402
  47    0.1255        0.1079        0.0000        9.1665        9.1665       9.058651       1.02422
  46    0.1487        0.1079        0.0000        9.1641        9.1641       9.056209       0.88991
  45    0.1794        0.1079        0.0000        9.1612        9.1612       9.053331       0.79008
  44    0.2165        0.1079        0.0000        9.1583        9.1583       9.050411       0.66430
  43    0.2613        0.1079        0.0000        9.1553        9.1553       9.047438       0.56041
  42    0.3336        0.1079        0.0000        9.1511        9.1511       9.043259       0.48723
  41    0.4307        0.1079        0.0000        9.1464        9.1464       9.038491       0.41459
  40    0.5894        0.1079        0.0000        9.1393        9.1394       9.031485       0.37255
  39     1.339        0.1079        0.0000        9.1127        9.1127       9.004872       0.29962
  38     1.782        0.1079        0.0000        9.1011        9.1011       8.993283       0.22062
  37     2.292        0.1079        0.0000        9.0901        9.0901       8.982217       0.18329
  36     2.964        0.1079        0.0000        9.0776        9.0776       8.969787       0.15603
  35     3.853        0.1079        0.0000        9.0629        9.0629       8.954997       0.14036
  34     5.035        0.1079        0.0000        9.0441        9.0441       8.936258       0.13386
  33     6.613        0.1079        0.0000        9.0191        9.0191       8.911256       0.13366
  32     8.786        0.1079        0.0000        8.9843        8.9843       8.876473       0.13509
  31     11.80        0.1078        0.0000        8.9327        8.9327       8.824856       0.14451
  30     15.07        0.1078        0.0000        8.8758        8.8759       8.768011       0.14676
  29     18.79        0.1078        0.0000        8.8110        8.8110       8.703184       0.14698
  28     23.16        0.1078        0.0000        8.7365        8.7366       8.628739       0.14395
  27     28.12        0.1078        0.0000        8.6554        8.6555       8.547626       0.13789
  26     33.73        0.1078        0.0000        8.5719        8.5719       8.464126       0.12554
  25     40.54        0.1078        0.0001        8.4812        8.4812       8.373403       0.11255
  24     48.69        0.1078        0.0001        8.3838        8.3839       8.276101       0.10069
  23     57.69        0.1078        0.0001        8.2861        8.2862       8.178366       0.09161
  22     68.43        0.1078        0.0001        8.1751        8.1751       8.067369       0.08726
  21     81.20        0.1078        0.0001        8.0457        8.0458       7.938010       0.08548
  20     96.49        0.1077        0.0001        7.8949        7.8951       7.787306       0.08318
  19     114.6        0.1077        0.0001        7.7162        7.7163       7.608596       0.08345
  18     136.5        0.1077        0.0002        7.5193        7.5195       7.411751       0.07569
  17     162.9        0.1077        0.0002        7.2913        7.2915       7.183857       0.07284
  16     196.4        0.1076        0.0002        6.9660        6.9662       6.858576       0.08188
  15     218.7        0.1076        0.0002        6.6648        6.6650       6.557369       0.11436
  14     243.0        0.1077        0.0002        6.2619        6.2622       6.154529       0.13972
  13     269.0        0.1078        0.0003        5.7576        5.7579       5.650119       0.16363
  12     297.5        0.1080        0.0003        5.1719        5.1722       5.064193       0.17378
  11     328.5        0.1084        0.0003        4.5757        4.5760       4.467623       0.16221
  10     361.9        0.1090        0.0002        3.9995        3.9998       3.890767       0.14595
   9     398.1        0.1101        0.0002        3.4655        3.4657       3.355595       0.12468
   8     437.6        0.1120        0.0002        2.9740        2.9743       2.862294       0.10547
   7     480.5        0.1149        0.0002        2.5307        2.5309       2.415920       0.08767
   6     533.0        0.1207        0.0002        2.0614        2.0616       1.940834       0.07643
   5     589.8        0.1313        0.0002        1.6150        1.6151       1.483823       0.06784
   4     651.6        0.1534        0.0001        1.1565        1.1566       1.003157       0.06573
   3     718.7        0.2023        0.0001        0.7390        0.7391       0.536806       0.05861
   2     792.3        0.3340        0.0001        0.3985        0.3985       0.064476       0.05417
   1     891.5        0.0000        0.0000        0.0000        0.0000       0.000002       0.00549
   0    1013.0        0.0000        0.0000        0.0000        0.0000       0.000000       0.00000



 Wavenumbers:  4000. -  4650. cm-1, ATM      1
 LEVEL PRESSURE   UPWARD FLUX   DIFDOWN FLUX  DIRDOWN FLUX  DOWNWARD FLUX   NET FLUX    HEATING RATE
          mb          W/m2          W/m2          W/m2        W/m2          W/m2       degree/day
  51    .06700        7.4476        0.0000       10.7795       10.7795       3.331896       0.00000
  50    .07753        7.4476        0.0000       10.7795       10.7795       3.331895       0.00080
  49    .09103        7.4476        0.0000       10.7795       10.7795       3.331893       0.00078
  48    0.1069        7.4476        0.0000       10.7795       10.7795       3.331892       0.00077
  47    0.1255        7.4476        0.0000       10.7795       10.7795       3.331890       0.00075
  46    0.1487        7.4476        0.0000       10.7795       10.7795       3.331888       0.00076
  45    0.1794        7.4476        0.0000       10.7795       10.7795       3.331885       0.00078
  44    0.2165        7.4476        0.0000       10.7795       10.7795       3.331882       0.00076
  43    0.2613        7.4476        0.0000       10.7795       10.7795       3.331878       0.00075
  42    0.3336        7.4476        0.0000       10.7795       10.7795       3.331871       0.00077
  41    0.4307        7.4476        0.0000       10.7795       10.7795       3.331862       0.00078
  40    0.5894        7.4476        0.0000       10.7795       10.7795       3.331847       0.00080
  39     1.339        7.4476        0.0000       10.7794       10.7794       3.331758       0.00101
  38     1.782        7.4476        0.0000       10.7793       10.7793       3.331688       0.00134
  37     2.292        7.4476        0.0000       10.7792       10.7792       3.331593       0.00156
  36     2.964        7.4476        0.0000       10.7791       10.7791       3.331452       0.00177
  35     3.853        7.4476        0.0000       10.7789       10.7789       3.331243       0.00198
  34     5.035        7.4476        0.0000       10.7786       10.7786       3.330935       0.00220
  33     6.613        7.4476        0.0000       10.7781       10.7781       3.330481       0.00243
  32     8.786        7.4476        0.0000       10.7774       10.7775       3.329811       0.00260
  31     11.80        7.4476        0.0001       10.7763       10.7764       3.328757       0.00295
  30     15.07        7.4477        0.0001       10.7751       10.7752       3.327519       0.00320
  29     18.79        7.4477        0.0001       10.7736       10.7737       3.326021       0.00340
  28     23.16        7.4477        0.0001       10.7717       10.7718       3.324158       0.00360
  27     28.12        7.4477        0.0001       10.7695       10.7696       3.321899       0.00384
  26     33.73        7.4477        0.0002       10.7667       10.7669       3.319111       0.00419
  25     40.54        7.4478        0.0002       10.7629       10.7631       3.315321       0.00470
  24     48.69        7.4479        0.0003       10.7579       10.7582       3.310262       0.00524
  23     57.69        7.4480        0.0003       10.7520       10.7523       3.304250       0.00564
  22     68.43        7.4483        0.0004       10.7446       10.7450       3.296696       0.00594
  21     81.20        7.4486        0.0004       10.7355       10.7359       3.287366       0.00617
  20     96.49        7.4490        0.0005       10.7245       10.7250       3.275972       0.00629
  19     114.6        7.4496        0.0006       10.7107       10.7113       3.261667       0.00668
  18     136.5        7.4505        0.0007       10.6942       10.6949       3.244357       0.00666
  17     162.9        7.4518        0.0008       10.6740       10.6749       3.223018       0.00682
  16     196.4        7.4540        0.0010       10.6464       10.6474       3.193370       0.00746
  15     218.7        7.4559        0.0011       10.6255       10.6266       3.170679       0.00861
  14     243.0        7.4586        0.0012       10.5980       10.5993       3.140655       0.01041
  13     269.0        7.4627        0.0014       10.5611       10.5625       3.099806       0.01325
  12     297.5        7.4685        0.0015       10.5119       10.5135       3.044952       0.01627
  11     328.5        7.4765        0.0017       10.4499       10.4515       2.975029       0.01901
  10     361.9        7.4870        0.0018       10.3702       10.3720       2.884986       0.02278
   9     398.1        7.5003        0.0020       10.2678       10.2698       2.769485       0.02691
   8     437.6        7.5174        0.0022       10.1390       10.1412       2.623783       0.03115
   7     480.5        7.5395        0.0024        9.9877        9.9901       2.450536       0.03403
   6     533.0        7.5741        0.0026        9.7937        9.7963       2.222192       0.03673
   5     589.8        7.6249        0.0028        9.5752        9.5780       1.953064       0.03995
   4     651.6        7.7089        0.0030        9.2958        9.2988       1.589972       0.04965
   3     718.7        7.8547        0.0033        8.9267        8.9300       1.075340       0.06467
   2     792.3        8.1425        0.0035        8.4542        8.4577       0.315163       0.08718
   1     891.5        0.0137        0.0972        0.0000        0.0972       0.083469       0.01972
   0    1013.0        0.0141        0.0944        0.0000        0.0944       0.080282       0.00022



 Wavenumbers:  4650. -  5150. cm-1, ATM      1
 LEVEL PRESSURE   UPWARD FLUX   DIFDOWN FLUX  DIRDOWN FLUX  DOWNWARD FLUX   NET FLUX    HEATING RATE
          mb          W/m2          W/m2          W/m2        W/m2          W/m2       degree/day
  51    .06700        5.4002        0.0000       10.2033       10.2033       4.803179       0.00000
  50    .07753        5.4002        0.0000       10.2031       10.2031       4.802943       0.18901
  49    .09103        5.4002        0.0000       10.2028       10.2028       4.802648       0.18428
  48    0.1069        5.4002        0.0000       10.2025       10.2025       4.802312       0.17931
  47    0.1255        5.4002        0.0000       10.2021       10.2021       4.801927       0.17426
  46    0.1487        5.4002        0.0000       10.2016       10.2016       4.801446       0.17536
  45    0.1794        5.4002        0.0000       10.2010       10.2010       4.800796       0.17850
  44    0.2165        5.4002        0.0000       10.2002       10.2002       4.800036       0.17277
  43    0.2613        5.4002        0.0000       10.1993       10.1993       4.799151       0.16690
  42    0.3336        5.4002        0.0000       10.1979       10.1979       4.797718       0.16702
  41    0.4307        5.4002        0.0000       10.1960       10.1960       4.795878       0.16003
  40    0.5894        5.4002        0.0000       10.1932       10.1932       4.793004       0.15283
  39     1.339        5.4002        0.0000       10.1816       10.1816       4.781411       0.13051
  38     1.782        5.4002        0.0000       10.1760       10.1760       4.775882       0.10527
  37     2.292        5.4002        0.0000       10.1706       10.1706       4.770424       0.09039
  36     2.964        5.4002        0.0000       10.1646       10.1647       4.764499       0.07438
  35     3.853        5.4002        0.0000       10.1584       10.1584       4.758282       0.05901
  34     5.035        5.4002        0.0000       10.1521       10.1521       4.751941       0.04530
  33     6.613        5.4002        0.0000       10.1456       10.1456       4.745475       0.03457
  32     8.786        5.4002        0.0001       10.1386       10.1386       4.738448       0.02729
  31     11.80        5.4002        0.0001       10.1295       10.1296       4.729378       0.02539
  30     15.07        5.4003        0.0001       10.1196       10.1197       4.719459       0.02561
  29     18.79        5.4003        0.0001       10.1076       10.1077       4.707395       0.02735
  28     23.16        5.4004        0.0002       10.0923       10.0924       4.692010       0.02975
  27     28.12        5.4005        0.0002       10.0731       10.0734       4.672806       0.03265
  26     33.73        5.4007        0.0002       10.0500       10.0503       4.649566       0.03494
  25     40.54        5.4010        0.0003       10.0201       10.0204       4.619455       0.03736
  24     48.69        5.4013        0.0004        9.9820        9.9823       4.580988       0.03981
  23     57.69        5.4018        0.0004        9.9384        9.9389       4.537071       0.04117
  22     68.43        5.4024        0.0005        9.8858        9.8863       4.483816       0.04187
  21     81.20        5.4033        0.0006        9.8234        9.8240       4.420702       0.04170
  20     96.49        5.4046        0.0007        9.7518        9.7525       4.347886       0.04019
  19     114.6        5.4063        0.0008        9.6719        9.6727       4.266462       0.03802
  18     136.5        5.4086        0.0010        9.5858        9.5868       4.178134       0.03396
  17     162.9        5.4119        0.0012        9.4940        9.4952       4.083282       0.03032
  16     196.4        5.4169        0.0014        9.3883        9.3897       3.972724       0.02783
  15     218.7        5.4209        0.0015        9.3229        9.3244       3.903575       0.02625
  14     243.0        5.4260        0.0017        9.2520        9.2537       3.827715       0.02631
  13     269.0        5.4327        0.0019        9.1717        9.1735       3.740785       0.02820
  12     297.5        5.4422        0.0020        9.0763        9.0783       3.636162       0.03103
  11     328.5        5.4544        0.0022        8.9650        8.9672       3.512784       0.03355
  10     361.9        5.4702        0.0024        8.8349        8.8374       3.367122       0.03685
   9     398.1        5.4908        0.0027        8.6820        8.6847       3.193881       0.04036
   8     437.6        5.5176        0.0029        8.5028        8.5057       2.988118       0.04399
   7     480.5        5.5525        0.0031        8.2948        8.2979       2.745448       0.04766
   6     533.0        5.6059        0.0034        8.0209        8.0242       2.418326       0.05262
   5     589.8        5.6806        0.0036        7.7063        7.7099       2.029296       0.05774
   4     651.6        5.7922        0.0039        7.3412        7.3451       1.552903       0.06515
   3     718.7        5.9634        0.0041        6.9387        6.9428       0.979374       0.07208
   2     792.3        6.2445        0.0043        6.5066        6.5109       0.266370       0.08177
   1     891.5        0.0029        0.0584        0.0000        0.0584       0.055511       0.01794
   0    1013.0        0.0030        0.0563        0.0000        0.0563       0.053241       0.00016



 Wavenumbers:  5150. -  6150. cm-1, ATM      1
 LEVEL PRESSURE   UPWARD FLUX   DIFDOWN FLUX  DIRDOWN FLUX  DOWNWARD FLUX   NET FLUX    HEATING RATE
          mb          W/m2          W/m2          W/m2        W/m2          W/m2       degree/day
  51    .06700       12.7149        0.0000       25.5798       25.5798      12.864921       0.00000
  50    .07753       12.7149        0.0000       25.5798       25.5798      12.864881       0.03164
  49    .09103       12.7149        0.0000       25.5797       25.5797      12.864830       0.03212
  48    0.1069       12.7149        0.0000       25.5797       25.5797      12.864769       0.03263
  47    0.1255       12.7149        0.0000       25.5796       25.5796      12.864695       0.03313
  46    0.1487       12.7149        0.0000       25.5795       25.5795      12.864600       0.03490
  45    0.1794       12.7149        0.0000       25.5794       25.5794      12.864464       0.03715
  44    0.2165       12.7149        0.0000       25.5792       25.5792      12.864299       0.03771
  43    0.2613       12.7149        0.0000       25.5790       25.5790      12.864096       0.03829
  42    0.3336       12.7149        0.0000       25.5786       25.5786      12.863749       0.04045
  41    0.4307       12.7149        0.0000       25.5782       25.5782      12.863277       0.04099
  40    0.5894       12.7149        0.0000       25.5774       25.5774      12.862487       0.04201
  39     1.339       12.7149        0.0000       25.5735       25.5736      12.858681       0.04285
  38     1.782       12.7149        0.0001       25.5713       25.5714      12.856464       0.04221
  37     2.292       12.7149        0.0001       25.5688       25.5689      12.853954       0.04157
  36     2.964       12.7149        0.0001       25.5656       25.5657      12.850764       0.04005
  35     3.853       12.7149        0.0001       25.5615       25.5616      12.846708       0.03849
  34     5.035       12.7149        0.0002       25.5562       25.5564      12.841482       0.03733
  33     6.613       12.7149        0.0002       25.5494       25.5496      12.834699       0.03626
  32     8.786       12.7150        0.0003       25.5406       25.5409      12.825905       0.03415
  31     11.80       12.7151        0.0004       25.5287       25.5291      12.814002       0.03332
  30     15.07       12.7151        0.0005       25.5167       25.5172      12.802055       0.03085
  29     18.79       12.7152        0.0006       25.5042       25.5048      12.789551       0.02835
  28     23.16       12.7154        0.0008       25.4907       25.4914      12.776067       0.02607
  27     28.12       12.7155        0.0009       25.4764       25.4774      12.761829       0.02420
  26     33.73       12.7158        0.0011       25.4620       25.4631      12.747368       0.02174
  25     40.54       12.7161        0.0013       25.4463       25.4476      12.731504       0.01968
  24     48.69       12.7165        0.0016       25.4294       25.4310      12.714449       0.01765
  23     57.69       12.7171        0.0019       25.4126       25.4145      12.697446       0.01594
  22     68.43       12.7178        0.0023       25.3944       25.3967      12.678910       0.01457
  21     81.20       12.7187        0.0027       25.3744       25.3771      12.658436       0.01353
  20     96.49       12.7198        0.0032       25.3519       25.3551      12.635356       0.01274
  19     114.6       12.7211        0.0038       25.3262       25.3300      12.608822       0.01239
  18     136.5       12.7228        0.0045       25.2962       25.3007      12.577878       0.01190
  17     162.9       12.7249        0.0053       25.2521       25.2574      12.532543       0.01449
  16     196.4       12.7278        0.0064       25.1593       25.1657      12.437963       0.02381
  15     218.7       12.7298        0.0071       25.0159       25.0230      12.293236       0.05495
  14     243.0       12.7323        0.0078       24.7089       24.7168      11.984408       0.10711
  13     269.0       12.7356        0.0086       24.1619       24.1704      11.434819       0.17828
  12     297.5       12.7400        0.0093       23.4544       23.4636      10.723656       0.21092
  11     328.5       12.7458        0.0100       22.7355       22.7455       9.999705       0.19684
  10     361.9       12.7534        0.0108       21.9224       21.9332       9.179764       0.20745
   9     398.1       12.7637        0.0115       20.9939       21.0054       8.241662       0.21856
   8     437.6       12.7781        0.0122       19.9833       19.9955       7.217383       0.21900
   7     480.5       12.7982        0.0129       18.9483       18.9612       6.162994       0.20708
   6     533.0       12.8324        0.0137       17.7796       17.7933       4.960851       0.19339
   5     589.8       12.8883        0.0145       16.6726       16.6871       3.798773       0.17249
   4     651.6       12.9914        0.0153       15.6343       15.6496       2.658208       0.15598
   3     718.7       13.1829        0.0162       14.7738       14.7900       1.607162       0.13209
   2     792.3       13.5781        0.0172       14.0291       14.0463       0.468230       0.13062
   1     891.5        0.0331        0.1923        0.0000        0.1923       0.159238       0.02629
   0    1013.0        0.0336        0.1889        0.0000        0.1889       0.155339       0.00027



 Wavenumbers:  6150. -  7700. cm-1, ATM      1
 LEVEL PRESSURE   UPWARD FLUX   DIFDOWN FLUX  DIRDOWN FLUX  DOWNWARD FLUX   NET FLUX    HEATING RATE
          mb          W/m2          W/m2          W/m2        W/m2          W/m2       degree/day
  51    .06700       20.6317        0.0000       47.3109       47.3109      26.679125       0.00000
  50    .07753       20.6317        0.0000       47.3108       47.3108      26.679068       0.04553
  49    .09103       20.6317        0.0000       47.3107       47.3107      26.678995       0.04583
  48    0.1069       20.6317        0.0000       47.3106       47.3106      26.678908       0.04614
  47    0.1255       20.6317        0.0000       47.3105       47.3105      26.678806       0.04645
  46    0.1487       20.6317        0.0000       47.3104       47.3104      26.678673       0.04852
  45    0.1794       20.6317        0.0000       47.3102       47.3102      26.678486       0.05127
  44    0.2165       20.6317        0.0000       47.3100       47.3100      26.678259       0.05167
  43    0.2613       20.6317        0.0000       47.3097       47.3097      26.677982       0.05210
  42    0.3336       20.6317        0.0000       47.3092       47.3092      26.677513       0.05471
  41    0.4307       20.6317        0.0001       47.3085       47.3086      26.676878       0.05521
  40    0.5894       20.6317        0.0001       47.3074       47.3075      26.675819       0.05634
  39     1.339       20.6316        0.0002       47.3022       47.3024      26.670727       0.05733
  38     1.782       20.6316        0.0002       47.2991       47.2994      26.667756       0.05655
  37     2.292       20.6316        0.0003       47.2956       47.2960      26.664381       0.05591
  36     2.964       20.6315        0.0004       47.2912       47.2916      26.660062       0.05421
  35     3.853       20.6315        0.0005       47.2855       47.2860      26.654528       0.05253
  34     5.035       20.6314        0.0007       47.2780       47.2787      26.647347       0.05130
  33     6.613       20.6313        0.0009       47.2683       47.2692      26.637959       0.05019
  32     8.786       20.6311        0.0012       47.2556       47.2568      26.625659       0.04777
  31     11.80       20.6309        0.0016       47.2380       47.2396      26.608755       0.04733
  30     15.07       20.6306        0.0020       47.2201       47.2221      26.591466       0.04464
  29     18.79       20.6304        0.0026       47.2008       47.2034      26.572985       0.04190
  28     23.16       20.6301        0.0031       47.1795       47.1827      26.552592       0.03943
  27     28.12       20.6297        0.0038       47.1565       47.1603      26.530595       0.03739
  26     33.73       20.6293        0.0046       47.1324       47.1370      26.507670       0.03447
  25     40.54       20.6288        0.0055       47.1054       47.1109      26.482028       0.03181
  24     48.69       20.6282        0.0066       47.0754       47.0820      26.453768       0.02925
  23     57.69       20.6276        0.0078       47.0449       47.0528      26.425137       0.02684
  22     68.43       20.6269        0.0092       47.0110       47.0202      26.393388       0.02496
  21     81.20       20.6260        0.0110       46.9729       46.9838      26.357878       0.02346
  20     96.49       20.6249        0.0130       46.9294       46.9424      26.317516       0.02228
  19     114.6       20.6236        0.0155       46.8790       46.8945      26.270849       0.02179
  18     136.5       20.6222        0.0184       46.8200       46.8384      26.216179       0.02102
  17     162.9       20.6205        0.0218       46.7361       46.7579      26.137472       0.02516
  16     196.4       20.6185        0.0263       46.5703       46.5965      25.978058       0.04013
  15     218.7       20.6174        0.0292       46.3473       46.3765      25.759023       0.08316
  14     243.0       20.6168        0.0322       45.9299       45.9621      25.345226       0.14352
  13     269.0       20.6173        0.0353       45.1708       45.2060      24.588728       0.24540
  12     297.5       20.6199        0.0383       44.0115       44.0497      23.429787       0.34373
  11     328.5       20.6255        0.0413       42.7242       42.7656      22.140063       0.35067
  10     361.9       20.6355        0.0445       41.3539       41.3984      20.762955       0.34842
   9     398.1       20.6523        0.0476       39.7953       39.8429      19.190547       0.36634
   8     437.6       20.6803        0.0506       37.9948       38.0453      17.365007       0.39031
   7     480.5       20.7248        0.0534       36.0647       36.1181      15.393384       0.38722
   6     533.0       20.8080        0.0565       33.7773       33.8338      13.025853       0.38086
   5     589.8       20.9531        0.0594       31.4082       31.4676      10.514565       0.37276
   4     651.6       21.2347        0.0619       28.8834       28.9453       7.710583       0.38345
   3     718.7       21.7825        0.0641       26.4104       26.4744       4.691965       0.37936
   2     792.3       22.9945        0.0659       24.0056       24.0715       1.077075       0.41459
   1     891.5        0.0643        0.2864        0.0000        0.2864       0.222090       0.07276
   0    1013.0        0.0658        0.2790        0.0000        0.2790       0.213245       0.00061



 Wavenumbers:  7700. -  8050. cm-1, ATM      1
 LEVEL PRESSURE   UPWARD FLUX   DIFDOWN FLUX  DIRDOWN FLUX  DOWNWARD FLUX   NET FLUX    HEATING RATE
          mb          W/m2          W/m2          W/m2        W/m2          W/m2       degree/day
  51    .06700        9.2157        0.0000       11.1810       11.1810       1.965238       0.00000
  50    .07753        9.2157        0.0000       11.1809       11.1809       1.965213       0.01952
  49    .09103        9.2157        0.0000       11.1809       11.1809       1.965183       0.01914
  48    0.1069        9.2157        0.0000       11.1809       11.1809       1.965147       0.01873
  47    0.1255        9.2158        0.0000       11.1809       11.1809       1.965107       0.01833
  46    0.1487        9.2158        0.0000       11.1808       11.1808       1.965056       0.01860
  45    0.1794        9.2158        0.0000       11.1808       11.1808       1.964986       0.01914
  44    0.2165        9.2158        0.0000       11.1807       11.1807       1.964904       0.01878
  43    0.2613        9.2158        0.0000       11.1806       11.1806       1.964806       0.01843
  42    0.3336        9.2159        0.0000       11.1805       11.1805       1.964644       0.01885
  41    0.4307        9.2159        0.0000       11.1803       11.1804       1.964430       0.01865
  40    0.5894        9.2160        0.0000       11.1801       11.1801       1.964079       0.01863
  39     1.339        9.2165        0.0001       11.1788       11.1789       1.962422       0.01866
  38     1.782        9.2167        0.0001       11.1781       11.1782       1.961448       0.01854
  37     2.292        9.2170        0.0001       11.1772       11.1773       1.960321       0.01867
  36     2.964        9.2174        0.0002       11.1761       11.1763       1.958841       0.01858
  35     3.853        9.2179        0.0002       11.1746       11.1748       1.956886       0.01855
  34     5.035        9.2186        0.0003       11.1726       11.1729       1.954289       0.01855
  33     6.613        9.2196        0.0004       11.1700       11.1704       1.950819       0.01855
  32     8.786        9.2208        0.0006       11.1664       11.1669       1.946144       0.01816
  31     11.80        9.2226        0.0007       11.1613       11.1620       1.939457       0.01872
  30     15.07        9.2245        0.0010       11.1558       11.1568       1.932282       0.01853
  29     18.79        9.2267        0.0012       11.1497       11.1509       1.924180       0.01837
  28     23.16        9.2292        0.0015       11.1425       11.1440       1.914725       0.01828
  27     28.12        9.2322        0.0018       11.1343       11.1361       1.903922       0.01836
  26     33.73        9.2355        0.0021       11.1252       11.1273       1.891848       0.01815
  25     40.54        9.2395        0.0026       11.1142       11.1168       1.877283       0.01807
  24     48.69        9.2443        0.0031       11.1010       11.1041       1.859758       0.01814
  23     57.69        9.2497        0.0036       11.0866       11.0902       1.840553       0.01800
  22     68.43        9.2561        0.0043       11.0695       11.0738       1.817741       0.01793
  21     81.20        9.2638        0.0051       11.0494       11.0545       1.790653       0.01790
  20     96.49        9.2731        0.0061       11.0255       11.0316       1.758504       0.01774
  19     114.6        9.2842        0.0072       10.9975       11.0047       1.720508       0.01774
  18     136.5        9.2976        0.0085       10.9648       10.9733       1.675712       0.01723
  17     162.9        9.3137        0.0101       10.9263       10.9364       1.622683       0.01695
  16     196.4        9.3351        0.0122       10.8773       10.8894       1.554381       0.01719
  15     218.7        9.3493        0.0135       10.8455       10.8591       1.509751       0.01694
  14     243.0        9.3651        0.0150       10.8114       10.8265       1.461371       0.01678
  13     269.0        9.3825        0.0166       10.7749       10.7915       1.409001       0.01699
  12     297.5        9.4017        0.0183       10.7357       10.7540       1.352318       0.01681
  11     328.5        9.4230        0.0202       10.6937       10.7139       1.290893       0.01670
  10     361.9        9.4467        0.0222       10.6489       10.6710       1.224381       0.01683
   9     398.1        9.4730        0.0243       10.6008       10.6251       1.152105       0.01684
   8     437.6        9.5025        0.0267       10.5491       10.5757       1.073221       0.01687
   7     480.5        9.5356        0.0291       10.4934       10.5226       0.986923       0.01695
   6     533.0        9.5789        0.0322       10.4243       10.4565       0.877590       0.01759
   5     589.8        9.6293        0.0355       10.3479       10.3834       0.754057       0.01834
   4     651.6        9.6899        0.0390       10.2613       10.3003       0.610457       0.01964
   3     718.7        9.7642        0.0427       10.1618       10.2045       0.440273       0.02139
   2     792.3        9.8590        0.0467       10.0439       10.0906       0.231593       0.02393
   1     891.5        0.1532        0.2741        0.0000        0.2741       0.120906       0.00942
   0    1013.0        0.1562        0.2689        0.0000        0.2689       0.112752       0.00057



 Wavenumbers:  8050. - 12850. cm-1, ATM      1
 LEVEL PRESSURE   UPWARD FLUX   DIFDOWN FLUX  DIRDOWN FLUX  DOWNWARD FLUX   NET FLUX    HEATING RATE
          mb          W/m2          W/m2          W/m2        W/m2          W/m2       degree/day
  51    .06700      121.6947        0.0000      156.5418      156.5418      34.847086       0.00000
  50    .07753      121.6947        0.0000      156.5417      156.5417      34.847086       0.00000
  49    .09103      121.6946        0.0001      156.5417      156.5417      34.847086      -0.00000
  48    0.1069      121.6946        0.0001      156.5416      156.5417      34.847086       0.00000
  47    0.1255      121.6946        0.0002      156.5415      156.5417      34.847086      -0.00000
  46    0.1487      121.6946        0.0003      156.5414      156.5417      34.847086      -0.00000
  45    0.1794      121.6946        0.0003      156.5413      156.5417      34.847086       0.00000
  44    0.2165      121.6945        0.0005      156.5412      156.5416      34.847086      -0.00000
  43    0.2613      121.6945        0.0006      156.5410      156.5416      34.847086       0.00000
  42    0.3336      121.6944        0.0008      156.5407      156.5415      34.847086       0.00000
  41    0.4307      121.6943        0.0011      156.5403      156.5414      34.847086      -0.00000
  40    0.5894      121.6942        0.0016      156.5397      156.5413      34.847086       0.00000
  39     1.339      121.6936        0.0039      156.5367      156.5406      34.847086      -0.00000
  38     1.782      121.6932        0.0053      156.5350      156.5403      34.847086       0.00000
  37     2.292      121.6927        0.0068      156.5330      156.5398      34.847086       0.00000
  36     2.964      121.6921        0.0089      156.5303      156.5392      34.847086      -0.00000
  35     3.853      121.6914        0.0116      156.5268      156.5385      34.847086       0.00000
  34     5.035      121.6903        0.0152      156.5222      156.5374      34.847086      -0.00000
  33     6.613      121.6890        0.0201      156.5160      156.5361      34.847086       0.00000
  32     8.786      121.6871        0.0266      156.5076      156.5342      34.847086      -0.00000
  31     11.80      121.6845        0.0359      156.4957      156.5316      34.847086       0.00000
  30     15.07      121.6816        0.0459      156.4828      156.5287      34.847086       0.00000
  29     18.79      121.6784        0.0573      156.4682      156.5255      34.847086      -0.00000
  28     23.16      121.6747        0.0705      156.4512      156.5217      34.847086       0.00000
  27     28.12      121.6704        0.0857      156.4317      156.5174      34.847086       0.00000
  26     33.73      121.6655        0.1028      156.4099      156.5126      34.847086       0.00000
  25     40.54      121.6597        0.1233      156.3834      156.5068      34.847086      -0.00000
  24     48.69      121.6526        0.1482      156.3515      156.4997      34.847086       0.00000
  23     57.69      121.6449        0.1755      156.3164      156.4920      34.847086       0.00000
  22     68.43      121.6356        0.2082      156.2746      156.4827      34.847086       0.00000
  21     81.20      121.6246        0.2471      156.2246      156.4717      34.847086      -0.00000
  20     96.49      121.6114        0.2935      156.1649      156.4585      34.847086       0.00000
  19     114.6      121.5960        0.3488      156.0879      156.4368      34.840766       0.00295
  18     136.5      121.5777        0.4145      155.9962      156.4106      34.832932       0.00301
  17     162.9      121.5559        0.4928      155.8831      156.3759      34.819957       0.00415
  16     196.4      121.5279        0.5947      155.7199      156.3147      34.786806       0.00834
  15     218.7      121.5100        0.6618      155.5733      156.2351      34.725031       0.02345
  14     243.0      121.4922        0.7346      155.3367      156.0713      34.579070       0.05062
  13     269.0      121.4767        0.8134      154.9514      155.7649      34.288169       0.09437
  12     297.5      121.4672        0.8984      154.3896      155.2880      33.820780       0.13862
  11     328.5      121.4662        0.9900      153.7151      154.7051      33.238848       0.15823
  10     361.9      121.4788        1.0883      152.9087      153.9970      32.518227       0.18232
   9     398.1      121.5135        1.1935      151.8986      153.0921      31.578632       0.21890
   8     437.6      121.5849        1.3056      150.6031      151.9087      30.323789       0.26829
   7     480.5      121.7108        1.4241      149.0014      150.4255      28.714667       0.31603
   6     533.0      121.9598        1.5677      146.7375      148.3052      26.345368       0.38114
   5     589.8      122.4043        1.7182      143.8730      145.5912      23.186873       0.46882
   4     651.6      123.2641        1.8728      140.0955      141.9683      18.704289       0.61301
   3     718.7      124.8759        2.0298      135.5278      137.5576      12.681637       0.75688
   2     792.3      128.1244        2.1851      130.0690      132.2541       4.129669       0.98081
   1     891.5        6.6850        8.0288        0.0000        8.0288       1.343837       0.23706
   0    1013.0        6.7668        7.9218        0.0000        7.9218       1.155006       0.01311



 Wavenumbers: 12850. - 16000. cm-1, ATM      1
 LEVEL PRESSURE   UPWARD FLUX   DIFDOWN FLUX  DIRDOWN FLUX  DOWNWARD FLUX   NET FLUX    HEATING RATE
          mb          W/m2          W/m2          W/m2        W/m2          W/m2       degree/day
  51    .06700       85.0281        0.0000       98.0872       98.0872      13.059180       0.00000
  50    .07753       85.0281        0.0001       98.0864       98.0864      13.058386       0.63655
  49    .09103       85.0281        0.0002       98.0853       98.0855      13.057388       0.62375
  48    0.1069       85.0281        0.0003       98.0841       98.0843      13.056241       0.61075
  47    0.1255       85.0281        0.0004       98.0826       98.0830      13.054922       0.59809
  46    0.1487       85.0281        0.0005       98.0809       98.0814      13.053255       0.60744
  45    0.1794       85.0282        0.0008       98.0784       98.0792      13.050986       0.62292
  44    0.2165       85.0283        0.0010       98.0756       98.0766      13.048314       0.60785
  43    0.2613       85.0285        0.0013       98.0723       98.0736      13.045168       0.59307
  42    0.3336       85.0288        0.0018       98.0670       98.0688      13.040024       0.59965
  41    0.4307       85.0292        0.0024       98.0602       98.0626      13.033361       0.57935
  40    0.5894       85.0302        0.0035       98.0496       98.0530      13.022834       0.55984
  39     1.339       85.0381        0.0084       98.0043       98.0128      12.974675       0.54219
  38     1.782       85.0451        0.0113       97.9793       97.9906      12.945466       0.55608
  37     2.292       85.0556        0.0147       97.9498       97.9645      12.908885       0.60588
  36     2.964       85.0728        0.0191       97.9088       97.9279      12.855149       0.67454
  35     3.853       85.1004        0.0249       97.8503       97.8753      12.774895       0.76163
  34     5.035       85.1419        0.0327       97.7680       97.8007      12.658789       0.82941
  33     6.613       85.1998        0.0430       97.6562       97.6992      12.499427       0.85195
  32     8.786       85.2752        0.0569       97.5107       97.5676      12.292400       0.80402
  31     11.80       85.3736        0.0768       97.3179       97.3947      12.021121       0.75949
  30     15.07       85.4681        0.0982       97.1283       97.2265      11.758459       0.67814
  29     18.79       85.5648        0.1223       96.9300       97.0523      11.487534       0.61427
  28     23.16       85.6662        0.1504       96.7166       96.8670      11.200790       0.55447
  27     28.12       85.7687        0.1826       96.4935       96.6760      10.907369       0.49880
  26     33.73       85.8641        0.2185       96.2731       96.4916      10.627560       0.42070
  25     40.54       85.9570        0.2620       96.0408       96.3028      10.345813       0.34954
  24     48.69       86.0473        0.3144       95.7946       96.1090      10.061703       0.29401
  23     57.69       86.1256        0.3720       95.5573       95.9293       9.803737       0.24180
  22     68.43       86.1961        0.4407       95.3106       95.7513       9.555152       0.19542
  21     81.20       86.2492        0.5226       95.0643       95.5869       9.337774       0.14364
  20     96.49       86.2837        0.6203       94.8153       95.4356       9.151920       0.10258
  19     114.6       86.3212        0.7374       94.5411       95.2784       8.957277       0.09088
  18     136.5       86.3538        0.8762       94.2320       95.1082       8.754374       0.07802
  17     162.9       86.3821        1.0414       93.8753       94.9168       8.534635       0.07024
  16     196.4       86.3960        1.2558       93.4347       94.6905       8.294454       0.06046
  15     218.7       86.3973        1.3966       93.1513       94.5479       8.150620       0.05461
  14     243.0       86.3957        1.5497       92.8439       94.3936       7.997917       0.05296
  13     269.0       86.3915        1.7155       92.5111       94.2266       7.835119       0.05281
  12     297.5       86.3859        1.8948       92.1495       94.0442       7.658345       0.05243
  11     328.5       86.3814        2.0884       91.7554       93.8438       7.462442       0.05327
  10     361.9       86.3796        2.2969       91.3262       93.6231       7.243527       0.05539
   9     398.1       86.3830        2.5212       90.8575       93.3788       6.995733       0.05773
   8     437.6       86.3963        2.7620       90.3418       93.1038       6.707466       0.06163
   7     480.5       86.4242        3.0198       89.7728       92.7926       6.368406       0.06659
   6     533.0       86.4843        3.3367       89.0428       92.3796       5.895298       0.07611
   5     589.8       86.5958        3.6772       88.2038       91.8810       5.285240       0.09055
   4     651.6       86.8094        4.0405       87.1979       91.2385       4.429071       0.11708
   3     718.7       87.1671        4.4255       86.0161       90.4416       3.274551       0.14509
   2     792.3       87.7901        4.8281       84.5970       89.4252       1.635103       0.18803
   1     891.5       18.2411       19.0860        0.0000       19.0860       0.844922       0.06724
   0    1013.0       18.3346       18.9799        0.0000       18.9799       0.645318       0.01386



 Wavenumbers: 16000. - 22650. cm-1, ATM      1
 LEVEL PRESSURE   UPWARD FLUX   DIFDOWN FLUX  DIRDOWN FLUX  DOWNWARD FLUX   NET FLUX    HEATING RATE
          mb          W/m2          W/m2          W/m2        W/m2          W/m2       degree/day
  51    .06700      141.8230        0.0000      156.3892      156.3892      14.566287       0.00000
  50    .07753      141.8229        0.0004      156.3887      156.3891      14.566139       0.11885
  49    .09103      141.8229        0.0009      156.3879      156.3888      14.565923       0.13481
  48    0.1069      141.8229        0.0015      156.3871      156.3885      14.565634       0.15372
  47    0.1255      141.8229        0.0021      156.3861      156.3882      14.565248       0.17522
  46    0.1487      141.8230        0.0030      156.3847      156.3877      14.564678       0.20764
  45    0.1794      141.8231        0.0041      156.3828      156.3869      14.563788       0.24448
  44    0.2165      141.8234        0.0054      156.3805      156.3859      14.562580       0.27476
  43    0.2613      141.8237        0.0070      156.3776      156.3847      14.560941       0.30890
  42    0.3336      141.8245        0.0097      156.3726      156.3823      14.557825       0.36326
  41    0.4307      141.8258        0.0132      156.3657      156.3789      14.553129       0.40835
  40    0.5894      141.8284        0.0189      156.3537      156.3726      14.544172       0.47632
  39     1.339      141.8513        0.0459      156.2834      156.3293      14.477997       0.74501
  38     1.782      141.8725        0.0618      156.2324      156.2941      14.421623       1.07326
  37     2.292      141.9042        0.0802      156.1641      156.2443      14.340022       1.35153
  36     2.964      141.9569        0.1043      156.0605      156.1648      14.207827       1.65945
  35     3.853      142.0421        0.1361      155.9041      156.0402      13.998064       1.99069
  34     5.035      142.1706        0.1784      155.6774      155.8557      13.685111       2.23561
  33     6.613      142.3502        0.2347      155.3656      155.6003      13.250192       2.32508
  32     8.786      142.5840        0.3106      154.9577      155.2683      12.684254       2.19790
  31     11.80      142.8884        0.4190      154.4153      154.8342      11.945834       2.06734
  30     15.07      143.1801        0.5352      153.8804      154.4156      11.235480       1.83400
  29     18.79      143.4779        0.6662      153.3191      153.9853      10.507414       1.65075
  28     23.16      143.7893        0.8191      152.7126      153.5316       9.742383       1.47932
  27     28.12      144.1026        0.9936      152.0755      153.0691       8.966493       1.31896
  26     33.73      144.3920        1.1887      151.4409      152.6297       8.237678       1.09579
  25     40.54      144.6707        1.4243      150.7637      152.1880       7.517327       0.89368
  24     48.69      144.9377        1.7080      150.0338      151.7418       6.804148       0.73803
  23     57.69      145.1643        2.0192      149.3151      151.3343       6.170041       0.59438
  22     68.43      145.3623        2.3895      148.5476      150.9371       5.574766       0.46797
  21     81.20      145.4997        2.8304      147.7517      150.5820       5.082321       0.32540
  20     96.49      145.5720        3.3552      146.9127      150.2678       4.695866       0.21330
  19     114.6      145.6105        3.9765      145.9763      149.9528       4.342350       0.16507
  18     136.5      145.6245        4.7103      144.9088      149.6190       3.994574       0.13373
  17     162.9      145.6123        5.5799      143.6785      149.2585       3.646195       0.11136
  16     196.4      145.5342        6.7020      142.1651      148.8671       3.332852       0.07887
  15     218.7      145.4602        7.4353      141.2033      148.6387       3.178470       0.05861
  14     243.0      145.3693        8.2290      140.1753      148.4044       3.035052       0.04974
  13     269.0      145.2600        9.0853      139.0797      148.1650       2.904986       0.04219
  12     297.5      145.1317       10.0062      137.9141      147.9203       2.788607       0.03452
  11     328.5      144.9884       10.9961      136.6676      147.6637       2.675206       0.03083
  10     361.9      144.8301       12.0558      135.3392      147.3950       2.564880       0.02791
   9     398.1      144.6563       13.1894      133.9235      147.1129       2.456659       0.02521
   8     437.6      144.4680       14.3990      132.4163      146.8153       2.347266       0.02339
   7     480.5      144.2651       15.6867      130.8147      146.5014       2.236289       0.02180
   6     533.0      144.0162       17.2595      128.8599      146.1195       2.103259       0.02140
   5     589.8      143.7532       18.9401      126.7679      145.7081       1.954879       0.02202
   4     651.6      143.4837       20.7300      124.5274      145.2574       1.773714       0.02477
   3     718.7      143.2155       22.6310      122.1285      144.7594       1.543933       0.02888
   2     792.3      142.9682       24.6408      119.5548      144.1957       1.227476       0.03629
   1     891.5       68.6332       69.5762        0.0000       69.5762       0.942953       0.02421
   0    1013.0       68.7151       69.4723        0.0000       69.4723       0.757248       0.01289



 Wavenumbers: 22650. - 29000. cm-1, ATM      1
 LEVEL PRESSURE   UPWARD FLUX   DIFDOWN FLUX  DIRDOWN FLUX  DOWNWARD FLUX   NET FLUX    HEATING RATE
          mb          W/m2          W/m2          W/m2        W/m2          W/m2       degree/day
  51    .06700       58.7569        0.0000       59.0156       59.0156       0.258669       0.00000
  50    .07753       58.7569        0.0005       59.0151       59.0155       0.258669       0.00000
  49    .09103       58.7567        0.0010       59.0144       59.0154       0.258669       0.00000
  48    0.1069       58.7566        0.0017       59.0136       59.0153       0.258669      -0.00000
  47    0.1255       58.7565        0.0025       59.0127       59.0151       0.258669       0.00000
  46    0.1487       58.7563        0.0035       59.0115       59.0149       0.258669       0.00000
  45    0.1794       58.7560        0.0048       59.0099       59.0147       0.258669       0.00000
  44    0.2165       58.7557        0.0063       59.0080       59.0144       0.258669       0.00000
  43    0.2613       58.7554        0.0082       59.0058       59.0140       0.258669       0.00000
  42    0.3336       58.7548        0.0113       59.0022       59.0134       0.258669      -0.00000
  41    0.4307       58.7540        0.0154       58.9973       59.0127       0.258669       0.00000
  40    0.5894       58.7527        0.0220       58.9894       59.0114       0.258669       0.00000
  39     1.339       58.7467        0.0536       58.9518       59.0053       0.258669       0.00000
  38     1.782       58.7431        0.0721       58.9297       59.0018       0.258669       0.00000
  37     2.292       58.7390        0.0935       58.9042       58.9977       0.258669       0.00000
  36     2.964       58.7336        0.1216       58.8706       58.9923       0.258669       0.00000
  35     3.853       58.7265        0.1588       58.8264       58.9851       0.258669      -0.00000
  34     5.035       58.7170        0.2081       58.7676       58.9757       0.258669       0.00000
  33     6.613       58.7044        0.2739       58.6891       58.9630       0.258669       0.00000
  32     8.786       58.6874        0.3626       58.5834       58.9460       0.258669      -0.00000
  31     11.80       58.6630        0.4893       58.4324       58.9217       0.258669      -0.00000
  30     15.07       58.6370        0.6250       58.2706       58.8957       0.258669       0.00000
  29     18.79       58.6076        0.7781       58.0882       58.8663       0.258669       0.00000
  28     23.16       58.5734        0.9564       57.8757       58.8321       0.258669      -0.00000
  27     28.12       58.5344        1.1597       57.6333       58.7930       0.258669       0.00000
  26     33.73       58.4908        1.3864       57.3631       58.7495       0.258669      -0.00000
  25     40.54       58.4385        1.6593       57.0379       58.6971       0.258669       0.00000
  24     48.69       58.3757        1.9864       56.6479       58.6343       0.258669       0.00000
  23     57.69       58.3071        2.3437       56.2221       58.5657       0.258669       0.00000
  22     68.43       58.2260        2.7661       55.7186       58.4846       0.258669      -0.00000
  21     81.20       58.1302        3.2649       55.1239       58.3888       0.258669       0.00000
  20     96.49       58.0172        3.8531       54.4228       58.2759       0.258669       0.00000
  19     114.6       57.8848        4.5424       53.6010       58.1434       0.258669      -0.00000
  18     136.5       57.7302        5.3471       52.6418       57.9888       0.258669      -0.00000
  17     162.9       57.5494        6.2877       51.5203       57.8080       0.258669       0.00000
  16     196.4       57.3202        7.4794       50.0994       57.5789       0.258669      -0.00000
  15     218.7       57.1729        8.2453       49.1863       57.4316       0.258669      -0.00000
  14     243.0       57.0156        9.0630       48.2113       57.2743       0.258669       0.00000
  13     269.0       56.8484        9.9321       47.1749       57.1070       0.258669      -0.00000
  12     297.5       56.6713       10.8517       46.0783       56.9300       0.258669      -0.00000
  11     328.5       56.4842       11.8233       44.9195       56.7429       0.258669       0.00000
  10     361.9       56.2875       12.8443       43.7018       56.5461       0.258669      -0.00000
   9     398.1       56.0811       13.9148       42.4250       56.3398       0.258669      -0.00000
   8     437.6       55.8655       15.0326       41.0916       56.1242       0.258669       0.00000
   7     480.5       55.6412       16.1954       39.7045       55.8998       0.258669      -0.00000
   6     533.0       55.3741       17.5785       38.0543       55.6327       0.258669      -0.00000
   5     589.8       55.0969       19.0125       36.3431       55.3556       0.258669       0.00000
   4     651.6       54.8110       20.4901       34.5795       55.0697       0.258669       0.00000
   3     718.7       54.5175       22.0059       32.7702       54.7761       0.258669       0.00000
   2     792.3       54.2178       23.5509       30.9256       54.4765       0.258669      -0.00000
   1     891.5       36.0409       36.2876        0.0000       36.2876       0.246697       0.00102
   0    1013.0       36.0323       36.2789        0.0000       36.2789       0.246697       0.00000



 Wavenumbers: 29000. - 38000. cm-1, ATM      1
 LEVEL PRESSURE   UPWARD FLUX   DIFDOWN FLUX  DIRDOWN FLUX  DOWNWARD FLUX   NET FLUX    HEATING RATE
          mb          W/m2          W/m2          W/m2        W/m2          W/m2       degree/day
  51    .06700        8.8047        0.0000       20.8114       20.8114      12.006642       0.00000
  50    .07753        8.8045        0.0003       20.8070       20.8074      12.002835       3.05164
  49    .09103        8.8043        0.0007       20.8009       20.8016      11.997298       3.46096
  48    0.1069        8.8041        0.0012       20.7928       20.7939      11.989888       3.94441
  47    0.1255        8.8038        0.0017       20.7820       20.7837      11.979982       4.49048
  46    0.1487        8.8034        0.0024       20.7665       20.7688      11.965419       5.30861
  45    0.1794        8.8030        0.0033       20.7424       20.7457      11.942753       6.22224
  44    0.2165        8.8024        0.0044       20.7103       20.7147      11.912229       6.94363
  43    0.2613        8.8019        0.0056       20.6675       20.6731      11.871233       7.72759
  42    0.3336        8.8010        0.0077       20.5880       20.5957      11.794670       8.92657
  41    0.4307        8.7999        0.0104       20.4722       20.4826      11.682713       9.73438
  40    0.5894        8.7984        0.0147       20.2637       20.2784      11.480021      10.77889
  39     1.339        8.7951        0.0332       19.0984       19.1315      10.336483      12.87416
  38     1.782        8.7956        0.0428       18.4394       18.4821       9.686507      12.37450
  37     2.292        8.7984        0.0530       17.7714       17.8245       9.026088      10.93826
  36     2.964        8.8051        0.0658       17.0421       17.1079       8.302845       9.07889
  35     3.853        8.8181        0.0817       16.2678       16.3496       7.531478       7.32042
  34     5.035        8.8395        0.1019       15.4803       15.5822       6.742701       5.63470
  33     6.613        8.8707        0.1277       14.7157       14.8434       5.972719       4.11632
  32     8.786        8.9119        0.1616       13.9936       14.1551       5.243238       2.83304
  31     11.80        8.9657        0.2087       13.2835       13.4923       4.526551       2.00650
  30     15.07        9.0176        0.2576       12.7394       12.9970       3.979342       1.41279
  29     18.79        9.0713        0.3118       12.2666       12.5784       3.507097       1.07072
  28     23.16        9.1284        0.3735       11.8300       12.2035       3.075062       0.83542
  27     28.12        9.1870        0.4425       11.4279       11.8704       2.683391       0.66581
  26     33.73        9.2411        0.5186       11.0695       11.5880       2.346895       0.50593
  25     40.54        9.2927        0.6095       10.7209       11.3304       2.037673       0.38363
  24     48.69        9.3416        0.7174       10.3742       11.0916       1.749986       0.29771
  23     57.69        9.3820        0.8342       10.0549       10.8891       1.507138       0.22763
  22     68.43        9.4150        0.9712        9.7327       10.7040       1.289000       0.17149
  21     81.20        9.4315        1.1330        9.4134       10.5465       1.114956       0.11501
  20     96.49        9.4296        1.3233        9.0887       10.4120       0.982393       0.07317
  19     114.6        9.4176        1.5431        8.7388       10.2819       0.864328       0.05513
  18     136.5        9.3984        1.7945        8.3549       10.1494       0.750971       0.04359
  17     162.9        9.3724        2.0811        7.9311       10.0123       0.639901       0.03550
  16     196.4        9.3275        2.4363        7.4333        9.8696       0.542057       0.02463
  15     218.7        9.2949        2.6597        7.1295        9.7892       0.494302       0.01813
  14     243.0        9.2592        2.8933        6.8161        9.7094       0.450181       0.01530
  13     269.0        9.2201        3.1363        6.4943        9.6306       0.410541       0.01286
  12     297.5        9.1777        3.3875        6.1657        9.5532       0.375575       0.01037
  11     328.5        9.1334        3.6460        5.8295        9.4755       0.342076       0.00911
  10     361.9        9.0878        3.9094        5.4886        9.3980       0.310195       0.00807
   9     398.1        9.0410        4.1769        5.1440        9.3209       0.279959       0.00704
   8     437.6        8.9935        4.4473        4.7969        9.2442       0.250788       0.00624
   7     480.5        8.9456        4.7183        4.4504        9.1687       0.223073       0.00544
   6     533.0        8.8909        5.0275        4.0563        9.0837       0.192831       0.00487
   5     589.8        8.8373        5.3326        3.6682        9.0008       0.163514       0.00435
   4     651.6        8.7856        5.6299        3.2905        8.9204       0.134796       0.00393
   3     718.7        8.7365        5.9180        2.9252        8.8432       0.106629       0.00354
   2     792.3        8.6908        6.1933        2.5764        8.7698       0.079017       0.00317
   1     891.5        4.8436        4.8991        0.0000        4.8991       0.055492       0.00200
   0    1013.0        4.8475        4.8881        0.0000        4.8881       0.040571       0.00104



 Wavenumbers: 38000. - 50000. cm-1, ATM      1
 LEVEL PRESSURE   UPWARD FLUX   DIFDOWN FLUX  DIRDOWN FLUX  DOWNWARD FLUX   NET FLUX    HEATING RATE
          mb          W/m2          W/m2          W/m2        W/m2          W/m2       degree/day
  51    .06700        0.0061        0.0000        1.2836        1.2836       1.277518       0.00000
  50    .07753        0.0061        0.0001        1.2812        1.2812       1.275183       1.87150
  49    .09103        0.0060        0.0002        1.2777        1.2778       1.271851       2.08247
  48    0.1069        0.0059        0.0002        1.2731        1.2734       1.267473       2.33059
  47    0.1255        0.0058        0.0004        1.2672        1.2675       1.261717       2.60908
  46    0.1487        0.0057        0.0005        1.2586        1.2591       1.253391       3.03499
  45    0.1794        0.0055        0.0007        1.2455        1.2462       1.240623       3.50520
  44    0.2165        0.0054        0.0009        1.2282        1.2291       1.223697       3.85037
  43    0.2613        0.0052        0.0011        1.2054        1.2065       1.201348       4.21261
  42    0.3336        0.0049        0.0015        1.1639        1.1654       1.160524       4.75970
  41    0.4307        0.0045        0.0020        1.1051        1.1070       1.102565       5.03943
  40    0.5894        0.0039        0.0026        1.0039        1.0064       1.002524       5.32007
  39     1.339        0.0022        0.0035        0.5438        0.5473       0.545104       5.14971
  38     1.782        0.0016        0.0032        0.3635        0.3666       0.365006       3.42879
  37     2.292        0.0012        0.0027        0.2356        0.2383       0.237058       2.11916
  36     2.964        0.0009        0.0022        0.1455        0.1477       0.146786       1.13318
  35     3.853        0.0006        0.0017        0.0858        0.0875       0.086906       0.56828
  34     5.035        0.0004        0.0013        0.0488        0.0501       0.049701       0.26578
  33     6.613        0.0003        0.0010        0.0273        0.0282       0.027974       0.11615
  32     8.786        0.0002        0.0007        0.0144        0.0151       0.014928       0.05067
  31     11.80        0.0001        0.0004        0.0065        0.0070       0.006903       0.02247
  30     15.07        0.0000        0.0003        0.0031        0.0034       0.003329       0.00923
  29     18.79        0.0000        0.0002        0.0014        0.0016       0.001583       0.00396
  28     23.16        0.0000        0.0001        0.0006        0.0007       0.000720       0.00167
  27     28.12        0.0000        0.0001        0.0003        0.0003       0.000317       0.00069
  26     33.73        0.0000        0.0000        0.0001        0.0001       0.000140       0.00027
  25     40.54        0.0000        0.0000        0.0000        0.0001       0.000057       0.00010
  24     48.69        0.0000        0.0000        0.0000        0.0000       0.000021       0.00004
  23     57.69        0.0000        0.0000        0.0000        0.0000       0.000008       0.00001
  22     68.43        0.0000        0.0000        0.0000        0.0000       0.000003       0.00000
  21     81.20        0.0000        0.0000        0.0000        0.0000       0.000001       0.00000
  20     96.49        0.0000        0.0000        0.0000        0.0000       0.000000       0.00000
  19     114.6        0.0000        0.0000        0.0000        0.0000       0.000000       0.00000
  18     136.5        0.0000        0.0000        0.0000        0.0000       0.000000       0.00000
  17     162.9        0.0000        0.0000        0.0000        0.0000       0.000000       0.00000
  16     196.4        0.0000        0.0000        0.0000        0.0000       0.000000       0.00000
  15     218.7        0.0000        0.0000        0.0000        0.0000       0.000000       0.00000
  14     243.0        0.0000        0.0000        0.0000        0.0000       0.000000       0.00000
  13     269.0        0.0000        0.0000        0.0000        0.0000       0.000000       0.00000
  12     297.5        0.0000        0.0000        0.0000        0.0000       0.000000       0.00000
  11     328.5        0.0000        0.0000        0.0000        0.0000       0.000000       0.00000
  10     361.9        0.0000        0.0000        0.0000        0.0000       0.000000       0.00000
   9     398.1        0.0000        0.0000        0.0000        0.0000       0.000000       0.00000
   8     437.6        0.0000        0.0000        0.0000        0.0000       0.000000       0.00000
   7     480.5        0.0000        0.0000        0.0000        0.0000       0.000000       0.00000
   6     533.0        0.0000        0.0000        0.0000        0.0000       0.000000       0.00000
   5     589.8        0.0000        0.0000        0.0000        0.0000       0.000000       0.00000
   4     651.6        0.0000        0.0000        0.0000        0.0000       0.000000       0.00000
   3     718.7        0.0000        0.0000        0.0000        0.0000       0.000000       0.00000
   2     792.3        0.0000        0.0000        0.0000        0.0000       0.000000       0.00000
   1     891.5        0.0000        0.0000        0.0000        0.0000       0.000000       0.00000
   0    1013.0        0.0000        0.0000        0.0000        0.0000       0.000000       0.00000



 Wavenumbers:   820. -  2600. cm-1, ATM      1
 LEVEL PRESSURE   UPWARD FLUX   DIFDOWN FLUX  DIRDOWN FLUX  DOWNWARD FLUX   NET FLUX    HEATING RATE
          mb          W/m2          W/m2          W/m2        W/m2          W/m2       degree/day
  51    .06700        1.8340        0.0000        6.0047        6.0047       4.170602       0.00000
  50    .07753        1.8340        0.0000        6.0008        6.0008       4.166749       3.08827
  49    .09103        1.8340        0.0000        5.9999        5.9999       4.165863       0.55363
  48    0.1069        1.8340        0.0000        5.9989        5.9989       4.164874       0.52658
  47    0.1255        1.8340        0.0000        5.9978        5.9978       4.163756       0.50655
  46    0.1487        1.8340        0.0000        5.9964        5.9964       4.162399       0.49463
  45    0.1794        1.8340        0.0000        5.9947        5.9947       4.160680       0.47206
  44    0.2165        1.8340        0.0000        5.9929        5.9929       4.158837       0.41917
  43    0.2613        1.8341        0.0000        5.9909        5.9909       4.156877       0.36940
  42    0.3336        1.8341        0.0000        5.9880        5.9880       4.153999       0.33563
  41    0.4307        1.8341        0.0000        5.9846        5.9846       4.150528       0.30172
  40    0.5894        1.8341        0.0000        5.9791        5.9791       4.145022       0.29284
  39     1.339        1.8341        0.0000        5.9536        5.9536       4.119528       0.28702
  38     1.782        1.8341        0.0000        5.9395        5.9395       4.105385       0.26925
  37     2.292        1.8341        0.0000        5.9237        5.9237       4.089629       0.26096
  36     2.964        1.8341        0.0000        5.9039        5.9039       4.069849       0.24830
  35     3.853        1.8341        0.0000        5.8793        5.8793       4.045185       0.23407
  34     5.035        1.8341        0.0000        5.8487        5.8487       4.014612       0.21841
  33     6.613        1.8341        0.0000        5.8108        5.8108       3.976633       0.20304
  32     8.786        1.8342        0.0000        5.7631        5.7631       3.928990       0.18503
  31     11.80        1.8342        0.0000        5.7039        5.7039       3.869705       0.16598
  30     15.07        1.8342        0.0000        5.6539        5.6539       3.819635       0.12927
  29     18.79        1.8343        0.0000        5.6127        5.6127       3.778464       0.09335
  28     23.16        1.8343        0.0000        5.5794        5.5794       3.745045       0.06462
  27     28.12        1.8344        0.0000        5.5518        5.5518       3.717429       0.04695
  26     33.73        1.8344        0.0000        5.5268        5.5268       3.692319       0.03775
  25     40.54        1.8345        0.0000        5.4993        5.4993       3.664806       0.03413
  24     48.69        1.8346        0.0000        5.4678        5.4678       3.633180       0.03273
  23     57.69        1.8347        0.0000        5.4340        5.4340       3.599296       0.03176
  22     68.43        1.8348        0.0000        5.3947        5.3948       3.559905       0.03097
  21     81.20        1.8350        0.0000        5.3497        5.3497       3.514727       0.02985
  20     96.49        1.8352        0.0000        5.2982        5.2982       3.463033       0.02853
  19     114.6        1.8354        0.0000        5.2389        5.2389       3.403489       0.02780
  18     136.5        1.8357        0.0000        5.1716        5.1717       3.335951       0.02597
  17     162.9        1.8361        0.0000        5.0890        5.0891       3.252920       0.02654
  16     196.4        1.8369        0.0000        4.9668        4.9668       3.129983       0.03094
  15     218.7        1.8376        0.0000        4.8585        4.8585       3.020928       0.04140
  14     243.0        1.8387        0.0000        4.7078        4.7079       2.869194       0.05263
  13     269.0        1.8403        0.0000        4.5343        4.5343       2.693960       0.05684
  12     297.5        1.8430        0.0000        4.3419        4.3420       2.498996       0.05782
  11     328.5        1.8465        0.0000        4.1281        4.1281       2.281633       0.05910
  10     361.9        1.8512        0.0000        3.8786        3.8787       2.027468       0.06431
   9     398.1        1.8573        0.0000        3.6159        3.6160       1.758663       0.06263
   8     437.6        1.8652        0.0000        3.3759        3.3759       1.510722       0.05301
   7     480.5        1.8748        0.0000        3.1957        3.1958       1.320949       0.03727
   6     533.0        1.8895        0.0001        3.0467        3.0467       1.157169       0.02635
   5     589.8        1.9113        0.0001        2.9023        2.9023       0.991042       0.02466
   4     651.6        1.9492        0.0001        2.7183        2.7184       0.769184       0.03034
   3     718.7        2.0157        0.0001        2.5058        2.5059       0.490177       0.03506
   2     792.3        2.1484        0.0001        2.2756        2.2757       0.127322       0.04162
   1     891.5        0.0001        0.0097        0.0000        0.0097       0.009691       0.01001
   0    1013.0        0.0001        0.0083        0.0000        0.0083       0.008278       0.00010

  Modules and versions used in this calculation:

       rrtmg_sw.1col.f90:  $Revision$                    rrtmg_sw_init.f90:  $Revision$        
     rrtmgsw_cldprop.f90:  $Revision$                  rrtmgsw_cldprmc.f90:  NOT USED          
     rrtmg_sw_reftra.f90:  $Revision$                  rrtmg_sw_spcvrt.f90:  NOT USED          
     rrtmg_sw_spcvmc.f90:  NOT USED                    rrtmgsw_setcoef.f90:  NOT USED          
     rrtmg_sw_taumol.f90:  $Revision$                  rrtmg_sw_vrtqdr.f90:  NOT USED          
                rrtatm.f:  NOT USED                             util_xxx.f:  NOT USED          
                 extra.f:  NOT USED                       rrtmg_sw_k_g.f90:  $Revision$        

