

 Wavenumbers:   820. - 50000. cm-1, ATM      1
 LEVEL PRESSURE   UPWARD FLUX   DIFDOWN FLUX  DIRDOWN FLUX  DOWNWARD FLUX   NET FLUX    HEATING RATE
          mb          W/m2          W/m2          W/m2        W/m2          W/m2       degree/day
  51    .06700      418.4420        0.0000      617.8126      617.8126     199.370579       0.00000
  50    .07753      418.4416        0.0014      617.7947      617.7961     199.354438      12.93691
  49    .09103      418.4412        0.0030      617.7778      617.7808     199.339628       9.25693
  48    0.1069      418.4407        0.0050      617.7581      617.7631     199.322366       9.18886
  47    0.1255      418.4402        0.0072      617.7340      617.7412     199.301020       9.67723
  46    0.1487      418.4396        0.0101      617.7009      617.7109     199.271332      10.82141
  45    0.1794      418.4389        0.0139      617.6521      617.6660     199.227098      12.14323
  44    0.2165      418.4382        0.0185      617.5895      617.6080     199.169773      13.04048
  43    0.2613      418.4375        0.0238      617.5089      617.5327     199.095255      14.04634
  42    0.3336      418.4366        0.0327      617.3641      617.3968     198.960160      15.75076
  41    0.4307      418.4359        0.0443      617.1591      617.2035     198.767521      16.74950
  40    0.5894      418.4358        0.0631      616.8005      616.8636     198.427801      18.06590
  39     1.339      418.4534        0.1481      614.9443      615.0924     196.638977      20.13890
  38     1.782      418.4764        0.1959      613.9670      614.1630     195.686541      18.13285
  37     2.292      418.5146        0.2503      613.0059      613.2562     194.741676      15.64943
  36     2.964      418.5820        0.3211      611.9577      612.2788     193.696793      13.11645
  35     3.853      418.6951        0.4139      610.8024      611.2163     192.521134      11.15721
  34     5.035      418.8692        0.5363      609.5327      610.0690     191.199786       9.43917
  33     6.613      419.1144        0.6987      608.1464      608.8452     189.730819       7.85310
  32     8.786      419.4337        0.9167      606.6250      607.5418     188.108038       6.30230
  31     11.80      419.8473        1.2271      604.8486      606.0757     186.228463       5.26222
  30     15.07      420.2408        1.5583      603.2440      604.8022     184.561381       4.30408
  29     18.79      420.6404        1.9309      601.6511      603.5820     182.941680       3.67236
  28     23.16      421.0551        2.3639      599.9927      602.3566     181.301516       3.17155
  27     28.12      421.4686        2.8568      598.2881      601.1448     179.676268       2.76281
  26     33.73      421.8423        3.4062      596.5951      600.0013     178.158989       2.28127
  25     40.54      422.1903        4.0678      594.7727      598.8405     176.650164       1.87187
  24     48.69      422.5094        4.8616      592.7865      597.6481     175.138646       1.56418
  23     57.69      422.7626        5.7293      590.7959      596.5252     173.762638       1.28980
  22     68.43      422.9584        6.7574      588.6191      595.3765     172.418026       1.05704
  21     81.20      423.0450        7.9763      586.2690      594.2452     171.200262       0.80468
  20     96.49      423.0119        9.4194      583.6961      593.1156     170.103608       0.60527
  19     114.6      422.9192       11.1174      580.7708      591.8883     168.969048       0.52976
  18     136.5      422.7643       13.1057      577.4359      590.5416     167.777362       0.45823
  17     162.9      422.5413       15.4392      573.5624      589.0017     166.460309       0.42098
  16     196.4      422.1638       18.4152      568.5907      587.0059     164.842086       0.40733
  15     218.7      421.8868       20.3394      565.0572      585.3966     163.509857       0.50580
  14     243.0      421.5766       22.4034      560.7495      583.1529     161.576250       0.67064
  13     269.0      421.2338       24.6085      555.3947      580.0032     158.769425       0.91052
  12     297.5      420.8619       26.9555      548.9964      575.9519     155.089943       1.09129
  11     328.5      420.4703       29.4509      542.0895      571.5404     151.070142       1.09297
  10     361.9      420.0646       32.0908      534.6242      566.7151     146.650446       1.11823
   9     398.1      419.6527       34.8800      526.4204      561.3004     141.647749       1.16552
   8     437.6      419.2508       37.8171      517.3907      555.2078     135.956925       1.21673
   7     480.5      418.8758       40.9002      507.7216      548.6218     129.746011       1.21980
   6     533.0      418.5178       44.6073      495.9006      540.5079     121.990194       1.24766
   5     589.8      418.3192       48.4979      483.0788      531.5767     113.257524       1.29621
   4     651.6      418.4880       52.5592      468.6907      521.2499     102.761936       1.43530
   3     718.7      419.2991       56.7833      453.2257      510.0091      90.709998       1.51459
   2     792.3      421.4605       61.1483      436.4928      497.6412      76.180683       1.66635
   1     891.5      336.7270      307.6241       88.5693      396.1934      59.466373       1.42231
   0    1013.0      341.5506      301.7253       83.1083      384.8336      43.283000       1.12369



 Wavenumbers:  2600. -  3250. cm-1, ATM      1
 LEVEL PRESSURE   UPWARD FLUX   DIFDOWN FLUX  DIRDOWN FLUX  DOWNWARD FLUX   NET FLUX    HEATING RATE
          mb          W/m2          W/m2          W/m2        W/m2          W/m2       degree/day
  51    .06700        0.9758        0.0000        5.4450        5.4450       4.469253       0.00000
  50    .07753        0.9758        0.0000        5.4450        5.4450       4.469245       0.00640
  49    .09103        0.9758        0.0000        5.4450        5.4450       4.469235       0.00627
  48    0.1069        0.9758        0.0000        5.4450        5.4450       4.469224       0.00613
  47    0.1255        0.9758        0.0000        5.4450        5.4450       4.469211       0.00599
  46    0.1487        0.9758        0.0000        5.4450        5.4450       4.469194       0.00608
  45    0.1794        0.9758        0.0000        5.4450        5.4450       4.469171       0.00625
  44    0.2165        0.9758        0.0000        5.4449        5.4449       4.469144       0.00612
  43    0.2613        0.9758        0.0000        5.4449        5.4449       4.469113       0.00600
  42    0.3336        0.9758        0.0000        5.4448        5.4448       4.469060       0.00617
  41    0.4307        0.9758        0.0000        5.4448        5.4448       4.468988       0.00620
  40    0.5894        0.9758        0.0000        5.4446        5.4446       4.468869       0.00637
  39     1.339        0.9758        0.0000        5.4439        5.4439       4.468161       0.00797
  38     1.782        0.9758        0.0000        5.4434        5.4434       4.467618       0.01034
  37     2.292        0.9758        0.0000        5.4427        5.4427       4.466902       0.01186
  36     2.964        0.9758        0.0000        5.4416        5.4416       4.465863       0.01304
  35     3.853        0.9758        0.0000        5.4402        5.4402       4.464386       0.01402
  34     5.035        0.9758        0.0000        5.4381        5.4381       4.462330       0.01468
  33     6.613        0.9758        0.0000        5.4353        5.4353       4.459549       0.01487
  32     8.786        0.9758        0.0000        5.4317        5.4317       4.455917       0.01411
  31     11.80        0.9758        0.0000        5.4269        5.4269       4.451136       0.01339
  30     15.07        0.9758        0.0000        5.4224        5.4224       4.446608       0.01169
  29     18.79        0.9758        0.0000        5.4180        5.4180       4.442195       0.01001
  28     23.16        0.9758        0.0000        5.4135        5.4135       4.437706       0.00868
  27     28.12        0.9758        0.0000        5.4088        5.4088       4.433055       0.00791
  26     33.73        0.9758        0.0000        5.4036        5.4036       4.427809       0.00789
  25     40.54        0.9758        0.0000        5.3966        5.3967       4.420860       0.00862
  24     48.69        0.9758        0.0000        5.3872        5.3872       4.411371       0.00982
  23     57.69        0.9758        0.0000        5.3754        5.3754       4.399570       0.01106
  22     68.43        0.9759        0.0000        5.3599        5.3599       4.384058       0.01219
  21     81.20        0.9759        0.0000        5.3401        5.3401       4.364190       0.01313
  20     96.49        0.9760        0.0000        5.3155        5.3155       4.339574       0.01359
  19     114.6        0.9760        0.0000        5.2853        5.2854       4.309308       0.01413
  18     136.5        0.9762        0.0001        5.2504        5.2505       4.274304       0.01346
  17     162.9        0.9763        0.0001        5.2111        5.2112       4.234820       0.01262
  16     196.4        0.9766        0.0001        5.1640        5.1641       4.187494       0.01191
  15     218.7        0.9769        0.0001        5.1331        5.1332       4.156287       0.01185
  14     243.0        0.9774        0.0001        5.0962        5.0963       4.118923       0.01296
  13     269.0        0.9781        0.0001        5.0511        5.0512       4.073063       0.01488
  12     297.5        0.9793        0.0001        4.9956        4.9957       4.016455       0.01679
  11     328.5        0.9808        0.0001        4.9304        4.9305       3.949649       0.01816
  10     361.9        0.9830        0.0001        4.8511        4.8512       3.868205       0.02061
   9     398.1        0.9861        0.0001        4.7507        4.7508       3.764782       0.02410
   8     437.6        0.9903        0.0002        4.6220        4.6222       3.631945       0.02840
   7     480.5        0.9961        0.0002        4.4625        4.4626       3.466559       0.03248
   6     533.0        1.0056        0.0002        4.2460        4.2462       3.240594       0.03635
   5     589.8        1.0202        0.0002        3.9954        3.9956       2.975369       0.03937
   4     651.6        1.0444        0.0002        3.7089        3.7090       2.664632       0.04249
   3     718.7        1.0846        0.0002        3.4018        3.4020       2.317398       0.04364
   2     792.3        1.1582        0.0002        3.0564        3.0566       1.898456       0.04805
   1     891.5        0.0128        0.9271        0.5526        1.4797       1.466916       0.03672
   0    1013.0        0.0148        0.7620        0.4460        1.2081       1.193285       0.01900



 Wavenumbers:  3250. -  4000. cm-1, ATM      1
 LEVEL PRESSURE   UPWARD FLUX   DIFDOWN FLUX  DIRDOWN FLUX  DOWNWARD FLUX   NET FLUX    HEATING RATE
          mb          W/m2          W/m2          W/m2        W/m2          W/m2       degree/day
  51    .06700        0.0261        0.0000        9.1795        9.1795       9.153443       0.00000
  50    .07753        0.0261        0.0000        9.1747        9.1747       9.148601       3.88148
  49    .09103        0.0261        0.0000        9.1713        9.1713       9.145213       2.11747
  48    0.1069        0.0261        0.0000        9.1688        9.1688       9.142688       1.34402
  47    0.1255        0.0261        0.0000        9.1665        9.1665       9.140429       1.02422
  46    0.1487        0.0261        0.0000        9.1641        9.1641       9.137987       0.88991
  45    0.1794        0.0261        0.0000        9.1612        9.1612       9.135109       0.79008
  44    0.2165        0.0261        0.0000        9.1583        9.1583       9.132189       0.66430
  43    0.2613        0.0261        0.0000        9.1553        9.1553       9.129216       0.56041
  42    0.3336        0.0261        0.0000        9.1511        9.1511       9.125037       0.48723
  41    0.4307        0.0261        0.0000        9.1464        9.1464       9.120269       0.41459
  40    0.5894        0.0261        0.0000        9.1393        9.1394       9.113263       0.37255
  39     1.339        0.0261        0.0000        9.1127        9.1127       9.086650       0.29962
  38     1.782        0.0261        0.0000        9.1011        9.1011       9.075061       0.22062
  37     2.292        0.0261        0.0000        9.0901        9.0901       9.063995       0.18329
  36     2.964        0.0261        0.0000        9.0776        9.0776       9.051565       0.15603
  35     3.853        0.0261        0.0000        9.0629        9.0629       9.036775       0.14036
  34     5.035        0.0261        0.0000        9.0441        9.0441       9.018036       0.13386
  33     6.613        0.0261        0.0000        9.0191        9.0191       8.993034       0.13366
  32     8.786        0.0261        0.0000        8.9843        8.9843       8.958251       0.13509
  31     11.80        0.0261        0.0000        8.9327        8.9327       8.906634       0.14451
  30     15.07        0.0261        0.0000        8.8758        8.8759       8.849789       0.14676
  29     18.79        0.0261        0.0000        8.8110        8.8110       8.784962       0.14698
  28     23.16        0.0261        0.0000        8.7365        8.7366       8.710517       0.14395
  27     28.12        0.0260        0.0000        8.6554        8.6555       8.629404       0.13789
  26     33.73        0.0260        0.0000        8.5719        8.5719       8.545905       0.12554
  25     40.54        0.0260        0.0001        8.4812        8.4812       8.455181       0.11255
  24     48.69        0.0260        0.0001        8.3838        8.3839       8.357880       0.10069
  23     57.69        0.0260        0.0001        8.2861        8.2862       8.260144       0.09161
  22     68.43        0.0260        0.0001        8.1751        8.1751       8.149148       0.08726
  21     81.20        0.0260        0.0001        8.0457        8.0458       8.019789       0.08548
  20     96.49        0.0260        0.0001        7.8949        7.8950       7.869086       0.08318
  19     114.6        0.0259        0.0001        7.7162        7.7163       7.690376       0.08344
  18     136.5        0.0259        0.0002        7.5193        7.5195       7.493532       0.07569
  17     162.9        0.0259        0.0002        7.2913        7.2915       7.265640       0.07284
  16     196.4        0.0259        0.0002        6.9660        6.9662       6.940366       0.08188
  15     218.7        0.0258        0.0002        6.6648        6.6650       6.639173       0.11435
  14     243.0        0.0258        0.0002        6.2619        6.2622       6.236368       0.13971
  13     269.0        0.0258        0.0003        5.7576        5.7579       5.732042       0.16360
  12     297.5        0.0259        0.0003        5.1719        5.1722       5.146295       0.17373
  11     328.5        0.0259        0.0002        4.5757        4.5760       4.550038       0.16212
  10     361.9        0.0261        0.0002        3.9995        3.9998       3.973701       0.14582
   9     398.1        0.0263        0.0002        3.4655        3.4657       3.439379       0.12448
   8     437.6        0.0268        0.0002        2.9740        2.9743       2.947491       0.10517
   7     480.5        0.0275        0.0002        2.5307        2.5309       2.503404       0.08722
   6     533.0        0.0288        0.0002        2.0614        2.0616       2.032731       0.07572
   5     589.8        0.0313        0.0002        1.6150        1.6151       1.583786       0.06664
   4     651.6        0.0366        0.0001        1.1565        1.1566       1.119984       0.06343
   3     718.7        0.0482        0.0001        0.7390        0.7391       0.690904       0.05392
   2     792.3        0.0791        0.0001        0.3985        0.3985       0.319460       0.04260
   1     891.5        0.0000        0.0400        0.0244        0.0644       0.064345       0.02171
   0    1013.0        0.0003        0.0041        0.0020        0.0062       0.005816       0.00406



 Wavenumbers:  4000. -  4650. cm-1, ATM      1
 LEVEL PRESSURE   UPWARD FLUX   DIFDOWN FLUX  DIRDOWN FLUX  DOWNWARD FLUX   NET FLUX    HEATING RATE
          mb          W/m2          W/m2          W/m2        W/m2          W/m2       degree/day
  51    .06700        3.5494        0.0000       10.7795       10.7795       7.230149       0.00000
  50    .07753        3.5494        0.0000       10.7795       10.7795       7.230148       0.00080
  49    .09103        3.5494        0.0000       10.7795       10.7795       7.230147       0.00078
  48    0.1069        3.5494        0.0000       10.7795       10.7795       7.230146       0.00076
  47    0.1255        3.5494        0.0000       10.7795       10.7795       7.230144       0.00075
  46    0.1487        3.5494        0.0000       10.7795       10.7795       7.230142       0.00076
  45    0.1794        3.5494        0.0000       10.7795       10.7795       7.230139       0.00078
  44    0.2165        3.5494        0.0000       10.7795       10.7795       7.230136       0.00076
  43    0.2613        3.5494        0.0000       10.7795       10.7795       7.230132       0.00075
  42    0.3336        3.5494        0.0000       10.7795       10.7795       7.230125       0.00077
  41    0.4307        3.5494        0.0000       10.7795       10.7795       7.230116       0.00077
  40    0.5894        3.5494        0.0000       10.7795       10.7795       7.230101       0.00080
  39     1.339        3.5494        0.0000       10.7794       10.7794       7.230012       0.00101
  38     1.782        3.5494        0.0000       10.7793       10.7793       7.229942       0.00133
  37     2.292        3.5494        0.0000       10.7792       10.7792       7.229848       0.00156
  36     2.964        3.5494        0.0000       10.7791       10.7791       7.229708       0.00176
  35     3.853        3.5494        0.0000       10.7789       10.7789       7.229499       0.00198
  34     5.035        3.5494        0.0000       10.7786       10.7786       7.229192       0.00219
  33     6.613        3.5494        0.0000       10.7781       10.7781       7.228740       0.00242
  32     8.786        3.5494        0.0000       10.7774       10.7774       7.228073       0.00259
  31     11.80        3.5494        0.0001       10.7763       10.7764       7.227024       0.00294
  30     15.07        3.5494        0.0001       10.7751       10.7752       7.225794       0.00318
  29     18.79        3.5494        0.0001       10.7736       10.7737       7.224306       0.00337
  28     23.16        3.5494        0.0001       10.7717       10.7718       7.222459       0.00357
  27     28.12        3.5494        0.0001       10.7695       10.7696       7.220222       0.00380
  26     33.73        3.5494        0.0001       10.7667       10.7668       7.217464       0.00415
  25     40.54        3.5494        0.0002       10.7629       10.7631       7.213722       0.00464
  24     48.69        3.5494        0.0002       10.7579       10.7581       7.208735       0.00516
  23     57.69        3.5494        0.0002       10.7520       10.7522       7.202822       0.00554
  22     68.43        3.5495        0.0003       10.7446       10.7449       7.195410       0.00583
  21     81.20        3.5496        0.0003       10.7355       10.7359       7.186282       0.00603
  20     96.49        3.5497        0.0004       10.7245       10.7249       7.175172       0.00613
  19     114.6        3.5499        0.0005       10.7107       10.7112       7.161277       0.00649
  18     136.5        3.5502        0.0006       10.6942       10.6948       7.144534       0.00644
  17     162.9        3.5507        0.0007       10.6740       10.6747       7.124002       0.00656
  16     196.4        3.5515        0.0008       10.6464       10.6472       7.095676       0.00713
  15     218.7        3.5523        0.0009       10.6255       10.6264       7.074129       0.00818
  14     243.0        3.5533        0.0010       10.5980       10.5991       7.045733       0.00985
  13     269.0        3.5550        0.0011       10.5611       10.5622       7.007249       0.01248
  12     297.5        3.5574        0.0013       10.5119       10.5132       6.955812       0.01526
  11     328.5        3.5607        0.0014       10.4499       10.4513       6.890551       0.01774
  10     361.9        3.5651        0.0015       10.3702       10.3717       6.806622       0.02123
   9     398.1        3.5706        0.0017       10.2678       10.2694       6.698869       0.02510
   8     437.6        3.5776        0.0018       10.1390       10.1408       6.563205       0.02901
   7     480.5        3.5866        0.0019        9.9877        9.9896       6.403063       0.03145
   6     533.0        3.6004        0.0021        9.7937        9.7958       6.195356       0.03341
   5     589.8        3.6205        0.0023        9.5752        9.5775       5.956946       0.03539
   4     651.6        3.6529        0.0025        9.2958        9.2983       5.645398       0.04261
   3     718.7        3.7073        0.0027        8.9267        8.9294       5.222133       0.05319
   2     792.3        3.8091        0.0028        8.4542        8.4570       4.647951       0.06585
   1     891.5        0.6552        3.0176        1.6677        4.6853       4.030014       0.05258
   0    1013.0        0.6980        2.7700        1.5141        4.2840       3.585987       0.03083



 Wavenumbers:  4650. -  5150. cm-1, ATM      1
 LEVEL PRESSURE   UPWARD FLUX   DIFDOWN FLUX  DIRDOWN FLUX  DOWNWARD FLUX   NET FLUX    HEATING RATE
          mb          W/m2          W/m2          W/m2        W/m2          W/m2       degree/day
  51    .06700        2.3741        0.0000       10.2033       10.2033       7.829209       0.00000
  50    .07753        2.3741        0.0000       10.2031       10.2031       7.828973       0.18901
  49    .09103        2.3741        0.0000       10.2028       10.2028       7.828679       0.18428
  48    0.1069        2.3741        0.0000       10.2025       10.2025       7.828342       0.17931
  47    0.1255        2.3741        0.0000       10.2021       10.2021       7.827957       0.17426
  46    0.1487        2.3741        0.0000       10.2016       10.2016       7.827476       0.17536
  45    0.1794        2.3741        0.0000       10.2010       10.2010       7.826826       0.17850
  44    0.2165        2.3741        0.0000       10.2002       10.2002       7.826067       0.17277
  43    0.2613        2.3741        0.0000       10.1993       10.1993       7.825181       0.16690
  42    0.3336        2.3741        0.0000       10.1979       10.1979       7.823749       0.16702
  41    0.4307        2.3741        0.0000       10.1960       10.1960       7.821908       0.16002
  40    0.5894        2.3741        0.0000       10.1932       10.1932       7.819034       0.15283
  39     1.339        2.3741        0.0000       10.1816       10.1816       7.807443       0.13050
  38     1.782        2.3741        0.0000       10.1760       10.1760       7.801914       0.10526
  37     2.292        2.3741        0.0000       10.1706       10.1706       7.796457       0.09037
  36     2.964        2.3741        0.0000       10.1646       10.1647       7.790534       0.07436
  35     3.853        2.3741        0.0000       10.1584       10.1584       7.784319       0.05898
  34     5.035        2.3741        0.0000       10.1521       10.1521       7.777983       0.04526
  33     6.613        2.3741        0.0000       10.1456       10.1456       7.771524       0.03453
  32     8.786        2.3741        0.0001       10.1386       10.1386       7.764511       0.02724
  31     11.80        2.3741        0.0001       10.1295       10.1296       7.755466       0.02532
  30     15.07        2.3741        0.0001       10.1196       10.1197       7.745580       0.02552
  29     18.79        2.3741        0.0001       10.1076       10.1077       7.733562       0.02725
  28     23.16        2.3742        0.0001       10.0923       10.0924       7.718243       0.02962
  27     28.12        2.3742        0.0002       10.0731       10.0733       7.699128       0.03249
  26     33.73        2.3742        0.0002       10.0500       10.0502       7.676005       0.03477
  25     40.54        2.3743        0.0003       10.0201       10.0204       7.646061       0.03715
  24     48.69        2.3744        0.0003        9.9820        9.9823       7.607829       0.03956
  23     57.69        2.3746        0.0004        9.9384        9.9388       7.564213       0.04088
  22     68.43        2.3748        0.0004        9.8858        9.8862       7.511372       0.04154
  21     81.20        2.3751        0.0005        9.8234        9.8239       7.448828       0.04133
  20     96.49        2.3756        0.0006        9.7518        9.7524       7.376797       0.03976
  19     114.6        2.3762        0.0007        9.6719        9.6726       7.296448       0.03752
  18     136.5        2.3770        0.0008        9.5858        9.5866       7.209596       0.03340
  17     162.9        2.3782        0.0010        9.4940        9.4950       7.116785       0.02967
  16     196.4        2.3801        0.0012        9.3883        9.3894       7.009342       0.02704
  15     218.7        2.3816        0.0013        9.3229        9.3242       6.942627       0.02533
  14     243.0        2.3835        0.0014        9.2520        9.2534       6.869892       0.02523
  13     269.0        2.3861        0.0016        9.1717        9.1732       6.787119       0.02685
  12     297.5        2.3898        0.0017        9.0763        9.0780       6.688243       0.02933
  11     328.5        2.3945        0.0019        8.9650        8.9668       6.572326       0.03152
  10     361.9        2.4007        0.0020        8.8349        8.8370       6.436276       0.03442
   9     398.1        2.4087        0.0022        8.6820        8.6842       6.275523       0.03745
   8     437.6        2.4192        0.0024        8.5028        8.5052       6.086022       0.04052
   7     480.5        2.4328        0.0026        8.2948        8.2974       5.864574       0.04349
   6     533.0        2.4537        0.0028        8.0209        8.0237       5.569993       0.04739
   5     589.8        2.4827        0.0030        7.7063        7.7093       5.226555       0.05098
   4     651.6        2.5259        0.0032        7.3412        7.3444       4.818481       0.05581
   3     718.7        2.5914        0.0033        6.9387        6.9420       4.350602       0.05880
   2     792.3        2.6963        0.0035        6.5066        6.5101       3.813809       0.06156
   1     891.5        0.1686        2.1848        1.2700        3.4548       3.286149       0.04490
   0    1013.0        0.1827        1.9733        1.1345        3.1077       2.925023       0.02507



 Wavenumbers:  5150. -  6150. cm-1, ATM      1
 LEVEL PRESSURE   UPWARD FLUX   DIFDOWN FLUX  DIRDOWN FLUX  DOWNWARD FLUX   NET FLUX    HEATING RATE
          mb          W/m2          W/m2          W/m2        W/m2          W/m2       degree/day
  51    .06700        6.2587        0.0000       25.5798       25.5798      19.321137       0.00000
  50    .07753        6.2587        0.0000       25.5798       25.5798      19.321098       0.03159
  49    .09103        6.2587        0.0000       25.5797       25.5797      19.321047       0.03208
  48    0.1069        6.2587        0.0000       25.5797       25.5797      19.320985       0.03258
  47    0.1255        6.2587        0.0000       25.5796       25.5796      19.320912       0.03309
  46    0.1487        6.2587        0.0000       25.5795       25.5795      19.320817       0.03486
  45    0.1794        6.2587        0.0000       25.5794       25.5794      19.320682       0.03710
  44    0.2165        6.2587        0.0000       25.5792       25.5792      19.320516       0.03766
  43    0.2613        6.2587        0.0000       25.5790       25.5790      19.320313       0.03824
  42    0.3336        6.2587        0.0000       25.5786       25.5786      19.319967       0.04040
  41    0.4307        6.2587        0.0000       25.5782       25.5782      19.319496       0.04095
  40    0.5894        6.2587        0.0000       25.5774       25.5774      19.318707       0.04196
  39     1.339        6.2587        0.0000       25.5735       25.5736      19.314906       0.04279
  38     1.782        6.2587        0.0000       25.5713       25.5714      19.312693       0.04213
  37     2.292        6.2587        0.0001       25.5688       25.5688      19.310189       0.04148
  36     2.964        6.2586        0.0001       25.5656       25.5657      19.307007       0.03994
  35     3.853        6.2586        0.0001       25.5615       25.5616      19.302964       0.03837
  34     5.035        6.2586        0.0001       25.5562       25.5564      19.297757       0.03720
  33     6.613        6.2586        0.0002       25.5494       25.5496      19.291002       0.03611
  32     8.786        6.2586        0.0003       25.5406       25.5409      19.282249       0.03400
  31     11.80        6.2586        0.0003       25.5287       25.5290      19.270410       0.03314
  30     15.07        6.2586        0.0004       25.5167       25.5171      19.258539       0.03065
  29     18.79        6.2586        0.0005       25.5042       25.5047      19.246127       0.02814
  28     23.16        6.2586        0.0007       25.4907       25.4913      19.232758       0.02585
  27     28.12        6.2586        0.0008       25.4764       25.4773      19.218660       0.02397
  26     33.73        6.2586        0.0010       25.4620       25.4630      19.204372       0.02148
  25     40.54        6.2587        0.0012       25.4463       25.4474      19.188747       0.01938
  24     48.69        6.2588        0.0014       25.4294       25.4308      19.172012       0.01732
  23     57.69        6.2589        0.0017       25.4126       25.4143      19.155393       0.01558
  22     68.43        6.2590        0.0020       25.3944       25.3964      19.137346       0.01419
  21     81.20        6.2593        0.0023       25.3744       25.3768      19.117482       0.01313
  20     96.49        6.2596        0.0028       25.3519       25.3547      19.095154       0.01232
  19     114.6        6.2599        0.0033       25.3262       25.3295      19.069544       0.01196
  18     136.5        6.2604        0.0039       25.2962       25.3001      19.039730       0.01146
  17     162.9        6.2610        0.0046       25.2521       25.2567      18.995790       0.01405
  16     196.4        6.2618        0.0056       25.1593       25.1649      18.903109       0.02333
  15     218.7        6.2624        0.0062       25.0159       25.0221      18.759732       0.05443
  14     243.0        6.2632        0.0068       24.7089       24.7157      18.452545       0.10654
  13     269.0        6.2642        0.0074       24.1619       24.1693      17.905022       0.17761
  12     297.5        6.2658        0.0080       23.4544       23.4624      17.196624       0.21010
  11     328.5        6.2678        0.0086       22.7355       22.7441      16.476266       0.19586
  10     361.9        6.2706        0.0092       21.9224       21.9316      15.661061       0.20625
   9     398.1        6.2744        0.0098       20.9939       21.0037      14.729336       0.21707
   8     437.6        6.2797        0.0103       19.9833       19.9937      13.713957       0.21709
   7     480.5        6.2872        0.0108       18.9483       18.9591      12.671980       0.20464
   6     533.0        6.2999        0.0114       17.7796       17.7910      11.491096       0.18997
   5     589.8        6.3207        0.0120       16.6726       16.6846      10.363852       0.16732
   4     651.6        6.3589        0.0126       15.6343       15.6469       9.287943       0.14713
   3     718.7        6.4291        0.0133       14.7738       14.7870       8.357920       0.11688
   2     792.3        6.5688        0.0140       14.0291       14.0431       7.474262       0.10135
   1     891.5        1.3768        5.1703        2.7989        7.9693       6.592495       0.07503
   0    1013.0        1.4370        4.8128        2.5756        7.3884       5.951355       0.04452



 Wavenumbers:  6150. -  7700. cm-1, ATM      1
 LEVEL PRESSURE   UPWARD FLUX   DIFDOWN FLUX  DIRDOWN FLUX  DOWNWARD FLUX   NET FLUX    HEATING RATE
          mb          W/m2          W/m2          W/m2        W/m2          W/m2       degree/day
  51    .06700       10.2110        0.0000       47.3109       47.3109      37.099893       0.00000
  50    .07753       10.2110        0.0000       47.3108       47.3108      37.099837       0.04553
  49    .09103       10.2110        0.0000       47.3107       47.3107      37.099763       0.04583
  48    0.1069       10.2110        0.0000       47.3106       47.3106      37.099677       0.04614
  47    0.1255       10.2110        0.0000       47.3105       47.3105      37.099574       0.04645
  46    0.1487       10.2110        0.0000       47.3104       47.3104      37.099441       0.04852
  45    0.1794       10.2110        0.0000       47.3102       47.3102      37.099254       0.05127
  44    0.2165       10.2110        0.0000       47.3100       47.3100      37.099027       0.05167
  43    0.2613       10.2109        0.0000       47.3097       47.3097      37.098751       0.05210
  42    0.3336       10.2109        0.0000       47.3092       47.3092      37.098282       0.05471
  41    0.4307       10.2109        0.0000       47.3085       47.3086      37.097647       0.05521
  40    0.5894       10.2109        0.0001       47.3074       47.3075      37.096587       0.05633
  39     1.339       10.2109        0.0002       47.3022       47.3023      37.091495       0.05733
  38     1.782       10.2108        0.0002       47.2991       47.2993      37.088525       0.05655
  37     2.292       10.2108        0.0003       47.2956       47.2959      37.085149       0.05591
  36     2.964       10.2107        0.0004       47.2912       47.2915      37.080831       0.05421
  35     3.853       10.2106        0.0005       47.2855       47.2859      37.075296       0.05252
  34     5.035       10.2105        0.0006       47.2780       47.2786      37.068116       0.05129
  33     6.613       10.2104        0.0008       47.2683       47.2691      37.058728       0.05019
  32     8.786       10.2102        0.0010       47.2556       47.2566      37.046429       0.04777
  31     11.80       10.2099        0.0014       47.2380       47.2395      37.029525       0.04732
  30     15.07       10.2096        0.0018       47.2201       47.2219      37.012238       0.04463
  29     18.79       10.2093        0.0023       47.2008       47.2031      36.993758       0.04190
  28     23.16       10.2089        0.0028       47.1795       47.1823      36.973368       0.03943
  27     28.12       10.2085        0.0034       47.1565       47.1599      36.951375       0.03739
  26     33.73       10.2080        0.0040       47.1324       47.1364      36.928454       0.03446
  25     40.54       10.2074        0.0048       47.1054       47.1102      36.902818       0.03180
  24     48.69       10.2067        0.0058       47.0754       47.0813      36.874565       0.02924
  23     57.69       10.2059        0.0069       47.0449       47.0518      36.845945       0.02683
  22     68.43       10.2050        0.0082       47.0110       47.0192      36.814209       0.02495
  21     81.20       10.2038        0.0097       46.9729       46.9826      36.778717       0.02345
  20     96.49       10.2025        0.0115       46.9294       46.9409      36.738379       0.02226
  19     114.6       10.2009        0.0137       46.8790       46.8927      36.691750       0.02177
  18     136.5       10.1991        0.0162       46.8200       46.8362      36.637134       0.02100
  17     162.9       10.1969        0.0193       46.7361       46.7554      36.558525       0.02513
  16     196.4       10.1941        0.0232       46.5703       46.5935      36.399360       0.04006
  15     218.7       10.1924        0.0257       46.3473       46.3730      36.180642       0.08304
  14     243.0       10.1908        0.0284       45.9299       45.9583      35.767492       0.14329
  13     269.0       10.1894        0.0310       45.1708       45.2018      35.012363       0.24496
  12     297.5       10.1889        0.0336       44.0115       44.0451      33.856181       0.34291
  11     328.5       10.1893        0.0362       42.7242       42.7604      32.571080       0.34942
  10     361.9       10.1914        0.0388       41.3539       41.3928      31.201397       0.34654
   9     398.1       10.1959        0.0414       39.7953       39.8366      29.640779       0.36359
   8     437.6       10.2044        0.0437       37.9948       38.0385      27.834111       0.38628
   7     480.5       10.2188        0.0459       36.0647       36.1107      25.891823       0.38146
   6     533.0       10.2470        0.0483       33.7773       33.8256      23.578543       0.37213
   5     589.8       10.2973        0.0503       31.4082       31.4585      21.161212       0.35881
   4     651.6       10.3956        0.0519       28.8834       28.9353      18.539729       0.35849
   3     718.7       10.5834        0.0532       26.4104       26.4636      15.880164       0.33423
   2     792.3       10.9770        0.0542       24.0056       24.0598      13.082842       0.32082
   1     891.5        2.5370        8.4936        4.5430       13.0366      10.499631       0.21982
   0    1013.0        2.7276        7.5848        3.9824       11.5673       8.839666       0.11526



 Wavenumbers:  7700. -  8050. cm-1, ATM      1
 LEVEL PRESSURE   UPWARD FLUX   DIFDOWN FLUX  DIRDOWN FLUX  DOWNWARD FLUX   NET FLUX    HEATING RATE
          mb          W/m2          W/m2          W/m2        W/m2          W/m2       degree/day
  51    .06700        6.4245        0.0000       11.1810       11.1810       4.756418       0.00000
  50    .07753        6.4245        0.0000       11.1809       11.1809       4.756396       0.01776
  49    .09103        6.4246        0.0000       11.1809       11.1809       4.756368       0.01740
  48    0.1069        6.4246        0.0000       11.1809       11.1809       4.756336       0.01704
  47    0.1255        6.4246        0.0000       11.1809       11.1809       4.756299       0.01667
  46    0.1487        6.4246        0.0000       11.1808       11.1808       4.756253       0.01692
  45    0.1794        6.4246        0.0000       11.1808       11.1808       4.756189       0.01741
  44    0.2165        6.4246        0.0000       11.1807       11.1807       4.756114       0.01708
  43    0.2613        6.4246        0.0000       11.1806       11.1806       4.756026       0.01676
  42    0.3336        6.4246        0.0000       11.1805       11.1805       4.755878       0.01715
  41    0.4307        6.4247        0.0000       11.1803       11.1804       4.755683       0.01696
  40    0.5894        6.4247        0.0000       11.1801       11.1801       4.755365       0.01694
  39     1.339        6.4250        0.0001       11.1788       11.1789       4.753858       0.01697
  38     1.782        6.4252        0.0001       11.1781       11.1782       4.752972       0.01685
  37     2.292        6.4254        0.0001       11.1772       11.1773       4.751948       0.01697
  36     2.964        6.4256        0.0002       11.1761       11.1762       4.750602       0.01689
  35     3.853        6.4260        0.0002       11.1746       11.1748       4.748825       0.01687
  34     5.035        6.4264        0.0003       11.1726       11.1729       4.746464       0.01687
  33     6.613        6.4270        0.0004       11.1700       11.1703       4.743310       0.01686
  32     8.786        6.4278        0.0005       11.1664       11.1669       4.739061       0.01650
  31     11.80        6.4290        0.0007       11.1613       11.1620       4.732987       0.01701
  30     15.07        6.4302        0.0008       11.1558       11.1567       4.726471       0.01682
  29     18.79        6.4316        0.0011       11.1497       11.1507       4.719116       0.01668
  28     23.16        6.4333        0.0013       11.1425       11.1438       4.710536       0.01659
  27     28.12        6.4352        0.0016       11.1343       11.1359       4.700739       0.01665
  26     33.73        6.4373        0.0019       11.1252       11.1271       4.689794       0.01645
  25     40.54        6.4399        0.0023       11.1142       11.1165       4.676601       0.01637
  24     48.69        6.4430        0.0027       11.1010       11.1037       4.660739       0.01641
  23     57.69        6.4465        0.0032       11.0866       11.0898       4.643371       0.01628
  22     68.43        6.4506        0.0038       11.0695       11.0734       4.622765       0.01620
  21     81.20        6.4556        0.0045       11.0494       11.0539       4.598327       0.01615
  20     96.49        6.4616        0.0054       11.0255       11.0309       4.569365       0.01598
  19     114.6        6.4687        0.0064       10.9975       11.0039       4.535199       0.01595
  18     136.5        6.4773        0.0076       10.9648       10.9724       4.495003       0.01546
  17     162.9        6.4878        0.0090       10.9263       10.9353       4.447541       0.01517
  16     196.4        6.5015        0.0108       10.8773       10.8881       4.386602       0.01534
  15     218.7        6.5107        0.0120       10.8455       10.8576       4.346902       0.01507
  14     243.0        6.5208        0.0133       10.8114       10.8248       4.303971       0.01489
  13     269.0        6.5320        0.0148       10.7749       10.7896       4.257624       0.01503
  12     297.5        6.5444        0.0163       10.7357       10.7520       4.207607       0.01483
  11     328.5        6.5581        0.0179       10.6937       10.7117       4.153575       0.01469
  10     361.9        6.5733        0.0197       10.6489       10.6686       4.095268       0.01475
   9     398.1        6.5902        0.0216       10.6008       10.6224       4.032138       0.01471
   8     437.6        6.6092        0.0236       10.5491       10.5727       3.963504       0.01467
   7     480.5        6.6305        0.0258       10.4934       10.5193       3.888726       0.01469
   6     533.0        6.6584        0.0285       10.4243       10.4528       3.794437       0.01517
   5     589.8        6.6908        0.0314       10.3479       10.3793       3.688469       0.01573
   4     651.6        6.7298        0.0345       10.2613       10.2959       3.566017       0.01675
   3     718.7        6.7777        0.0378       10.1618       10.1996       3.421883       0.01811
   2     792.3        6.8385        0.0413       10.0439       10.0852       3.246657       0.02010
   1     891.5        4.0212        4.9402        2.1105        7.0507       3.029529       0.01848
   0    1013.0        4.1073        4.8327        2.0565        6.8893       2.781936       0.01719



 Wavenumbers:  8050. - 12850. cm-1, ATM      1
 LEVEL PRESSURE   UPWARD FLUX   DIFDOWN FLUX  DIRDOWN FLUX  DOWNWARD FLUX   NET FLUX    HEATING RATE
          mb          W/m2          W/m2          W/m2        W/m2          W/m2       degree/day
  51    .06700       99.3023        0.0000      156.5418      156.5418      57.239487       0.00000
  50    .07753       99.3023        0.0000      156.5417      156.5417      57.239487       0.00000
  49    .09103       99.3022        0.0001      156.5417      156.5417      57.239487       0.00000
  48    0.1069       99.3022        0.0001      156.5416      156.5417      57.239487       0.00000
  47    0.1255       99.3022        0.0002      156.5415      156.5417      57.239487      -0.00000
  46    0.1487       99.3022        0.0002      156.5414      156.5417      57.239487      -0.00000
  45    0.1794       99.3021        0.0003      156.5413      156.5416      57.239487       0.00000
  44    0.2165       99.3021        0.0004      156.5412      156.5416      57.239487      -0.00000
  43    0.2613       99.3021        0.0006      156.5410      156.5415      57.239487       0.00000
  42    0.3336       99.3020        0.0008      156.5407      156.5415      57.239487      -0.00000
  41    0.4307       99.3019        0.0011      156.5403      156.5414      57.239487      -0.00000
  40    0.5894       99.3017        0.0015      156.5397      156.5412      57.239487       0.00000
  39     1.339       99.3009        0.0037      156.5367      156.5404      57.239487       0.00000
  38     1.782       99.3004        0.0049      156.5350      156.5399      57.239487      -0.00000
  37     2.292       99.2999        0.0064      156.5330      156.5394      57.239487       0.00000
  36     2.964       99.2992        0.0083      156.5303      156.5387      57.239487       0.00000
  35     3.853       99.2983        0.0109      156.5268      156.5377      57.239487      -0.00000
  34     5.035       99.2970        0.0143      156.5222      156.5365      57.239487       0.00000
  33     6.613       99.2953        0.0188      156.5160      156.5348      57.239487      -0.00000
  32     8.786       99.2931        0.0249      156.5076      156.5326      57.239487       0.00000
  31     11.80       99.2899        0.0337      156.4957      156.5293      57.239487       0.00000
  30     15.07       99.2864        0.0431      156.4828      156.5259      57.239487       0.00000
  29     18.79       99.2825        0.0537      156.4682      156.5220      57.239487      -0.00000
  28     23.16       99.2779        0.0662      156.4512      156.5174      57.239487      -0.00000
  27     28.12       99.2727        0.0804      156.4317      156.5121      57.239487       0.00000
  26     33.73       99.2668        0.0964      156.4099      156.5063      57.239487       0.00000
  25     40.54       99.2597        0.1157      156.3834      156.4991      57.239487      -0.00000
  24     48.69       99.2511        0.1390      156.3515      156.4906      57.239487       0.00000
  23     57.69       99.2416        0.1647      156.3164      156.4811      57.239487      -0.00000
  22     68.43       99.2304        0.1953      156.2746      156.4698      57.239487       0.00000
  21     81.20       99.2169        0.2318      156.2246      156.4564      57.239487      -0.00000
  20     96.49       99.2008        0.2754      156.1649      156.4403      57.239487       0.00000
  19     114.6       99.1819        0.3272      156.0879      156.4152      57.233248       0.00291
  18     136.5       99.1595        0.3888      155.9962      156.3850      57.225510       0.00298
  17     162.9       99.1327        0.4623      155.8831      156.3454      57.212674       0.00410
  16     196.4       99.0980        0.5579      155.7199      156.2778      57.179799       0.00828
  15     218.7       99.0755        0.6207      155.5733      156.1940      57.118523       0.02326
  14     243.0       99.0518        0.6891      155.3367      156.0257      56.973902       0.05016
  13     269.0       99.0280        0.7629      154.9514      155.7144      56.686323       0.09329
  12     297.5       99.0060        0.8425      154.3896      155.2321      56.226086       0.13650
  11     328.5       98.9870        0.9283      153.7151      154.6434      55.656412       0.15489
  10     361.9       98.9734        1.0204      152.9087      153.9291      54.955689       0.17729
   9     398.1       98.9696        1.1189      151.8986      153.0175      54.047900       0.21149
   8     437.6       98.9827        1.2237      150.6031      151.8268      52.844076       0.25739
   7     480.5       99.0217        1.3345      149.0014      150.3359      51.314198       0.30046
   6     533.0       99.1167        1.4686      146.7375      148.2061      49.089431       0.35789
   5     589.8       99.3063        1.6091      143.8730      145.4821      46.175756       0.43248
   4     651.6       99.6962        1.7533      140.0955      141.8488      42.152607       0.55018
   3     718.7      100.4373        1.8998      135.5278      137.4275      36.990259       0.64876
   2     792.3      101.8971        2.0449      130.0690      132.1139      30.216821       0.77684
   1     891.5       74.9482       70.6523       26.1362       96.7885      21.840259       0.71281
   0    1013.0       78.1435       66.9494       24.1727       91.1221      12.978611       0.61531



 Wavenumbers: 12850. - 16000. cm-1, ATM      1
 LEVEL PRESSURE   UPWARD FLUX   DIFDOWN FLUX  DIRDOWN FLUX  DOWNWARD FLUX   NET FLUX    HEATING RATE
          mb          W/m2          W/m2          W/m2        W/m2          W/m2       degree/day
  51    .06700       80.4605        0.0000       98.0872       98.0872      17.626738       0.00000
  50    .07753       80.4605        0.0001       98.0864       98.0864      17.625945       0.63494
  49    .09103       80.4605        0.0002       98.0853       98.0855      17.624950       0.62192
  48    0.1069       80.4605        0.0003       98.0841       98.0843      17.623807       0.60867
  47    0.1255       80.4605        0.0004       98.0826       98.0830      17.622493       0.59572
  46    0.1487       80.4605        0.0005       98.0809       98.0814      17.620834       0.60463
  45    0.1794       80.4606        0.0007       98.0784       98.0792      17.618577       0.61961
  44    0.2165       80.4607        0.0010       98.0756       98.0766      17.615921       0.60413
  43    0.2613       80.4608        0.0013       98.0723       98.0736      17.612797       0.58889
  42    0.3336       80.4610        0.0017       98.0670       98.0687      17.607696       0.59473
  41    0.4307       80.4615        0.0024       98.0602       98.0625      17.601097       0.57381
  40    0.5894       80.4623        0.0034       98.0496       98.0530      17.590690       0.55339
  39     1.339       80.4691        0.0082       98.0043       98.0126      17.543428       0.53209
  38     1.782       80.4754        0.0111       97.9793       97.9903      17.514984       0.54153
  37     2.292       80.4846        0.0143       97.9498       97.9641      17.479509       0.58756
  36     2.964       80.4999        0.0186       97.9088       97.9275      17.427566       0.65203
  35     3.853       80.5245        0.0243       97.8503       97.8747      17.350160       0.73461
  34     5.035       80.5616        0.0319       97.7680       97.7999      17.238309       0.79901
  33     6.613       80.6133        0.0420       97.6562       97.6982      17.084873       0.82027
  32     8.786       80.6807        0.0556       97.5107       97.5663      16.885581       0.77398
  31     11.80       80.7684        0.0750       97.3179       97.3929      16.624436       0.73112
  30     15.07       80.8526        0.0959       97.1283       97.2242      16.371567       0.65286
  29     18.79       80.9387        0.1194       96.9300       97.0494      16.110728       0.59140
  28     23.16       81.0288        0.1468       96.7166       96.8634      15.834638       0.53387
  27     28.12       81.1196        0.1782       96.4935       96.6717      15.552081       0.48033
  26     33.73       81.2038        0.2133       96.2731       96.4864      15.282542       0.40526
  25     40.54       81.2855        0.2557       96.0408       96.2965      15.011022       0.33685
  24     48.69       81.3643        0.3069       95.7946       96.1014      14.737150       0.28342
  23     57.69       81.4319        0.3631       95.5573       95.9203      14.488446       0.23312
  22     68.43       81.4919        0.4300       95.3106       95.7406      14.248782       0.18841
  21     81.20       81.5351        0.5099       95.0643       95.5743      14.039119       0.13854
  20     96.49       81.5607        0.6052       94.8153       95.4205      13.859817       0.09896
  19     114.6       81.5913        0.7196       94.5411       95.2606      13.669325       0.08895
  18     136.5       81.6160        0.8551       94.2320       95.0872      13.471146       0.07620
  17     162.9       81.6348        1.0165       93.8753       94.8919      13.257017       0.06844
  16     196.4       81.6367        1.2259       93.4347       94.6606      13.023845       0.05869
  15     218.7       81.6299        1.3634       93.1513       94.5147      12.884760       0.05281
  14     243.0       81.6192        1.5128       92.8439       94.3568      12.737615       0.05103
  13     269.0       81.6044        1.6748       92.5111       94.1859      12.581455       0.05066
  12     297.5       81.5864        1.8498       92.1495       93.9993      12.412869       0.05000
  11     328.5       81.5672        2.0389       91.7554       93.7943      12.227152       0.05050
  10     361.9       81.5477        2.2425       91.3262       93.5688      12.021051       0.05215
   9     398.1       81.5296        2.4617       90.8575       93.3192      11.789594       0.05392
   8     437.6       81.5160        2.6969       90.3418       93.0387      11.522656       0.05707
   7     480.5       81.5101        2.9489       89.7728       92.7217      11.211590       0.06109
   6     533.0       81.5195        3.2587       89.0428       92.3016      10.782047       0.06910
   5     589.8       81.5610        3.5918       88.2038       91.7957      10.234705       0.08124
   4     651.6       81.6693        3.9479       87.1979       91.1458       9.476471       0.10369
   3     718.7       81.8701        4.3252       86.0161       90.3413       8.471196       0.12634
   2     792.3       82.2416        4.7200       84.5970       89.3171       7.075436       0.16008
   1     891.5       69.2929       56.7111       17.6392       74.3503       5.057397       0.17173
   0    1013.0       70.4394       55.7910       17.0360       72.8269       2.387529       0.18538



 Wavenumbers: 16000. - 22650. cm-1, ATM      1
 LEVEL PRESSURE   UPWARD FLUX   DIFDOWN FLUX  DIRDOWN FLUX  DOWNWARD FLUX   NET FLUX    HEATING RATE
          mb          W/m2          W/m2          W/m2        W/m2          W/m2       degree/day
  51    .06700      140.6455        0.0000      156.3892      156.3892      15.743727       0.00000
  50    .07753      140.6455        0.0004      156.3887      156.3891      15.743580       0.11813
  49    .09103      140.6455        0.0009      156.3879      156.3888      15.743366       0.13398
  48    0.1069      140.6455        0.0015      156.3871      156.3885      15.743079       0.15278
  47    0.1255      140.6455        0.0021      156.3861      156.3882      15.742694       0.17415
  46    0.1487      140.6455        0.0030      156.3847      156.3877      15.742128       0.20637
  45    0.1794      140.6457        0.0041      156.3828      156.3869      15.741243       0.24299
  44    0.2165      140.6459        0.0054      156.3805      156.3859      15.740043       0.27309
  43    0.2613      140.6462        0.0070      156.3776      156.3846      15.738414       0.30702
  42    0.3336      140.6470        0.0096      156.3726      156.3823      15.735317       0.36105
  41    0.4307      140.6482        0.0131      156.3657      156.3789      15.730649       0.40586
  40    0.5894      140.6508        0.0188      156.3537      156.3725      15.721747       0.47341
  39     1.339      140.6732        0.0458      156.2834      156.3292      15.655976       0.74046
  38     1.782      140.6940        0.0616      156.2324      156.2940      15.599947       1.06670
  37     2.292      140.7252        0.0800      156.1641      156.2441      15.518845       1.34327
  36     2.964      140.7770        0.1040      156.0605      156.1645      15.387458       1.64930
  35     3.853      140.8609        0.1358      155.9041      156.0398      15.178980       1.97850
  34     5.035      140.9873        0.1779      155.6774      155.8553      14.867948       2.22188
  33     6.613      141.1640        0.2341      155.3656      155.5997      14.435706       2.31077
  32     8.786      141.3942        0.3098      154.9577      155.2675      13.873265       2.18432
  31     11.80      141.6937        0.4179      154.4153      154.8332      13.139432       2.05450
  30     15.07      141.9807        0.5338      153.8804      154.4142      12.433516       1.82254
  29     18.79      142.2736        0.6645      153.3191      153.9836      11.710025       1.64038
  28     23.16      142.5797        0.8170      152.7126      153.5295      10.949830       1.46997
  27     28.12      142.8876        0.9910      152.0755      153.0665      10.178875       1.31057
  26     33.73      143.1718        1.1856      151.4409      152.6266       9.454726       1.08878
  25     40.54      143.4452        1.4206      150.7637      152.1842       8.739014       0.88792
  24     48.69      143.7068        1.7035      150.0338      151.7373       8.030458       0.73324
  23     57.69      143.9285        2.0139      149.3151      151.3290       7.400487       0.59050
  22     68.43      144.1216        2.3831      148.5476      150.9307       6.809118       0.46490
  21     81.20      144.2545        2.8228      147.7517      150.5745       6.319924       0.32325
  20     96.49      144.3228        3.3462      146.9127      150.2588       5.936034       0.21188
  19     114.6      144.3575        3.9658      145.9763      149.9421       5.584551       0.16412
  18     136.5      144.3674        4.6974      144.9088      149.6062       5.238786       0.13295
  17     162.9      144.3507        5.5646      143.6785      149.2432       4.892435       0.11071
  16     196.4      144.2676        6.6835      142.1651      148.8486       4.580930       0.07841
  15     218.7      144.1905        7.4147      141.2033      148.6180       4.427469       0.05826
  14     243.0      144.0964        8.2060      140.1753      148.3814       4.284936       0.04944
  13     269.0      143.9837        9.0598      139.0797      148.1395       4.155742       0.04191
  12     297.5      143.8518        9.9779      137.9141      147.8920       4.040264       0.03425
  11     328.5      143.7045       10.9648      136.6676      147.6324       3.927875       0.03056
  10     361.9      143.5418       12.0213      135.3392      147.3605       3.818710       0.02762
   9     398.1      143.3631       13.1515      133.9235      147.0750       3.711874       0.02489
   8     437.6      143.1694       14.3573      132.4163      146.7736       3.604218       0.02302
   7     480.5      142.9602       15.6410      130.8147      146.4557       3.495440       0.02136
   6     533.0      142.7030       17.2088      128.8599      146.0687       3.365730       0.02087
   5     589.8      142.4298       18.8839      126.7679      145.6519       3.222046       0.02133
   4     651.6      142.1473       20.6680      124.5274      145.1955       3.048202       0.02377
   3     718.7      141.8616       22.5628      122.1285      144.6912       2.829639       0.02747
   2     792.3      141.5900       24.5660      119.5548      144.1209       2.530890       0.03426
   1     891.5      125.5089      102.7250       24.8288      127.5538       2.044985       0.04135
   0    1013.0      125.6968      103.1117       23.9268      127.0384       1.341651       0.04884



 Wavenumbers: 22650. - 29000. cm-1, ATM      1
 LEVEL PRESSURE   UPWARD FLUX   DIFDOWN FLUX  DIRDOWN FLUX  DOWNWARD FLUX   NET FLUX    HEATING RATE
          mb          W/m2          W/m2          W/m2        W/m2          W/m2       degree/day
  51    .06700       58.6807        0.0000       59.0156       59.0156       0.334945       0.00000
  50    .07753       58.6806        0.0005       59.0151       59.0155       0.334945       0.00000
  49    .09103       58.6805        0.0010       59.0144       59.0154       0.334945       0.00000
  48    0.1069       58.6803        0.0017       59.0136       59.0153       0.334945      -0.00000
  47    0.1255       58.6802        0.0025       59.0127       59.0151       0.334945      -0.00000
  46    0.1487       58.6800        0.0035       59.0115       59.0149       0.334945       0.00000
  45    0.1794       58.6797        0.0048       59.0099       59.0147       0.334945       0.00000
  44    0.2165       58.6794        0.0063       59.0080       59.0144       0.334945      -0.00000
  43    0.2613       58.6791        0.0082       59.0058       59.0140       0.334945       0.00000
  42    0.3336       58.6785        0.0113       59.0022       59.0134       0.334945       0.00000
  41    0.4307       58.6777        0.0154       58.9973       59.0127       0.334945       0.00000
  40    0.5894       58.6764        0.0220       58.9894       59.0114       0.334945       0.00000
  39     1.339       58.6704        0.0535       58.9518       59.0053       0.334945      -0.00000
  38     1.782       58.6668        0.0720       58.9297       59.0017       0.334945       0.00000
  37     2.292       58.6627        0.0934       58.9042       58.9976       0.334945       0.00000
  36     2.964       58.6573        0.1216       58.8706       58.9922       0.334945      -0.00000
  35     3.853       58.6501        0.1587       58.8264       58.9851       0.334945       0.00000
  34     5.035       58.6406        0.2080       58.7676       58.9756       0.334945      -0.00000
  33     6.613       58.6279        0.2738       58.6891       58.9629       0.334945       0.00000
  32     8.786       58.6109        0.3624       58.5834       58.9458       0.334945       0.00000
  31     11.80       58.5865        0.4890       58.4324       58.9215       0.334945       0.00000
  30     15.07       58.5604        0.6247       58.2706       58.8953       0.334945       0.00000
  29     18.79       58.5309        0.7776       58.0882       58.8659       0.334945      -0.00000
  28     23.16       58.4966        0.9559       57.8757       58.8316       0.334945       0.00000
  27     28.12       58.4575        1.1591       57.6333       58.7924       0.334945      -0.00000
  26     33.73       58.4138        1.3857       57.3631       58.7488       0.334945       0.00000
  25     40.54       58.3613        1.6584       57.0379       58.6963       0.334945      -0.00000
  24     48.69       58.2983        1.9854       56.6479       58.6333       0.334945       0.00000
  23     57.69       58.2295        2.3424       56.2221       58.5645       0.334945      -0.00000
  22     68.43       58.1482        2.7646       55.7186       58.4831       0.334945       0.00000
  21     81.20       58.0521        3.2631       55.1239       58.3871       0.334945      -0.00000
  20     96.49       57.9388        3.8510       54.4228       58.2738       0.334945       0.00000
  19     114.6       57.8060        4.5399       53.6010       58.1409       0.334945       0.00000
  18     136.5       57.6509        5.3441       52.6418       57.9858       0.334945       0.00000
  17     162.9       57.4695        6.2841       51.5203       57.8045       0.334945       0.00000
  16     196.4       57.2397        7.4752       50.0994       57.5746       0.334945      -0.00000
  15     218.7       57.0919        8.2405       49.1863       57.4268       0.334945       0.00000
  14     243.0       56.9340        9.0577       48.2113       57.2690       0.334945       0.00000
  13     269.0       56.7662        9.9262       47.1749       57.1011       0.334945      -0.00000
  12     297.5       56.5885       10.8452       46.0783       56.9235       0.334945      -0.00000
  11     328.5       56.4007       11.8161       44.9195       56.7357       0.334945       0.00000
  10     361.9       56.2033       12.8364       43.7018       56.5382       0.334945       0.00000
   9     398.1       55.9962       13.9061       42.4250       56.3311       0.334945      -0.00000
   8     437.6       55.7797       15.0230       41.0916       56.1147       0.334945       0.00000
   7     480.5       55.5544       16.1849       39.7045       55.8894       0.334945       0.00000
   6     533.0       55.2862       17.5669       38.0543       55.6211       0.334945      -0.00000
   5     589.8       55.0078       18.9996       36.3431       55.3427       0.334945      -0.00000
   4     651.6       54.7205       20.4759       34.5795       55.0555       0.334945       0.00000
   3     718.7       54.4255       21.9902       32.7702       54.7604       0.334945      -0.00000
   2     792.3       54.1243       23.5337       30.9256       54.4592       0.334945       0.00000
   1     891.5       49.9815       44.2017        6.1146       50.3163       0.334798       0.00001
   0    1013.0       49.8807       44.6597        5.5558       50.2155       0.334798       0.00000



 Wavenumbers: 29000. - 38000. cm-1, ATM      1
 LEVEL PRESSURE   UPWARD FLUX   DIFDOWN FLUX  DIRDOWN FLUX  DOWNWARD FLUX   NET FLUX    HEATING RATE
          mb          W/m2          W/m2          W/m2        W/m2          W/m2       degree/day
  51    .06700        8.7693        0.0000       20.8114       20.8114      12.042084       0.00000
  50    .07753        8.7691        0.0003       20.8070       20.8074      12.038277       3.05156
  49    .09103        8.7689        0.0007       20.8009       20.8016      12.032740       3.46085
  48    0.1069        8.7686        0.0012       20.7928       20.7939      12.025330       3.94430
  47    0.1255        8.7683        0.0017       20.7820       20.7837      12.015425       4.49035
  46    0.1487        8.7680        0.0024       20.7665       20.7688      12.000862       5.30845
  45    0.1794        8.7675        0.0033       20.7424       20.7457      11.978197       6.22205
  44    0.2165        8.7670        0.0044       20.7103       20.7147      11.947674       6.94341
  43    0.2613        8.7664        0.0056       20.6675       20.6731      11.906679       7.72734
  42    0.3336        8.7655        0.0077       20.5880       20.5957      11.830118       8.92627
  41    0.4307        8.7644        0.0104       20.4722       20.4826      11.718166       9.73404
  40    0.5894        8.7629        0.0147       20.2637       20.2784      11.515481      10.77849
  39     1.339        8.7595        0.0331       19.0984       19.1315      10.372001      12.87351
  38     1.782        8.7600        0.0427       18.4394       18.4821       9.722074      12.37357
  37     2.292        8.7627        0.0530       17.7714       17.8244       9.061725      10.93710
  36     2.964        8.7692        0.0657       17.0421       17.1078       8.338594       9.07748
  35     3.853        8.7821        0.0816       16.2678       16.3495       7.567404       7.31873
  34     5.035        8.8032        0.1018       15.4803       15.5821       6.778894       5.63279
  33     6.613        8.8340        0.1276       14.7157       14.8433       6.009289       4.11431
  32     8.786        8.8746        0.1614       13.9936       14.1549       5.280312       2.83109
  31     11.80        8.9277        0.2084       13.2835       13.4920       4.564310       2.00458
  30     15.07        8.9788        0.2573       12.7394       12.9966       4.017796       1.41099
  29     18.79        9.0317        0.3114       12.2666       12.5780       3.546306       1.06901
  28     23.16        9.0878        0.3729       11.8300       12.2029       3.115116       0.83378
  27     28.12        9.1454        0.4419       11.4279       11.8697       2.724366       0.66425
  26     33.73        9.1985        0.5178       11.0695       11.5873       2.388801       0.50453
  25     40.54        9.2489        0.6086       10.7209       11.3295       2.080569       0.38240
  24     48.69        9.2965        0.7163       10.3742       11.0904       1.793942       0.29661
  23     57.69        9.3356        0.8328       10.0549       10.8877       1.552113       0.22668
  22     68.43        9.3673        0.9696        9.7327       10.7023       1.335004       0.17068
  21     81.20        9.3826        1.1310        9.4134       10.5444       1.161873       0.11440
  20     96.49        9.3795        1.3208        9.0887       10.4096       1.030074       0.07274
  19     114.6        9.3662        1.5402        8.7388       10.2789       0.912751       0.05478
  18     136.5        9.3456        1.7909        8.3549       10.1458       0.800170       0.04329
  17     162.9        9.3179        2.0767        7.9311       10.0079       0.689935       0.03524
  16     196.4        9.2712        2.4308        7.4333        9.8641       0.592900       0.02442
  15     218.7        9.2375        2.6535        7.1295        9.7831       0.545570       0.01797
  14     243.0        9.2006        2.8864        6.8161        9.7024       0.501864       0.01516
  13     269.0        9.1602        3.1285        6.4943        9.6228       0.462618       0.01273
  12     297.5        9.1165        3.3788        6.1657        9.5445       0.428019       0.01026
  11     328.5        9.0708        3.6363        5.8295        9.4657       0.394892       0.00901
  10     361.9        9.0237        3.8985        5.4886        9.3871       0.363384       0.00797
   9     398.1        8.9753        4.1649        5.1440        9.3088       0.333523       0.00696
   8     437.6        8.9261        4.4339        4.7969        9.2308       0.304734       0.00616
   7     480.5        8.8764        4.7034        4.4504        9.1538       0.277406       0.00537
   6     533.0        8.8195        5.0108        4.0563        9.0671       0.247611       0.00479
   5     589.8        8.7634        5.3139        3.6682        8.9821       0.218761       0.00428
   4     651.6        8.7091        5.6091        3.2905        8.8996       0.190531       0.00386
   3     718.7        8.6571        5.8948        2.9252        8.8200       0.162878       0.00348
   2     792.3        8.6082        6.1676        2.5764        8.7440       0.135806       0.00310
   1     891.5        8.2171        7.8570        0.4634        8.3205       0.103382       0.00276
   0    1013.0        8.2141        7.9073        0.3750        8.2823       0.068218       0.00244



 Wavenumbers: 38000. - 50000. cm-1, ATM      1
 LEVEL PRESSURE   UPWARD FLUX   DIFDOWN FLUX  DIRDOWN FLUX  DOWNWARD FLUX   NET FLUX    HEATING RATE
          mb          W/m2          W/m2          W/m2        W/m2          W/m2       degree/day
  51    .06700        0.0061        0.0000        1.2836        1.2836       1.277518       0.00000
  50    .07753        0.0061        0.0001        1.2812        1.2812       1.275183       1.87150
  49    .09103        0.0060        0.0002        1.2777        1.2778       1.271851       2.08247
  48    0.1069        0.0059        0.0002        1.2731        1.2734       1.267473       2.33059
  47    0.1255        0.0058        0.0004        1.2672        1.2675       1.261717       2.60908
  46    0.1487        0.0057        0.0005        1.2586        1.2591       1.253391       3.03499
  45    0.1794        0.0055        0.0007        1.2455        1.2462       1.240623       3.50520
  44    0.2165        0.0054        0.0009        1.2282        1.2291       1.223697       3.85037
  43    0.2613        0.0052        0.0011        1.2054        1.2065       1.201348       4.21261
  42    0.3336        0.0049        0.0015        1.1639        1.1654       1.160524       4.75970
  41    0.4307        0.0045        0.0020        1.1051        1.1070       1.102565       5.03943
  40    0.5894        0.0039        0.0026        1.0039        1.0064       1.002524       5.32007
  39     1.339        0.0022        0.0035        0.5438        0.5473       0.545104       5.14971
  38     1.782        0.0016        0.0032        0.3635        0.3666       0.365006       3.42879
  37     2.292        0.0012        0.0027        0.2356        0.2383       0.237058       2.11916
  36     2.964        0.0009        0.0022        0.1455        0.1477       0.146786       1.13318
  35     3.853        0.0006        0.0017        0.0858        0.0875       0.086906       0.56828
  34     5.035        0.0004        0.0013        0.0488        0.0501       0.049701       0.26578
  33     6.613        0.0003        0.0010        0.0273        0.0282       0.027974       0.11615
  32     8.786        0.0002        0.0007        0.0144        0.0151       0.014928       0.05067
  31     11.80        0.0001        0.0004        0.0065        0.0070       0.006903       0.02247
  30     15.07        0.0000        0.0003        0.0031        0.0034       0.003329       0.00923
  29     18.79        0.0000        0.0002        0.0014        0.0016       0.001583       0.00396
  28     23.16        0.0000        0.0001        0.0006        0.0007       0.000720       0.00167
  27     28.12        0.0000        0.0001        0.0003        0.0003       0.000317       0.00069
  26     33.73        0.0000        0.0000        0.0001        0.0001       0.000140       0.00027
  25     40.54        0.0000        0.0000        0.0000        0.0001       0.000057       0.00010
  24     48.69        0.0000        0.0000        0.0000        0.0000       0.000021       0.00004
  23     57.69        0.0000        0.0000        0.0000        0.0000       0.000008       0.00001
  22     68.43        0.0000        0.0000        0.0000        0.0000       0.000003       0.00000
  21     81.20        0.0000        0.0000        0.0000        0.0000       0.000001       0.00000
  20     96.49        0.0000        0.0000        0.0000        0.0000       0.000000       0.00000
  19     114.6        0.0000        0.0000        0.0000        0.0000       0.000000       0.00000
  18     136.5        0.0000        0.0000        0.0000        0.0000       0.000000       0.00000
  17     162.9        0.0000        0.0000        0.0000        0.0000       0.000000       0.00000
  16     196.4        0.0000        0.0000        0.0000        0.0000       0.000000       0.00000
  15     218.7        0.0000        0.0000        0.0000        0.0000       0.000000       0.00000
  14     243.0        0.0000        0.0000        0.0000        0.0000       0.000000       0.00000
  13     269.0        0.0000        0.0000        0.0000        0.0000       0.000000       0.00000
  12     297.5        0.0000        0.0000        0.0000        0.0000       0.000000       0.00000
  11     328.5        0.0000        0.0000        0.0000        0.0000       0.000000       0.00000
  10     361.9        0.0000        0.0000        0.0000        0.0000       0.000000       0.00000
   9     398.1        0.0000        0.0000        0.0000        0.0000       0.000000       0.00000
   8     437.6        0.0000        0.0000        0.0000        0.0000       0.000000       0.00000
   7     480.5        0.0000        0.0000        0.0000        0.0000       0.000000       0.00000
   6     533.0        0.0000        0.0000        0.0000        0.0000       0.000000       0.00000
   5     589.8        0.0000        0.0000        0.0000        0.0000       0.000000       0.00000
   4     651.6        0.0000        0.0000        0.0000        0.0000       0.000000       0.00000
   3     718.7        0.0000        0.0000        0.0000        0.0000       0.000000       0.00000
   2     792.3        0.0000        0.0000        0.0000        0.0000       0.000000       0.00000
   1     891.5        0.0000        0.0000        0.0000        0.0000       0.000000       0.00000
   0    1013.0        0.0000        0.0000        0.0000        0.0000       0.000000       0.00000



 Wavenumbers:   820. -  2600. cm-1, ATM      1
 LEVEL PRESSURE   UPWARD FLUX   DIFDOWN FLUX  DIRDOWN FLUX  DOWNWARD FLUX   NET FLUX    HEATING RATE
          mb          W/m2          W/m2          W/m2        W/m2          W/m2       degree/day
  51    .06700        0.7581        0.0000        6.0047        6.0047       5.246576       0.00000
  50    .07753        0.7581        0.0000        6.0008        6.0008       5.242723       3.08822
  49    .09103        0.7581        0.0000        5.9999        5.9999       5.241837       0.55359
  48    0.1069        0.7581        0.0000        5.9989        5.9989       5.240848       0.52653
  47    0.1255        0.7581        0.0000        5.9978        5.9978       5.239731       0.50650
  46    0.1487        0.7581        0.0000        5.9964        5.9964       5.238374       0.49458
  45    0.1794        0.7581        0.0000        5.9947        5.9947       5.236655       0.47201
  44    0.2165        0.7581        0.0000        5.9929        5.9929       5.234812       0.41911
  43    0.2613        0.7581        0.0000        5.9909        5.9909       5.232853       0.36934
  42    0.3336        0.7581        0.0000        5.9880        5.9880       5.229975       0.33557
  41    0.4307        0.7581        0.0000        5.9846        5.9846       5.226505       0.30166
  40    0.5894        0.7581        0.0000        5.9791        5.9791       5.221000       0.29277
  39     1.339        0.7581        0.0000        5.9536        5.9536       5.195512       0.28695
  38     1.782        0.7581        0.0000        5.9395        5.9395       5.181373       0.26918
  37     2.292        0.7581        0.0000        5.9237        5.9237       5.165621       0.26089
  36     2.964        0.7581        0.0000        5.9039        5.9039       5.145846       0.24824
  35     3.853        0.7581        0.0000        5.8793        5.8793       5.121188       0.23400
  34     5.035        0.7581        0.0000        5.8487        5.8487       5.090624       0.21834
  33     6.613        0.7581        0.0000        5.8108        5.8108       5.052657       0.20297
  32     8.786        0.7581        0.0000        5.7631        5.7631       5.005030       0.18497
  31     11.80        0.7581        0.0000        5.7039        5.7039       4.945767       0.16592
  30     15.07        0.7581        0.0000        5.6539        5.6539       4.895722       0.12921
  29     18.79        0.7582        0.0000        5.6127        5.6127       4.854579       0.09328
  28     23.16        0.7582        0.0000        5.5794        5.5794       4.821192       0.06456
  27     28.12        0.7582        0.0000        5.5518        5.5518       4.793613       0.04688
  26     33.73        0.7582        0.0000        5.5268        5.5268       4.768544       0.03769
  25     40.54        0.7583        0.0000        5.4993        5.4993       4.741080       0.03407
  24     48.69        0.7583        0.0000        5.4678        5.4678       4.709513       0.03267
  23     57.69        0.7583        0.0000        5.4340        5.4340       4.675693       0.03170
  22     68.43        0.7584        0.0000        5.3947        5.3948       4.636381       0.03090
  21     81.20        0.7584        0.0000        5.3497        5.3497       4.591299       0.02979
  20     96.49        0.7585        0.0000        5.2982        5.2982       4.539724       0.02847
  19     114.6        0.7586        0.0000        5.2389        5.2389       4.480325       0.02774
  18     136.5        0.7587        0.0000        5.1716        5.1717       4.412971       0.02590
  17     162.9        0.7588        0.0000        5.0890        5.0890       4.330200       0.02646
  16     196.4        0.7591        0.0000        4.9668        4.9668       4.207718       0.03083
  15     218.7        0.7594        0.0000        4.8585        4.8585       4.099097       0.04124
  14     243.0        0.7598        0.0000        4.7078        4.7079       3.948063       0.05238
  13     269.0        0.7604        0.0000        4.5343        4.5343       3.773860       0.05651
  12     297.5        0.7614        0.0000        4.3419        4.3420       3.580544       0.05734
  11     328.5        0.7628        0.0000        4.1281        4.1281       3.365382       0.05850
  10     361.9        0.7645        0.0000        3.8786        3.8787       3.114136       0.06357
   9     398.1        0.7668        0.0000        3.6159        3.6159       2.849105       0.06175
   8     437.6        0.7698        0.0000        3.3759        3.3759       2.606060       0.05196
   7     480.5        0.7735        0.0000        3.1957        3.1958       2.422302       0.03609
   6     533.0        0.7790        0.0000        3.0467        3.0467       2.267678       0.02487
   5     589.8        0.7872        0.0000        2.9023        2.9023       2.115124       0.02264
   4     651.6        0.8014        0.0000        2.7183        2.7184       1.916998       0.02709
   3     718.7        0.8258        0.0000        2.5058        2.5059       1.680077       0.02977
   2     792.3        0.8723        0.0000        2.2756        2.2757       1.403347       0.03174
   1     891.5        0.0068        0.7034        0.4198        1.1233       1.116472       0.02441
   0    1013.0        0.0082        0.5664        0.3310        0.8974       0.889123       0.01579

  Modules and versions used in this calculation:

       rrtmg_sw.1col.f90:  $Revision$                    rrtmg_sw_init.f90:  $Revision$        
     rrtmgsw_cldprop.f90:  $Revision$                  rrtmgsw_cldprmc.f90:  NOT USED          
     rrtmg_sw_reftra.f90:  $Revision$                  rrtmg_sw_spcvrt.f90:  NOT USED          
     rrtmg_sw_spcvmc.f90:  NOT USED                    rrtmgsw_setcoef.f90:  NOT USED          
     rrtmg_sw_taumol.f90:  $Revision$                  rrtmg_sw_vrtqdr.f90:  NOT USED          
                rrtatm.f:  NOT USED                             util_xxx.f:  NOT USED          
                 extra.f:  NOT USED                       rrtmg_sw_k_g.f90:  $Revision$        

