

 Wavenumbers:   820. - 50000. cm-1, ATM      1
 LEVEL PRESSURE   UPWARD FLUX   DIFDOWN FLUX  DIRDOWN FLUX  DOWNWARD FLUX   NET FLUX    HEATING RATE
          mb          W/m2          W/m2          W/m2        W/m2          W/m2       degree/day
  51    .06700      398.8306        0.0000      617.8126      617.8126     218.982019       0.00000
  50    .07753      398.8302        0.0014      617.7947      617.7961     218.965879      12.93591
  49    .09103      398.8297        0.0030      617.7778      617.7808     218.951071       9.25587
  48    0.1069      398.8293        0.0050      617.7581      617.7631     218.933810       9.18774
  47    0.1255      398.8287        0.0072      617.7340      617.7412     218.912467       9.67604
  46    0.1487      398.8282        0.0101      617.7009      617.7109     218.882783      10.82008
  45    0.1794      398.8274        0.0139      617.6521      617.6660     218.838555      12.14174
  44    0.2165      398.8267        0.0184      617.5895      617.6079     218.781237      13.03888
  43    0.2613      398.8260        0.0238      617.5089      617.5327     218.706728      14.04461
  42    0.3336      398.8251        0.0327      617.3641      617.3968     218.571649      15.74881
  41    0.4307      398.8244        0.0443      617.1591      617.2034     218.379035      16.74737
  40    0.5894      398.8242        0.0631      616.8005      616.8635     218.039360      18.06350
  39     1.339      398.8414        0.1480      614.9443      615.0922     216.250845      20.13543
  38     1.782      398.8641        0.1958      613.9670      614.1628     215.298659      18.12807
  37     2.292      398.9019        0.2501      613.0059      613.2560     214.354150      15.64354
  36     2.964      398.9686        0.3208      611.9577      612.2785     213.309832      13.10934
  35     3.853      399.0808        0.4135      610.8024      611.2159     212.135062      11.14878
  34     5.035      399.2535        0.5358      609.5327      610.0685     210.815034       9.42974
  33     6.613      399.4967        0.6981      608.1464      608.8446     209.347904       7.84328
  32     8.786      399.8134        0.9159      606.6250      607.5409     207.727530       6.29295
  31     11.80      400.2235        1.2260      604.8486      606.0746     205.851136       5.25331
  30     15.07      400.6136        1.5568      603.2440      604.8008     204.187162       4.29606
  29     18.79      401.0096        1.9291      601.6511      603.5803     202.570699       3.66502
  28     23.16      401.4204        2.3617      599.9927      602.3544     200.934002       3.16484
  27     28.12      401.8298        2.8541      598.2881      601.1422     199.312351       2.75670
  26     33.73      402.1995        3.4030      596.5951      599.9981     197.798569       2.27601
  25     40.54      402.5433        4.0639      594.7727      598.8366     196.293364       1.86738
  24     48.69      402.8578        4.8570      592.7865      597.6435     194.785642       1.56026
  23     57.69      403.1065        5.7239      590.7959      596.5197     193.413278       1.28639
  22     68.43      403.2975        6.7509      588.6191      595.3700     192.072453       1.05407
  21     81.20      403.3791        7.9685      586.2690      594.2375     190.858434       0.80221
  20     96.49      403.3408        9.4102      583.6961      593.1063     189.765577       0.60318
  19     114.6      403.2428       11.1065      580.7708      591.8773     188.634582       0.52810
  18     136.5      403.0814       13.0928      577.4359      590.5287     187.447279       0.45655
  17     162.9      402.8505       15.4239      573.5624      588.9863     186.135783       0.41921
  16     196.4      402.4620       18.3967      568.5907      586.9874     184.525355       0.40536
  15     218.7      402.1770       20.3188      565.0572      585.3760     183.199003       0.50357
  14     243.0      401.8570       22.3805      560.7495      583.1301     181.273053       0.66798
  13     269.0      401.5012       24.5832      555.3947      579.9779     178.476727       0.90712
  12     297.5      401.1115       26.9276      548.9964      575.9239     174.812389       1.08680
  11     328.5      400.6962       29.4201      542.0895      571.5096     170.813371       1.08732
  10     361.9      400.2590       32.0569      534.6242      566.6812     166.422146       1.11102
   9     398.1      399.8044       34.8428      526.4204      561.2633     161.458819       1.15634
   8     437.6      399.3433       37.7764      517.3907      555.1670     155.823710       1.20482
   7     480.5      398.8860       40.8557      507.7216      548.5773     149.691337       1.20437
   6     533.0      398.3910       44.5583      495.9006      540.4589     142.067909       1.22637
   5     589.8      397.9782       48.4440      483.0788      531.5228     133.544663       1.26513
   4     651.6      397.7732       52.5006      468.6907      521.1912     123.418077       1.38484
   3     718.7      397.9221       56.7199      453.2257      509.9456     112.023498       1.43198
   2     792.3      398.7840       61.0802      436.4928      497.5730      98.789072       1.51784
   1     891.5      381.1997      129.2916      332.1022      461.3938      80.194106       1.58234
   0    1013.0      386.8812      132.4309      311.6261      444.0570      57.175780       1.59828



 Wavenumbers:  2600. -  3250. cm-1, ATM      1
 LEVEL PRESSURE   UPWARD FLUX   DIFDOWN FLUX  DIRDOWN FLUX  DOWNWARD FLUX   NET FLUX    HEATING RATE
          mb          W/m2          W/m2          W/m2        W/m2          W/m2       degree/day
  51    .06700        0.2412        0.0000        5.4450        5.4450       5.203863       0.00000
  50    .07753        0.2412        0.0000        5.4450        5.4450       5.203855       0.00640
  49    .09103        0.2412        0.0000        5.4450        5.4450       5.203845       0.00627
  48    0.1069        0.2412        0.0000        5.4450        5.4450       5.203833       0.00613
  47    0.1255        0.2412        0.0000        5.4450        5.4450       5.203820       0.00599
  46    0.1487        0.2412        0.0000        5.4450        5.4450       5.203803       0.00608
  45    0.1794        0.2412        0.0000        5.4450        5.4450       5.203780       0.00625
  44    0.2165        0.2412        0.0000        5.4449        5.4449       5.203754       0.00612
  43    0.2613        0.2412        0.0000        5.4449        5.4449       5.203722       0.00600
  42    0.3336        0.2412        0.0000        5.4448        5.4448       5.203669       0.00617
  41    0.4307        0.2412        0.0000        5.4448        5.4448       5.203598       0.00620
  40    0.5894        0.2412        0.0000        5.4446        5.4446       5.203478       0.00637
  39     1.339        0.2412        0.0000        5.4439        5.4439       5.202770       0.00797
  38     1.782        0.2412        0.0000        5.4434        5.4434       5.202227       0.01034
  37     2.292        0.2412        0.0000        5.4427        5.4427       5.201511       0.01186
  36     2.964        0.2412        0.0000        5.4416        5.4416       5.200473       0.01304
  35     3.853        0.2412        0.0000        5.4402        5.4402       5.198995       0.01402
  34     5.035        0.2412        0.0000        5.4381        5.4381       5.196940       0.01468
  33     6.613        0.2412        0.0000        5.4353        5.4353       5.194159       0.01487
  32     8.786        0.2412        0.0000        5.4317        5.4317       5.190527       0.01411
  31     11.80        0.2412        0.0000        5.4269        5.4269       5.185747       0.01338
  30     15.07        0.2412        0.0000        5.4224        5.4224       5.181220       0.01169
  29     18.79        0.2412        0.0000        5.4180        5.4180       5.176808       0.01000
  28     23.16        0.2412        0.0000        5.4135        5.4135       5.172323       0.00867
  27     28.12        0.2412        0.0000        5.4088        5.4088       5.167675       0.00790
  26     33.73        0.2412        0.0000        5.4036        5.4036       5.162435       0.00788
  25     40.54        0.2412        0.0000        5.3966        5.3967       5.155493       0.00861
  24     48.69        0.2412        0.0000        5.3872        5.3872       5.146017       0.00981
  23     57.69        0.2412        0.0000        5.3754        5.3754       5.134232       0.01105
  22     68.43        0.2412        0.0000        5.3599        5.3599       5.118745       0.01218
  21     81.20        0.2412        0.0000        5.3401        5.3401       5.098911       0.01311
  20     96.49        0.2412        0.0000        5.3155        5.3155       5.074344       0.01356
  19     114.6        0.2412        0.0000        5.2853        5.2853       5.044146       0.01410
  18     136.5        0.2412        0.0001        5.2504        5.2505       5.009237       0.01342
  17     162.9        0.2413        0.0001        5.2111        5.2111       4.969890       0.01258
  16     196.4        0.2413        0.0001        5.1640        5.1641       4.922792       0.01186
  15     218.7        0.2414        0.0001        5.1331        5.1332       4.891809       0.01176
  14     243.0        0.2415        0.0001        5.0962        5.0963       4.854818       0.01283
  13     269.0        0.2417        0.0001        5.0511        5.0512       4.809533       0.01469
  12     297.5        0.2419        0.0001        4.9956        4.9957       4.753796       0.01653
  11     328.5        0.2423        0.0001        4.9304        4.9305       4.688207       0.01783
  10     361.9        0.2428        0.0001        4.8511        4.8512       4.608438       0.02018
   9     398.1        0.2435        0.0001        4.7507        4.7508       4.507332       0.02356
   8     437.6        0.2445        0.0001        4.6220        4.6222       4.377719       0.02771
   7     480.5        0.2458        0.0002        4.4625        4.4626       4.216814       0.03160
   6     533.0        0.2480        0.0002        4.2460        4.2462       3.998171       0.03517
   5     589.8        0.2514        0.0002        3.9954        3.9956       3.744162       0.03770
   4     651.6        0.2570        0.0002        3.7089        3.7090       3.452035       0.03995
   3     718.7        0.2662        0.0002        3.4018        3.4020       3.135781       0.03974
   2     792.3        0.2829        0.0002        3.0564        3.0566       2.773693       0.04153
   1     891.5        0.0246        0.2572        2.0723        2.3295       2.304869       0.03989
   0    1013.0        0.0284        0.2109        1.6725        1.8834       1.854973       0.03124



 Wavenumbers:  3250. -  4000. cm-1, ATM      1
 LEVEL PRESSURE   UPWARD FLUX   DIFDOWN FLUX  DIRDOWN FLUX  DOWNWARD FLUX   NET FLUX    HEATING RATE
          mb          W/m2          W/m2          W/m2        W/m2          W/m2       degree/day
  51    .06700        0.0055        0.0000        9.1795        9.1795       9.174013       0.00000
  50    .07753        0.0055        0.0000        9.1747        9.1747       9.169170       3.88148
  49    .09103        0.0055        0.0000        9.1713        9.1713       9.165782       2.11747
  48    0.1069        0.0055        0.0000        9.1688        9.1688       9.163257       1.34402
  47    0.1255        0.0055        0.0000        9.1665        9.1665       9.160998       1.02422
  46    0.1487        0.0055        0.0000        9.1641        9.1641       9.158557       0.88991
  45    0.1794        0.0055        0.0000        9.1612        9.1612       9.155679       0.79008
  44    0.2165        0.0055        0.0000        9.1583        9.1583       9.152758       0.66430
  43    0.2613        0.0055        0.0000        9.1553        9.1553       9.149785       0.56041
  42    0.3336        0.0055        0.0000        9.1511        9.1511       9.145606       0.48723
  41    0.4307        0.0055        0.0000        9.1464        9.1464       9.140838       0.41459
  40    0.5894        0.0055        0.0000        9.1393        9.1394       9.133833       0.37255
  39     1.339        0.0055        0.0000        9.1127        9.1127       9.107219       0.29962
  38     1.782        0.0055        0.0000        9.1011        9.1011       9.095631       0.22062
  37     2.292        0.0055        0.0000        9.0901        9.0901       9.084564       0.18329
  36     2.964        0.0055        0.0000        9.0776        9.0776       9.072134       0.15603
  35     3.853        0.0055        0.0000        9.0629        9.0629       9.057344       0.14036
  34     5.035        0.0055        0.0000        9.0441        9.0441       9.038605       0.13386
  33     6.613        0.0055        0.0000        9.0191        9.0191       9.013604       0.13366
  32     8.786        0.0055        0.0000        8.9843        8.9843       8.978820       0.13509
  31     11.80        0.0055        0.0000        8.9327        8.9327       8.927204       0.14451
  30     15.07        0.0055        0.0000        8.8758        8.8759       8.870359       0.14676
  29     18.79        0.0055        0.0000        8.8110        8.8110       8.805532       0.14698
  28     23.16        0.0055        0.0000        8.7365        8.7366       8.731087       0.14395
  27     28.12        0.0055        0.0000        8.6554        8.6555       8.649974       0.13789
  26     33.73        0.0055        0.0000        8.5719        8.5719       8.566474       0.12554
  25     40.54        0.0055        0.0001        8.4812        8.4812       8.475750       0.11255
  24     48.69        0.0055        0.0001        8.3838        8.3839       8.378449       0.10069
  23     57.69        0.0054        0.0001        8.2861        8.2862       8.280714       0.09161
  22     68.43        0.0054        0.0001        8.1751        8.1751       8.169717       0.08726
  21     81.20        0.0054        0.0001        8.0457        8.0458       8.040359       0.08548
  20     96.49        0.0054        0.0001        7.8949        7.8950       7.889656       0.08318
  19     114.6        0.0054        0.0001        7.7162        7.7163       7.710946       0.08344
  18     136.5        0.0053        0.0002        7.5193        7.5194       7.514102       0.07569
  17     162.9        0.0053        0.0002        7.2913        7.2915       7.286211       0.07284
  16     196.4        0.0053        0.0002        6.9660        6.9662       6.960938       0.08188
  15     218.7        0.0053        0.0002        6.6648        6.6650       6.659748       0.11435
  14     243.0        0.0052        0.0002        6.2619        6.2622       6.256952       0.13970
  13     269.0        0.0052        0.0003        5.7576        5.7579       5.752648       0.16359
  12     297.5        0.0052        0.0003        5.1719        5.1722       5.166946       0.17371
  11     328.5        0.0052        0.0002        4.5757        4.5760       4.570767       0.16210
  10     361.9        0.0052        0.0002        3.9995        3.9998       3.994561       0.14579
   9     398.1        0.0053        0.0002        3.4655        3.4657       3.460453       0.12444
   8     437.6        0.0053        0.0002        2.9740        2.9742       2.968919       0.10509
   7     480.5        0.0055        0.0002        2.5307        2.5309       2.525407       0.08710
   6     533.0        0.0057        0.0002        2.0614        2.0616       2.055843       0.07554
   5     589.8        0.0062        0.0002        1.6150        1.6151       1.608923       0.06634
   4     651.6        0.0072        0.0001        1.1565        1.1566       1.149351       0.06285
   3     718.7        0.0095        0.0001        0.7390        0.7391       0.729591       0.05275
   2     792.3        0.0156        0.0001        0.3985        0.3985       0.382939       0.03976
   1     891.5        0.0000        0.0118        0.0914        0.1031       0.103100       0.02381
   0    1013.0        0.0003        0.0012        0.0075        0.0087       0.008464       0.00657



 Wavenumbers:  4000. -  4650. cm-1, ATM      1
 LEVEL PRESSURE   UPWARD FLUX   DIFDOWN FLUX  DIRDOWN FLUX  DOWNWARD FLUX   NET FLUX    HEATING RATE
          mb          W/m2          W/m2          W/m2        W/m2          W/m2       degree/day
  51    .06700        1.6933        0.0000       10.7795       10.7795       9.086264       0.00000
  50    .07753        1.6933        0.0000       10.7795       10.7795       9.086263       0.00080
  49    .09103        1.6933        0.0000       10.7795       10.7795       9.086261       0.00078
  48    0.1069        1.6933        0.0000       10.7795       10.7795       9.086260       0.00076
  47    0.1255        1.6933        0.0000       10.7795       10.7795       9.086258       0.00075
  46    0.1487        1.6933        0.0000       10.7795       10.7795       9.086256       0.00076
  45    0.1794        1.6933        0.0000       10.7795       10.7795       9.086253       0.00078
  44    0.2165        1.6933        0.0000       10.7795       10.7795       9.086250       0.00076
  43    0.2613        1.6933        0.0000       10.7795       10.7795       9.086246       0.00075
  42    0.3336        1.6933        0.0000       10.7795       10.7795       9.086239       0.00077
  41    0.4307        1.6933        0.0000       10.7795       10.7795       9.086230       0.00077
  40    0.5894        1.6933        0.0000       10.7795       10.7795       9.086216       0.00080
  39     1.339        1.6933        0.0000       10.7794       10.7794       9.086126       0.00101
  38     1.782        1.6933        0.0000       10.7793       10.7793       9.086056       0.00133
  37     2.292        1.6933        0.0000       10.7792       10.7792       9.085962       0.00156
  36     2.964        1.6933        0.0000       10.7791       10.7791       9.085822       0.00176
  35     3.853        1.6933        0.0000       10.7789       10.7789       9.085614       0.00197
  34     5.035        1.6933        0.0000       10.7786       10.7786       9.085307       0.00219
  33     6.613        1.6933        0.0000       10.7781       10.7781       9.084856       0.00241
  32     8.786        1.6933        0.0000       10.7774       10.7774       9.084190       0.00259
  31     11.80        1.6932        0.0000       10.7763       10.7764       9.083143       0.00293
  30     15.07        1.6932        0.0001       10.7751       10.7752       9.081916       0.00317
  29     18.79        1.6932        0.0001       10.7736       10.7737       9.080432       0.00336
  28     23.16        1.6932        0.0001       10.7717       10.7718       9.078590       0.00356
  27     28.12        1.6932        0.0001       10.7695       10.7696       9.076361       0.00379
  26     33.73        1.6932        0.0001       10.7667       10.7668       9.073614       0.00413
  25     40.54        1.6932        0.0002       10.7629       10.7631       9.069891       0.00462
  24     48.69        1.6932        0.0002       10.7579       10.7581       9.064932       0.00513
  23     57.69        1.6932        0.0002       10.7520       10.7522       9.059058       0.00551
  22     68.43        1.6932        0.0003       10.7446       10.7449       9.051703       0.00578
  21     81.20        1.6932        0.0003       10.7355       10.7358       9.042656       0.00598
  20     96.49        1.6932        0.0004       10.7245       10.7248       9.031661       0.00607
  19     114.6        1.6932        0.0004       10.7107       10.7112       9.017934       0.00641
  18     136.5        1.6933        0.0005       10.6942       10.6947       9.001423       0.00635
  17     162.9        1.6934        0.0006       10.6740       10.6746       8.981227       0.00646
  16     196.4        1.6937        0.0008       10.6464       10.6471       8.953460       0.00699
  15     218.7        1.6939        0.0008       10.6255       10.6263       8.932401       0.00800
  14     243.0        1.6943        0.0009       10.5980       10.5990       8.904708       0.00960
  13     269.0        1.6949        0.0010       10.5611       10.5621       8.867251       0.01215
  12     297.5        1.6958        0.0011       10.5119       10.5131       8.817306       0.01481
  11     328.5        1.6970        0.0012       10.4499       10.4511       8.754084       0.01719
  10     361.9        1.6987        0.0014       10.3702       10.3715       8.672828       0.02056
   9     398.1        1.7008        0.0015       10.2678       10.2693       8.568442       0.02432
   8     437.6        1.7035        0.0016       10.1390       10.1406       8.437101       0.02808
   7     480.5        1.7069        0.0017        9.9877        9.9894       8.282538       0.03036
   6     533.0        1.7121        0.0019        9.7937        9.7956       8.083494       0.03202
   5     589.8        1.7195        0.0021        9.5752        9.5772       7.857745       0.03351
   4     651.6        1.7311        0.0022        9.2958        9.2980       7.566891       0.03978
   3     718.7        1.7501        0.0024        8.9267        8.9291       7.179005       0.04875
   2     792.3        1.7839        0.0025        8.4542        8.4567       6.672862       0.05805
   1     891.5        1.1100        0.8480        6.2533        7.1013       5.991334       0.05799
   0    1013.0        1.1829        0.7782        5.6771        6.4553       5.272400       0.04992



 Wavenumbers:  4650. -  5150. cm-1, ATM      1
 LEVEL PRESSURE   UPWARD FLUX   DIFDOWN FLUX  DIRDOWN FLUX  DOWNWARD FLUX   NET FLUX    HEATING RATE
          mb          W/m2          W/m2          W/m2        W/m2          W/m2       degree/day
  51    .06700        0.7712        0.0000       10.2033       10.2033       9.432153       0.00000
  50    .07753        0.7712        0.0000       10.2031       10.2031       9.431917       0.18901
  49    .09103        0.7712        0.0000       10.2028       10.2028       9.431622       0.18428
  48    0.1069        0.7712        0.0000       10.2025       10.2025       9.431285       0.17931
  47    0.1255        0.7712        0.0000       10.2021       10.2021       9.430901       0.17426
  46    0.1487        0.7712        0.0000       10.2016       10.2016       9.430420       0.17536
  45    0.1794        0.7712        0.0000       10.2010       10.2010       9.429770       0.17850
  44    0.2165        0.7712        0.0000       10.2002       10.2002       9.429010       0.17277
  43    0.2613        0.7712        0.0000       10.1993       10.1993       9.428125       0.16690
  42    0.3336        0.7712        0.0000       10.1979       10.1979       9.426692       0.16702
  41    0.4307        0.7712        0.0000       10.1960       10.1960       9.424852       0.16002
  40    0.5894        0.7712        0.0000       10.1932       10.1932       9.421978       0.15283
  39     1.339        0.7712        0.0000       10.1816       10.1816       9.410387       0.13050
  38     1.782        0.7712        0.0000       10.1760       10.1760       9.404858       0.10525
  37     2.292        0.7712        0.0000       10.1706       10.1706       9.399402       0.09037
  36     2.964        0.7712        0.0000       10.1646       10.1647       9.393479       0.07435
  35     3.853        0.7712        0.0000       10.1584       10.1584       9.387266       0.05897
  34     5.035        0.7712        0.0000       10.1521       10.1521       9.380932       0.04525
  33     6.613        0.7712        0.0000       10.1456       10.1456       9.374477       0.03451
  32     8.786        0.7712        0.0001       10.1386       10.1386       9.367470       0.02721
  31     11.80        0.7711        0.0001       10.1295       10.1296       9.358436       0.02529
  30     15.07        0.7711        0.0001       10.1196       10.1197       9.348565       0.02548
  29     18.79        0.7711        0.0001       10.1076       10.1077       9.336569       0.02720
  28     23.16        0.7711        0.0001       10.0923       10.0924       9.321280       0.02956
  27     28.12        0.7711        0.0002       10.0731       10.0733       9.302206       0.03242
  26     33.73        0.7711        0.0002       10.0500       10.0502       9.279138       0.03468
  25     40.54        0.7711        0.0002       10.0201       10.0204       9.249270       0.03705
  24     48.69        0.7711        0.0003        9.9820        9.9822       9.211148       0.03945
  23     57.69        0.7711        0.0003        9.9384        9.9388       9.167671       0.04075
  22     68.43        0.7711        0.0004        9.8858        9.8861       9.115021       0.04139
  21     81.20        0.7712        0.0005        9.8234        9.8239       9.052742       0.04115
  20     96.49        0.7712        0.0005        9.7518        9.7523       8.981075       0.03955
  19     114.6        0.7713        0.0006        9.6719        9.6726       8.901226       0.03728
  18     136.5        0.7715        0.0007        9.5858        9.5865       8.815058       0.03313
  17     162.9        0.7717        0.0009        9.4940        9.4949       8.723195       0.02936
  16     196.4        0.7721        0.0010        9.3883        9.3893       8.617200       0.02668
  15     218.7        0.7725        0.0012        9.3229        9.3241       8.551618       0.02490
  14     243.0        0.7729        0.0013        9.2520        9.2533       8.480342       0.02472
  13     269.0        0.7735        0.0014        9.1717        9.1731       8.399516       0.02622
  12     297.5        0.7745        0.0015        9.0763        9.0778       8.303342       0.02852
  11     328.5        0.7757        0.0017        8.9650        8.9666       8.190938       0.03056
  10     361.9        0.7773        0.0018        8.8349        8.8367       8.059412       0.03328
   9     398.1        0.7795        0.0020        8.6820        8.6840       7.904529       0.03608
   8     437.6        0.7823        0.0021        8.5028        8.5049       7.722662       0.03888
   7     480.5        0.7860        0.0023        8.2948        8.2971       7.511149       0.04154
   6     533.0        0.7916        0.0025        8.0209        8.0234       7.231742       0.04495
   5     589.8        0.7995        0.0026        7.7063        7.7090       6.909440       0.04784
   4     651.6        0.8113        0.0028        7.3412        7.3440       6.532737       0.05152
   3     718.7        0.8290        0.0029        6.9387        6.9416       6.112531       0.05281
   2     792.3        0.8572        0.0030        6.5066        6.5096       5.652414       0.05277
   1     891.5        0.2942        0.6089        4.7628        5.3717       5.077412       0.04893
   0    1013.0        0.3187        0.5497        4.2544        4.8042       4.485449       0.04110



 Wavenumbers:  5150. -  6150. cm-1, ATM      1
 LEVEL PRESSURE   UPWARD FLUX   DIFDOWN FLUX  DIRDOWN FLUX  DOWNWARD FLUX   NET FLUX    HEATING RATE
          mb          W/m2          W/m2          W/m2        W/m2          W/m2       degree/day
  51    .06700        3.3402        0.0000       25.5798       25.5798      22.239622       0.00000
  50    .07753        3.3402        0.0000       25.5798       25.5798      22.239583       0.03157
  49    .09103        3.3402        0.0000       25.5797       25.5797      22.239532       0.03206
  48    0.1069        3.3402        0.0000       25.5797       25.5797      22.239470       0.03256
  47    0.1255        3.3402        0.0000       25.5796       25.5796      22.239398       0.03307
  46    0.1487        3.3402        0.0000       25.5795       25.5795      22.239302       0.03484
  45    0.1794        3.3402        0.0000       25.5794       25.5794      22.239167       0.03708
  44    0.2165        3.3402        0.0000       25.5792       25.5792      22.239001       0.03764
  43    0.2613        3.3402        0.0000       25.5790       25.5790      22.238799       0.03822
  42    0.3336        3.3402        0.0000       25.5786       25.5786      22.238452       0.04038
  41    0.4307        3.3402        0.0000       25.5782       25.5782      22.237982       0.04093
  40    0.5894        3.3402        0.0000       25.5774       25.5774      22.237193       0.04194
  39     1.339        3.3402        0.0000       25.5735       25.5736      22.233395       0.04276
  38     1.782        3.3402        0.0000       25.5713       25.5713      22.231184       0.04209
  37     2.292        3.3402        0.0001       25.5688       25.5688      22.228682       0.04144
  36     2.964        3.3401        0.0001       25.5656       25.5656      22.225504       0.03989
  35     3.853        3.3401        0.0001       25.5615       25.5616      22.221466       0.03832
  34     5.035        3.3401        0.0001       25.5562       25.5564      22.216267       0.03714
  33     6.613        3.3401        0.0002       25.5494       25.5496      22.209524       0.03605
  32     8.786        3.3400        0.0002       25.5406       25.5408      22.200789       0.03393
  31     11.80        3.3400        0.0003       25.5287       25.5290      22.188978       0.03307
  30     15.07        3.3400        0.0004       25.5167       25.5171      22.177139       0.03057
  29     18.79        3.3399        0.0005       25.5042       25.5047      22.164768       0.02805
  28     23.16        3.3399        0.0006       25.4907       25.4913      22.151448       0.02576
  27     28.12        3.3398        0.0008       25.4764       25.4772      22.137411       0.02386
  26     33.73        3.3397        0.0009       25.4620       25.4629      22.123199       0.02137
  25     40.54        3.3397        0.0011       25.4463       25.4473      22.107676       0.01926
  24     48.69        3.3396        0.0013       25.4294       25.4307      22.091080       0.01717
  23     57.69        3.3395        0.0015       25.4126       25.4142      22.074628       0.01542
  22     68.43        3.3395        0.0018       25.3944       25.3963      22.056792       0.01402
  21     81.20        3.3394        0.0022       25.3744       25.3766      22.037192       0.01295
  20     96.49        3.3393        0.0026       25.3519       25.3545      22.015190       0.01214
  19     114.6        3.3393        0.0031       25.3262       25.3292      21.989981       0.01177
  18     136.5        3.3392        0.0036       25.2962       25.2998      21.960655       0.01128
  17     162.9        3.3391        0.0043       25.2521       25.2564      21.917318       0.01385
  16     196.4        3.3390        0.0052       25.1593       25.1645      21.825459       0.02312
  15     218.7        3.3390        0.0058       25.0159       25.0217      21.682664       0.05421
  14     243.0        3.3391        0.0063       24.7089       24.7153      21.376181       0.10630
  13     269.0        3.3392        0.0069       24.1619       24.1687      20.829540       0.17733
  12     297.5        3.3395        0.0074       23.4544       23.4618      20.122315       0.20976
  11     328.5        3.3400        0.0080       22.7355       22.7434      19.403471       0.19545
  10     361.9        3.3407        0.0085       21.9224       21.9309      18.590250       0.20575
   9     398.1        3.3418        0.0090       20.9939       21.0029      17.661180       0.21645
   8     437.6        3.3433        0.0095       19.9833       19.9928      16.649478       0.21631
   7     480.5        3.3456        0.0099       18.9483       18.9582      15.612601       0.20364
   6     533.0        3.3496        0.0104       17.7796       17.7900      14.440397       0.18857
   5     589.8        3.3562        0.0109       16.6726       16.6835      13.327287       0.16522
   4     651.6        3.3682        0.0113       15.6343       15.6457      12.277416       0.14357
   3     718.7        3.3902        0.0119       14.7738       14.7857      11.395523       0.11083
   2     792.3        3.4327        0.0125       14.0291       14.0416      10.608888       0.09022
   1     891.5        2.3199        1.4638       10.4952       11.9589       9.639069       0.08253
   0    1013.0        2.4221        1.3631        9.6579       11.0210       8.598839       0.07223



 Wavenumbers:  6150. -  7700. cm-1, ATM      1
 LEVEL PRESSURE   UPWARD FLUX   DIFDOWN FLUX  DIRDOWN FLUX  DOWNWARD FLUX   NET FLUX    HEATING RATE
          mb          W/m2          W/m2          W/m2        W/m2          W/m2       degree/day
  51    .06700        5.3249        0.0000       47.3109       47.3109      41.985970       0.00000
  50    .07753        5.3249        0.0000       47.3108       47.3108      41.985913       0.04553
  49    .09103        5.3249        0.0000       47.3107       47.3107      41.985840       0.04583
  48    0.1069        5.3249        0.0000       47.3106       47.3106      41.985753       0.04614
  47    0.1255        5.3249        0.0000       47.3105       47.3105      41.985651       0.04645
  46    0.1487        5.3249        0.0000       47.3104       47.3104      41.985518       0.04852
  45    0.1794        5.3249        0.0000       47.3102       47.3102      41.985331       0.05127
  44    0.2165        5.3249        0.0000       47.3100       47.3100      41.985104       0.05167
  43    0.2613        5.3249        0.0000       47.3097       47.3097      41.984827       0.05210
  42    0.3336        5.3249        0.0000       47.3092       47.3092      41.984358       0.05471
  41    0.4307        5.3249        0.0000       47.3085       47.3086      41.983723       0.05521
  40    0.5894        5.3248        0.0001       47.3074       47.3075      41.982664       0.05633
  39     1.339        5.3248        0.0001       47.3022       47.3023      41.977572       0.05733
  38     1.782        5.3247        0.0002       47.2991       47.2993      41.974602       0.05655
  37     2.292        5.3247        0.0003       47.2956       47.2959      41.971226       0.05591
  36     2.964        5.3246        0.0003       47.2912       47.2915      41.966908       0.05421
  35     3.853        5.3245        0.0004       47.2855       47.2859      41.961373       0.05252
  34     5.035        5.3244        0.0006       47.2780       47.2786      41.954193       0.05129
  33     6.613        5.3243        0.0007       47.2683       47.2691      41.944805       0.05019
  32     8.786        5.3241        0.0010       47.2556       47.2566      41.932506       0.04777
  31     11.80        5.3238        0.0013       47.2380       47.2394      41.915603       0.04732
  30     15.07        5.3234        0.0017       47.2201       47.2218      41.898316       0.04463
  29     18.79        5.3231        0.0021       47.2008       47.2029      41.879837       0.04190
  28     23.16        5.3227        0.0026       47.1795       47.1821      41.859448       0.03943
  27     28.12        5.3222        0.0032       47.1565       47.1597      41.837456       0.03739
  26     33.73        5.3217        0.0038       47.1324       47.1362      41.814537       0.03446
  25     40.54        5.3210        0.0046       47.1054       47.1099      41.788903       0.03180
  24     48.69        5.3202        0.0055       47.0754       47.0809      41.760654       0.02923
  23     57.69        5.3194        0.0065       47.0449       47.0514      41.732037       0.02682
  22     68.43        5.3184        0.0077       47.0110       47.0187      41.700306       0.02494
  21     81.20        5.3171        0.0091       46.9729       46.9820      41.664822       0.02345
  20     96.49        5.3157        0.0108       46.9294       46.9402      41.624494       0.02226
  19     114.6        5.3140        0.0128       46.8790       46.8918      41.577880       0.02177
  18     136.5        5.3119        0.0152       46.8200       46.8352      41.523286       0.02099
  17     162.9        5.3095        0.0181       46.7361       46.7542      41.444717       0.02511
  16     196.4        5.3064        0.0218       46.5703       46.5920      41.285654       0.04004
  15     218.7        5.3044        0.0241       46.3473       46.3714      41.067063       0.08299
  14     243.0        5.3023        0.0266       45.9299       45.9565      40.654169       0.14321
  13     269.0        5.3003        0.0291       45.1708       45.1998      39.899579       0.24479
  12     297.5        5.2984        0.0314       44.0115       44.0429      38.744475       0.34259
  11     328.5        5.2968        0.0338       42.7242       42.7580      37.461174       0.34893
  10     361.9        5.2957        0.0362       41.3539       41.3901      36.094371       0.34581
   9     398.1        5.2954        0.0385       39.7953       39.8337      34.538307       0.36253
   8     437.6        5.2964        0.0405       37.9948       38.0353      32.738898       0.38472
   7     480.5        5.2993        0.0424       36.0647       36.1071      30.807837       0.37925
   6     533.0        5.3065        0.0444       33.7773       33.8217      28.515207       0.36881
   5     589.8        5.3209        0.0460       31.4082       31.4542      26.133345       0.35355
   4     651.6        5.3509        0.0472       28.8834       28.9306      23.579722       0.34921
   3     718.7        5.4089        0.0481       26.4104       26.4585      21.049565       0.31797
   2     792.3        5.5273        0.0487       24.0056       24.0543      18.527029       0.28931
   1     891.5        3.7450        2.3999       17.0359       19.4357      15.690769       0.24135
   0    1013.0        4.0297        2.1435       14.9344       17.0779      13.048159       0.18349



 Wavenumbers:  7700. -  8050. cm-1, ATM      1
 LEVEL PRESSURE   UPWARD FLUX   DIFDOWN FLUX  DIRDOWN FLUX  DOWNWARD FLUX   NET FLUX    HEATING RATE
          mb          W/m2          W/m2          W/m2        W/m2          W/m2       degree/day
  51    .06700        5.7286        0.0000       11.1810       11.1810       5.452403       0.00000
  50    .07753        5.7286        0.0000       11.1809       11.1809       5.452382       0.01727
  49    .09103        5.7286        0.0000       11.1809       11.1809       5.452355       0.01692
  48    0.1069        5.7286        0.0000       11.1809       11.1809       5.452324       0.01657
  47    0.1255        5.7286        0.0000       11.1809       11.1809       5.452288       0.01621
  46    0.1487        5.7286        0.0000       11.1808       11.1808       5.452243       0.01645
  45    0.1794        5.7286        0.0000       11.1808       11.1808       5.452181       0.01693
  44    0.2165        5.7286        0.0000       11.1807       11.1807       5.452108       0.01661
  43    0.2613        5.7286        0.0000       11.1806       11.1806       5.452022       0.01630
  42    0.3336        5.7286        0.0000       11.1805       11.1805       5.451879       0.01667
  41    0.4307        5.7287        0.0000       11.1803       11.1804       5.451689       0.01649
  40    0.5894        5.7287        0.0000       11.1801       11.1801       5.451379       0.01647
  39     1.339        5.7290        0.0001       11.1788       11.1789       5.449914       0.01650
  38     1.782        5.7291        0.0001       11.1781       11.1782       5.449053       0.01639
  37     2.292        5.7293        0.0001       11.1772       11.1773       5.448056       0.01650
  36     2.964        5.7295        0.0002       11.1761       11.1762       5.446748       0.01642
  35     3.853        5.7298        0.0002       11.1746       11.1748       5.445020       0.01640
  34     5.035        5.7302        0.0003       11.1726       11.1729       5.442724       0.01640
  33     6.613        5.7307        0.0004       11.1700       11.1703       5.439658       0.01639
  32     8.786        5.7313        0.0005       11.1664       11.1669       5.435527       0.01604
  31     11.80        5.7323        0.0006       11.1613       11.1619       5.429622       0.01653
  30     15.07        5.7334        0.0008       11.1558       11.1567       5.423288       0.01635
  29     18.79        5.7346        0.0010       11.1497       11.1507       5.416140       0.01621
  28     23.16        5.7360        0.0013       11.1425       11.1438       5.407803       0.01612
  27     28.12        5.7376        0.0015       11.1343       11.1359       5.398283       0.01618
  26     33.73        5.7394        0.0018       11.1252       11.1270       5.387652       0.01598
  25     40.54        5.7416        0.0022       11.1142       11.1164       5.374838       0.01590
  24     48.69        5.7442        0.0026       11.1010       11.1037       5.359437       0.01594
  23     57.69        5.7471        0.0031       11.0866       11.0897       5.342579       0.01580
  22     68.43        5.7507        0.0037       11.0695       11.0732       5.322585       0.01572
  21     81.20        5.7549        0.0044       11.0494       11.0538       5.298883       0.01566
  20     96.49        5.7600        0.0052       11.0255       11.0308       5.270807       0.01550
  19     114.6        5.7660        0.0062       10.9975       11.0037       5.237706       0.01546
  18     136.5        5.7733        0.0073       10.9648       10.9721       5.198792       0.01496
  17     162.9        5.7821        0.0087       10.9263       10.9350       5.152882       0.01467
  16     196.4        5.7938        0.0105       10.8773       10.8878       5.094001       0.01482
  15     218.7        5.8015        0.0117       10.8455       10.8572       5.055680       0.01455
  14     243.0        5.8101        0.0129       10.8114       10.8244       5.014276       0.01436
  13     269.0        5.8195        0.0143       10.7749       10.7892       4.969619       0.01449
  12     297.5        5.8300        0.0158       10.7357       10.7515       4.921474       0.01428
  11     328.5        5.8416        0.0174       10.6937       10.7111       4.869523       0.01413
  10     361.9        5.8544        0.0191       10.6489       10.6679       4.813527       0.01417
   9     398.1        5.8687        0.0209       10.6008       10.6217       4.752976       0.01411
   8     437.6        5.8847        0.0229       10.5491       10.5720       4.687236       0.01406
   7     480.5        5.9027        0.0250       10.4934       10.5184       4.615714       0.01405
   6     533.0        5.9262        0.0276       10.4243       10.4519       4.525686       0.01448
   5     589.8        5.9536        0.0304       10.3479       10.3783       4.424705       0.01499
   4     651.6        5.9865        0.0334       10.2613       10.2947       4.308276       0.01592
   3     718.7        6.0267        0.0366       10.1618       10.1983       4.171600       0.01718
   2     792.3        6.0778        0.0399       10.0439       10.0838       4.006030       0.01899
   1     891.5        5.5536        1.3971        7.9120        9.3091       3.755524       0.02132
   0    1013.0        5.6733        1.3711        7.7096        9.0807       3.407403       0.02417



 Wavenumbers:  8050. - 12850. cm-1, ATM      1
 LEVEL PRESSURE   UPWARD FLUX   DIFDOWN FLUX  DIRDOWN FLUX  DOWNWARD FLUX   NET FLUX    HEATING RATE
          mb          W/m2          W/m2          W/m2        W/m2          W/m2       degree/day
  51    .06700       93.9280        0.0000      156.5418      156.5418      62.613727       0.00000
  50    .07753       93.9280        0.0000      156.5417      156.5417      62.613727      -0.00000
  49    .09103       93.9280        0.0001      156.5417      156.5417      62.613727       0.00000
  48    0.1069       93.9280        0.0001      156.5416      156.5417      62.613727      -0.00000
  47    0.1255       93.9280        0.0002      156.5415      156.5417      62.613727      -0.00000
  46    0.1487       93.9279        0.0002      156.5414      156.5417      62.613727       0.00000
  45    0.1794       93.9279        0.0003      156.5413      156.5416      62.613727       0.00000
  44    0.2165       93.9279        0.0004      156.5412      156.5416      62.613727      -0.00000
  43    0.2613       93.9278        0.0006      156.5410      156.5415      62.613727       0.00000
  42    0.3336       93.9277        0.0008      156.5407      156.5415      62.613727      -0.00000
  41    0.4307       93.9276        0.0010      156.5403      156.5413      62.613727       0.00000
  40    0.5894       93.9274        0.0015      156.5397      156.5412      62.613727       0.00000
  39     1.339       93.9266        0.0036      156.5367      156.5403      62.613727      -0.00000
  38     1.782       93.9261        0.0049      156.5350      156.5399      62.613727      -0.00000
  37     2.292       93.9256        0.0063      156.5330      156.5393      62.613727      -0.00000
  36     2.964       93.9248        0.0082      156.5303      156.5386      62.613727       0.00000
  35     3.853       93.9238        0.0107      156.5268      156.5376      62.613727       0.00000
  34     5.035       93.9225        0.0141      156.5222      156.5363      62.613727       0.00000
  33     6.613       93.9208        0.0185      156.5160      156.5345      62.613727       0.00000
  32     8.786       93.9185        0.0246      156.5076      156.5322      62.613727      -0.00000
  31     11.80       93.9151        0.0332      156.4957      156.5288      62.613727       0.00000
  30     15.07       93.9115        0.0425      156.4828      156.5252      62.613727       0.00000
  29     18.79       93.9074        0.0529      156.4682      156.5212      62.613727      -0.00000
  28     23.16       93.9027        0.0652      156.4512      156.5164      62.613727      -0.00000
  27     28.12       93.8972        0.0792      156.4317      156.5109      62.613727       0.00000
  26     33.73       93.8911        0.0949      156.4099      156.5048      62.613727       0.00000
  25     40.54       93.8837        0.1140      156.3834      156.4974      62.613727      -0.00000
  24     48.69       93.8747        0.1369      156.3515      156.4885      62.613727       0.00000
  23     57.69       93.8649        0.1622      156.3164      156.4786      62.613727       0.00000
  22     68.43       93.8532        0.1923      156.2746      156.4669      62.613727      -0.00000
  21     81.20       93.8392        0.2283      156.2246      156.4529      62.613727       0.00000
  20     96.49       93.8224        0.2712      156.1649      156.4362      62.613727       0.00000
  19     114.6       93.8027        0.3223      156.0879      156.4102      62.607512       0.00290
  18     136.5       93.7793        0.3829      155.9962      156.3791      62.599803       0.00296
  17     162.9       93.7514        0.4553      155.8831      156.3384      62.587008       0.00409
  16     196.4       93.7152        0.5494      155.7199      156.2694      62.554215       0.00825
  15     218.7       93.6915        0.6113      155.5733      156.1846      62.493098       0.02320
  14     243.0       93.6664        0.6786      155.3367      156.0153      62.348914       0.05001
  13     269.0       93.6404        0.7514      154.9514      155.7028      62.062429       0.09293
  12     297.5       93.6148        0.8297      154.3896      155.2193      61.604552       0.13580
  11     328.5       93.5904        0.9142      153.7151      154.6293      61.038924       0.15379
  10     361.9       93.5688        1.0048      152.9087      153.9136      60.344771       0.17563
   9     398.1       93.5529        1.1018      151.8986      153.0004      59.447484       0.20905
   8     437.6       93.5476        1.2049      150.6031      151.8081      58.260508       0.25378
   7     480.5       93.5586        1.3140      149.0014      150.3154      56.756796       0.29532
   6     533.0       93.6038        1.4460      146.7375      148.1835      54.579726       0.35022
   5     589.8       93.7105        1.5842      143.8730      145.4572      51.746731       0.42051
   4     651.6       93.9471        1.7262      140.0955      141.8217      47.874571       0.52953
   3     718.7       94.4050        1.8705      135.5278      137.3982      42.993206       0.61345
   2     792.3       95.2922        2.0137      130.0690      132.0827      36.790483       0.71138
   1     891.5       90.9098       20.3080       97.9892      118.2972      27.387391       0.80016
   0    1013.0       95.1565       19.4242       90.6268      110.0510      14.894479       0.86745



 Wavenumbers: 12850. - 16000. cm-1, ATM      1
 LEVEL PRESSURE   UPWARD FLUX   DIFDOWN FLUX  DIRDOWN FLUX  DOWNWARD FLUX   NET FLUX    HEATING RATE
          mb          W/m2          W/m2          W/m2        W/m2          W/m2       degree/day
  51    .06700       79.6687        0.0000       98.0872       98.0872      18.418587       0.00000
  50    .07753       79.6687        0.0001       98.0864       98.0864      18.417795       0.63459
  49    .09103       79.6687        0.0002       98.0853       98.0855      18.416801       0.62153
  48    0.1069       79.6687        0.0003       98.0841       98.0843      18.415658       0.60822
  47    0.1255       79.6687        0.0004       98.0826       98.0830      18.414345       0.59521
  46    0.1487       79.6687        0.0005       98.0809       98.0814      18.412688       0.60403
  45    0.1794       79.6687        0.0007       98.0784       98.0792      18.410433       0.61890
  44    0.2165       79.6688        0.0010       98.0756       98.0766      18.407781       0.60333
  43    0.2613       79.6689        0.0013       98.0723       98.0736      18.404662       0.58799
  42    0.3336       79.6692        0.0017       98.0670       98.0687      18.399570       0.59368
  41    0.4307       79.6696        0.0023       98.0602       98.0625      18.392984       0.57263
  40    0.5894       79.6703        0.0034       98.0496       98.0529      18.382604       0.55200
  39     1.339       79.6770        0.0082       98.0043       98.0125      18.335534       0.52992
  38     1.782       79.6830        0.0110       97.9793       97.9903      18.307253       0.53841
  37     2.292       79.6920        0.0143       97.9498       97.9641      18.272015       0.58363
  36     2.964       79.7069        0.0186       97.9088       97.9274      18.220457       0.64721
  35     3.853       79.7309        0.0242       97.8503       97.8746      18.143661       0.72881
  34     5.035       79.7670        0.0318       97.7680       97.7998      18.032722       0.79250
  33     6.613       79.8174        0.0418       97.6562       97.6980      17.880556       0.81348
  32     8.786       79.8831        0.0553       97.5107       97.5660      17.682923       0.76754
  31     11.80       79.9686        0.0747       97.3179       97.3925      17.423951       0.72504
  30     15.07       80.0506        0.0954       97.1283       97.2238      17.173182       0.64744
  29     18.79       80.1343        0.1188       96.9300       97.0489      16.914506       0.58650
  28     23.16       80.2220        0.1462       96.7166       96.8627      16.640700       0.52945
  27     28.12       80.3104        0.1774       96.4935       96.6709      16.360475       0.47636
  26     33.73       80.3923        0.2123       96.2731       96.4854      16.093139       0.40195
  25     40.54       80.4715        0.2546       96.0408       96.2953      15.823814       0.33413
  24     48.69       80.5479        0.3055       95.7946       96.1000      15.552144       0.28114
  23     57.69       80.6132        0.3614       95.5573       95.9187      15.305447       0.23124
  22     68.43       80.6709        0.4281       95.3106       95.7387      15.067736       0.18687
  21     81.20       80.7121        0.5076       95.0643       95.5719      14.859804       0.13740
  20     96.49       80.7357        0.6024       94.8153       95.4177      14.682030       0.09812
  19     114.6       80.7649        0.7163       94.5411       95.2574      14.492436       0.08853
  18     136.5       80.7880        0.8513       94.2320       95.0833      14.295362       0.07578
  17     162.9       80.8047        1.0120       93.8753       94.8873      14.082647       0.06799
  16     196.4       80.8037        1.2205       93.4347       94.6551      13.851430       0.05820
  15     218.7       80.7949        1.3574       93.1513       94.5086      13.713754       0.05227
  14     243.0       80.7818        1.5062       92.8439       94.3501      13.568306       0.05045
  13     269.0       80.7643        1.6674       92.5111       94.1786      13.414220       0.04998
  12     297.5       80.7430        1.8417       92.1495       93.9912      13.248234       0.04923
  11     328.5       80.7197        2.0300       91.7554       93.7854      13.065771       0.04961
  10     361.9       80.6952        2.2328       91.3262       93.5590      12.863777       0.05111
   9     398.1       80.6710        2.4510       90.8575       93.3086      12.637555       0.05270
   8     437.6       80.6497        2.6853       90.3418       93.0271      12.377431       0.05562
   7     480.5       80.6338        2.9363       89.7728       92.7091      12.075273       0.05934
   6     533.0       80.6283        3.2450       89.0428       92.2878      11.659526       0.06688
   5     589.8       80.6488        3.5768       88.2038       91.7807      11.131916       0.07831
   4     651.6       80.7254        3.9317       87.1979       91.1297      10.404246       0.09951
   3     718.7       80.8785        4.3079       86.0161       90.3240       9.445557       0.12048
   2     792.3       81.1725        4.7015       84.5970       89.2986       8.126045       0.15133
   1     891.5       78.6877       18.4206       66.1393       84.5599       5.872231       0.19179
   0    1013.0       80.0191       18.6142       63.8774       82.4917       2.472554       0.23606



 Wavenumbers: 16000. - 22650. cm-1, ATM      1
 LEVEL PRESSURE   UPWARD FLUX   DIFDOWN FLUX  DIRDOWN FLUX  DOWNWARD FLUX   NET FLUX    HEATING RATE
          mb          W/m2          W/m2          W/m2        W/m2          W/m2       degree/day
  51    .06700      140.4910        0.0000      156.3892      156.3892      15.898285       0.00000
  50    .07753      140.4909        0.0004      156.3887      156.3891      15.898138       0.11801
  49    .09103      140.4909        0.0009      156.3879      156.3888      15.897924       0.13385
  48    0.1069      140.4909        0.0015      156.3871      156.3885      15.897637       0.15263
  47    0.1255      140.4909        0.0021      156.3861      156.3882      15.897254       0.17398
  46    0.1487      140.4910        0.0030      156.3847      156.3877      15.896688       0.20616
  45    0.1794      140.4911        0.0041      156.3828      156.3869      15.895804       0.24274
  44    0.2165      140.4913        0.0054      156.3805      156.3859      15.894604       0.27281
  43    0.2613      140.4917        0.0070      156.3776      156.3846      15.892977       0.30671
  42    0.3336      140.4924        0.0096      156.3726      156.3823      15.889884       0.36068
  41    0.4307      140.4936        0.0131      156.3657      156.3788      15.885221       0.40545
  40    0.5894      140.4962        0.0188      156.3537      156.3725      15.876327       0.47294
  39     1.339      140.5186        0.0458      156.2834      156.3292      15.810622       0.73972
  38     1.782      140.5393        0.0616      156.2324      156.2940      15.754650       1.06563
  37     2.292      140.5704        0.0799      156.1641      156.2440      15.673629       1.34192
  36     2.964      140.6221        0.1040      156.0605      156.1645      15.542374       1.64764
  35     3.853      140.7057        0.1357      155.9041      156.0398      15.334106       1.97650
  34     5.035      140.8318        0.1778      155.6774      155.8552      15.023389       2.21964
  33     6.613      141.0081        0.2341      155.3656      155.5997      14.591585       2.30842
  32     8.786      141.2377        0.3097      154.9577      155.2674      14.029717       2.18209
  31     11.80      141.5364        0.4178      154.4153      154.8330      13.296636       2.05240
  30     15.07      141.8226        0.5336      153.8804      154.4140      12.591446       1.82066
  29     18.79      142.1147        0.6643      153.3191      153.9834      11.868705       1.63868
  28     23.16      142.4200        0.8167      152.7126      153.5293      11.109304       1.46844
  27     28.12      142.7271        0.9907      152.0755      153.0662      10.339158       1.30920
  26     33.73      143.0104        1.1853      151.4409      152.6262       9.615774       1.08763
  25     40.54      143.2830        1.4201      150.7637      152.1838       8.900824       0.88698
  24     48.69      143.5438        1.7030      150.0338      151.7368       8.193026       0.73246
  23     57.69      143.7647        2.0133      149.3151      151.3284       7.563734       0.58987
  22     68.43      143.9570        2.3824      148.5476      150.9300       6.973007       0.46439
  21     81.20      144.0893        2.8220      147.7517      150.5736       6.484346       0.32290
  20     96.49      144.1569        3.3452      146.9127      150.2578       6.100878       0.21165
  19     114.6      144.1912        3.9646      145.9763      149.9409       5.749715       0.16397
  18     136.5      144.2005        4.6960      144.9088      149.6048       5.404268       0.13283
  17     162.9      144.1832        5.5629      143.6785      149.2415       5.058236       0.11061
  16     196.4      144.0995        6.6814      142.1651      148.8465       4.747022       0.07834
  15     218.7      144.0220        7.4124      141.2033      148.6157       4.593707       0.05821
  14     243.0      143.9275        8.2035      140.1753      148.3788       4.451316       0.04939
  13     269.0      143.8143        9.0569      139.0797      148.1366       4.322269       0.04186
  12     297.5      143.6819        9.9748      137.9141      147.8889       4.206951       0.03420
  11     328.5      143.5342       10.9613      136.6676      147.6289       4.094751       0.03051
  10     361.9      143.3708       12.0175      135.3392      147.3566       3.985814       0.02756
   9     398.1      143.1914       13.1472      133.9235      147.0707       3.879262       0.02482
   8     437.6      142.9969       14.3526      132.4163      146.7689       3.771976       0.02294
   7     480.5      142.7869       15.6359      130.8147      146.4505       3.663681       0.02127
   6     533.0      142.5283       17.2031      128.8599      146.0630       3.534719       0.02075
   5     589.8      142.2535       18.8777      126.7679      145.6456       3.392111       0.02117
   4     651.6      141.9686       20.6611      124.5274      145.1885       3.219975       0.02354
   3     718.7      141.6796       22.5552      122.1285      144.6836       3.004049       0.02714
   2     792.3      141.4031       24.5577      119.5548      144.1126       2.709483       0.03378
   1     891.5      137.2563       46.3224       93.1106      139.4330       2.176763       0.04533
   0    1013.0      137.1355       48.7554       89.7281      138.4835       1.347959       0.05755



 Wavenumbers: 22650. - 29000. cm-1, ATM      1
 LEVEL PRESSURE   UPWARD FLUX   DIFDOWN FLUX  DIRDOWN FLUX  DOWNWARD FLUX   NET FLUX    HEATING RATE
          mb          W/m2          W/m2          W/m2        W/m2          W/m2       degree/day
  51    .06700       58.6815        0.0000       59.0156       59.0156       0.334085       0.00000
  50    .07753       58.6814        0.0005       59.0151       59.0155       0.334085       0.00000
  49    .09103       58.6813        0.0010       59.0144       59.0154       0.334085       0.00000
  48    0.1069       58.6812        0.0017       59.0136       59.0153       0.334085      -0.00000
  47    0.1255       58.6810        0.0025       59.0127       59.0151       0.334085       0.00000
  46    0.1487       58.6809        0.0035       59.0115       59.0149       0.334085      -0.00000
  45    0.1794       58.6806        0.0048       59.0099       59.0147       0.334085       0.00000
  44    0.2165       58.6803        0.0063       59.0080       59.0144       0.334085      -0.00000
  43    0.2613       58.6799        0.0082       59.0058       59.0140       0.334085       0.00000
  42    0.3336       58.6794        0.0113       59.0022       59.0134       0.334085      -0.00000
  41    0.4307       58.6786        0.0154       58.9973       59.0127       0.334085       0.00000
  40    0.5894       58.6773        0.0220       58.9894       59.0114       0.334085      -0.00000
  39     1.339       58.6712        0.0535       58.9518       59.0053       0.334085       0.00000
  38     1.782       58.6677        0.0720       58.9297       59.0017       0.334085       0.00000
  37     2.292       58.6635        0.0934       58.9042       58.9976       0.334085      -0.00000
  36     2.964       58.6581        0.1216       58.8706       58.9922       0.334085       0.00000
  35     3.853       58.6510        0.1587       58.8264       58.9851       0.334085      -0.00000
  34     5.035       58.6415        0.2080       58.7676       58.9756       0.334085       0.00000
  33     6.613       58.6288        0.2738       58.6891       58.9629       0.334085       0.00000
  32     8.786       58.6117        0.3624       58.5834       58.9458       0.334085       0.00000
  31     11.80       58.5874        0.4890       58.4324       58.9215       0.334085      -0.00000
  30     15.07       58.5613        0.6247       58.2706       58.8953       0.334085       0.00000
  29     18.79       58.5318        0.7776       58.0882       58.8659       0.334085       0.00000
  28     23.16       58.4975        0.9559       57.8757       58.8316       0.334085      -0.00000
  27     28.12       58.4583        1.1591       57.6333       58.7924       0.334085       0.00000
  26     33.73       58.4147        1.3857       57.3631       58.7488       0.334085       0.00000
  25     40.54       58.3622        1.6584       57.0379       58.6963       0.334085      -0.00000
  24     48.69       58.2992        1.9854       56.6479       58.6333       0.334085       0.00000
  23     57.69       58.2304        2.3424       56.2221       58.5645       0.334085      -0.00000
  22     68.43       58.1491        2.7646       55.7186       58.4831       0.334085       0.00000
  21     81.20       58.0530        3.2632       55.1239       58.3871       0.334085      -0.00000
  20     96.49       57.9397        3.8510       54.4228       58.2738       0.334085       0.00000
  19     114.6       57.8069        4.5400       53.6010       58.1409       0.334085      -0.00000
  18     136.5       57.6518        5.3441       52.6418       57.9859       0.334085       0.00000
  17     162.9       57.4704        6.2842       51.5203       57.8045       0.334085      -0.00000
  16     196.4       57.2406        7.4752       50.0994       57.5746       0.334085       0.00000
  15     218.7       57.0928        8.2406       49.1863       57.4269       0.334085      -0.00000
  14     243.0       56.9349        9.0578       48.2113       57.2690       0.334085       0.00000
  13     269.0       56.7671        9.9263       47.1749       57.1012       0.334085      -0.00000
  12     297.5       56.5895       10.8453       46.0783       56.9235       0.334085      -0.00000
  11     328.5       56.4017       11.8162       44.9195       56.7358       0.334085       0.00000
  10     361.9       56.2042       12.8365       43.7018       56.5383       0.334085      -0.00000
   9     398.1       55.9971       13.9062       42.4250       56.3312       0.334085       0.00000
   8     437.6       55.7807       15.0231       41.0916       56.1148       0.334085      -0.00000
   7     480.5       55.5554       16.1850       39.7045       55.8895       0.334085       0.00000
   6     533.0       55.2871       17.5670       38.0543       55.6212       0.334085       0.00000
   5     589.8       55.0087       18.9998       36.3431       55.3428       0.334085       0.00000
   4     651.6       54.7215       20.4761       34.5795       55.0556       0.334085       0.00000
   3     718.7       54.4265       21.9904       32.7702       54.7606       0.334085      -0.00000
   2     792.3       54.1253       23.5338       30.9256       54.4594       0.334085       0.00000
   1     891.5       52.8151       30.2210       22.9282       53.1492       0.334063       0.00000
   0    1013.0       52.4693       31.9703       20.8330       52.8033       0.334063      -0.00000



 Wavenumbers: 29000. - 38000. cm-1, ATM      1
 LEVEL PRESSURE   UPWARD FLUX   DIFDOWN FLUX  DIRDOWN FLUX  DOWNWARD FLUX   NET FLUX    HEATING RATE
          mb          W/m2          W/m2          W/m2        W/m2          W/m2       degree/day
  51    .06700        8.7679        0.0000       20.8114       20.8114      12.043411       0.00000
  50    .07753        8.7678        0.0003       20.8070       20.8074      12.039603       3.05155
  49    .09103        8.7675        0.0007       20.8009       20.8016      12.034066       3.46085
  48    0.1069        8.7673        0.0012       20.7928       20.7939      12.026656       3.94429
  47    0.1255        8.7670        0.0017       20.7820       20.7837      12.016752       4.49034
  46    0.1487        8.7666        0.0024       20.7665       20.7688      12.002189       5.30844
  45    0.1794        8.7662        0.0033       20.7424       20.7457      11.979524       6.22204
  44    0.2165        8.7657        0.0044       20.7103       20.7147      11.949001       6.94340
  43    0.2613        8.7651        0.0056       20.6675       20.6731      11.908006       7.72733
  42    0.3336        8.7642        0.0077       20.5880       20.5957      11.831445       8.92625
  41    0.4307        8.7631        0.0104       20.4722       20.4826      11.719493       9.73403
  40    0.5894        8.7616        0.0147       20.2637       20.2784      11.516809      10.77847
  39     1.339        8.7582        0.0331       19.0984       19.1315      10.373331      12.87348
  38     1.782        8.7587        0.0427       18.4394       18.4821       9.723406      12.37352
  37     2.292        8.7613        0.0530       17.7714       17.8244       9.063061      10.93705
  36     2.964        8.7679        0.0657       17.0421       17.1078       8.339935       9.07741
  35     3.853        8.7807        0.0816       16.2678       16.3495       7.568754       7.31865
  34     5.035        8.8019        0.1018       15.4803       15.5821       6.780257       5.63270
  33     6.613        8.8326        0.1276       14.7157       14.8433       6.010671       4.11421
  32     8.786        8.8732        0.1614       13.9936       14.1549       5.281718       2.83099
  31     11.80        8.9262        0.2084       13.2835       13.4920       4.565750       2.00448
  30     15.07        8.9773        0.2573       12.7394       12.9966       4.019271       1.41090
  29     18.79        9.0302        0.3114       12.2666       12.5780       3.547819       1.06893
  28     23.16        9.0863        0.3729       11.8300       12.2029       3.116672       0.83370
  27     28.12        9.1437        0.4418       11.4279       11.8697       2.725969       0.66417
  26     33.73        9.1968        0.5178       11.0695       11.5872       2.390452       0.50446
  25     40.54        9.2472        0.6085       10.7209       11.3294       2.082271       0.38233
  24     48.69        9.2947        0.7162       10.3742       11.0904       1.795699       0.29656
  23     57.69        9.3337        0.8328       10.0549       10.8877       1.553923       0.22663
  22     68.43        9.3654        0.9695        9.7327       10.7022       1.336868       0.17063
  21     81.20        9.3806        1.1310        9.4134       10.5444       1.163786       0.11437
  20     96.49        9.3774        1.3207        9.0887       10.4095       1.032027       0.07272
  19     114.6        9.3641        1.5400        8.7388       10.2788       0.914743       0.05476
  18     136.5        9.3434        1.7907        8.3549       10.1456       0.802204       0.04327
  17     162.9        9.3157        2.0766        7.9311       10.0077       0.692013       0.03522
  16     196.4        9.2689        2.4306        7.4333        9.8639       0.595022       0.02441
  15     218.7        9.2351        2.6533        7.1295        9.7828       0.547715       0.01796
  14     243.0        9.1981        2.8861        6.8161        9.7021       0.504032       0.01515
  13     269.0        9.1577        3.1282        6.4943        9.6225       0.464806       0.01272
  12     297.5        9.1139        3.3784        6.1657        9.5441       0.430227       0.01026
  11     328.5        9.0682        3.6359        5.8295        9.4653       0.397120       0.00900
  10     361.9        9.0210        3.8980        5.4886        9.3867       0.365632       0.00797
   9     398.1        8.9725        4.1643        5.1440        9.3083       0.335791       0.00695
   8     437.6        8.9232        4.4333        4.7969        9.2303       0.307024       0.00615
   7     480.5        8.8735        4.7028        4.4504        9.1532       0.279716       0.00536
   6     533.0        8.8164        5.0101        4.0563        9.0664       0.249946       0.00479
   5     589.8        8.7602        5.3131        3.6682        8.9813       0.221120       0.00428
   4     651.6        8.7058        5.6082        3.2905        8.8987       0.192917       0.00386
   3     718.7        8.6537        5.8938        2.9252        8.8190       0.165292       0.00347
   2     792.3        8.6046        6.1665        2.5764        8.7429       0.138249       0.00310
   1     891.5        8.4708        6.8383        1.7376        8.5759       0.105065       0.00282
   0    1013.0        8.4299        7.0924        1.4060        8.4985       0.068569       0.00253



 Wavenumbers: 38000. - 50000. cm-1, ATM      1
 LEVEL PRESSURE   UPWARD FLUX   DIFDOWN FLUX  DIRDOWN FLUX  DOWNWARD FLUX   NET FLUX    HEATING RATE
          mb          W/m2          W/m2          W/m2        W/m2          W/m2       degree/day
  51    .06700        0.0061        0.0000        1.2836        1.2836       1.277518       0.00000
  50    .07753        0.0061        0.0001        1.2812        1.2812       1.275183       1.87150
  49    .09103        0.0060        0.0002        1.2777        1.2778       1.271851       2.08247
  48    0.1069        0.0059        0.0002        1.2731        1.2734       1.267473       2.33059
  47    0.1255        0.0058        0.0004        1.2672        1.2675       1.261717       2.60908
  46    0.1487        0.0057        0.0005        1.2586        1.2591       1.253391       3.03499
  45    0.1794        0.0055        0.0007        1.2455        1.2462       1.240623       3.50520
  44    0.2165        0.0054        0.0009        1.2282        1.2291       1.223697       3.85037
  43    0.2613        0.0052        0.0011        1.2054        1.2065       1.201348       4.21261
  42    0.3336        0.0049        0.0015        1.1639        1.1654       1.160524       4.75970
  41    0.4307        0.0045        0.0020        1.1051        1.1070       1.102565       5.03943
  40    0.5894        0.0039        0.0026        1.0039        1.0064       1.002524       5.32007
  39     1.339        0.0022        0.0035        0.5438        0.5473       0.545104       5.14971
  38     1.782        0.0016        0.0032        0.3635        0.3666       0.365006       3.42879
  37     2.292        0.0012        0.0027        0.2356        0.2383       0.237058       2.11916
  36     2.964        0.0009        0.0022        0.1455        0.1477       0.146786       1.13318
  35     3.853        0.0006        0.0017        0.0858        0.0875       0.086906       0.56828
  34     5.035        0.0004        0.0013        0.0488        0.0501       0.049701       0.26578
  33     6.613        0.0003        0.0010        0.0273        0.0282       0.027974       0.11615
  32     8.786        0.0002        0.0007        0.0144        0.0151       0.014928       0.05067
  31     11.80        0.0001        0.0004        0.0065        0.0070       0.006903       0.02247
  30     15.07        0.0000        0.0003        0.0031        0.0034       0.003329       0.00923
  29     18.79        0.0000        0.0002        0.0014        0.0016       0.001583       0.00396
  28     23.16        0.0000        0.0001        0.0006        0.0007       0.000720       0.00167
  27     28.12        0.0000        0.0001        0.0003        0.0003       0.000317       0.00069
  26     33.73        0.0000        0.0000        0.0001        0.0001       0.000140       0.00027
  25     40.54        0.0000        0.0000        0.0000        0.0001       0.000057       0.00010
  24     48.69        0.0000        0.0000        0.0000        0.0000       0.000021       0.00004
  23     57.69        0.0000        0.0000        0.0000        0.0000       0.000008       0.00001
  22     68.43        0.0000        0.0000        0.0000        0.0000       0.000003       0.00000
  21     81.20        0.0000        0.0000        0.0000        0.0000       0.000001       0.00000
  20     96.49        0.0000        0.0000        0.0000        0.0000       0.000000       0.00000
  19     114.6        0.0000        0.0000        0.0000        0.0000       0.000000       0.00000
  18     136.5        0.0000        0.0000        0.0000        0.0000       0.000000       0.00000
  17     162.9        0.0000        0.0000        0.0000        0.0000       0.000000       0.00000
  16     196.4        0.0000        0.0000        0.0000        0.0000       0.000000       0.00000
  15     218.7        0.0000        0.0000        0.0000        0.0000       0.000000       0.00000
  14     243.0        0.0000        0.0000        0.0000        0.0000       0.000000       0.00000
  13     269.0        0.0000        0.0000        0.0000        0.0000       0.000000       0.00000
  12     297.5        0.0000        0.0000        0.0000        0.0000       0.000000       0.00000
  11     328.5        0.0000        0.0000        0.0000        0.0000       0.000000       0.00000
  10     361.9        0.0000        0.0000        0.0000        0.0000       0.000000       0.00000
   9     398.1        0.0000        0.0000        0.0000        0.0000       0.000000       0.00000
   8     437.6        0.0000        0.0000        0.0000        0.0000       0.000000       0.00000
   7     480.5        0.0000        0.0000        0.0000        0.0000       0.000000       0.00000
   6     533.0        0.0000        0.0000        0.0000        0.0000       0.000000       0.00000
   5     589.8        0.0000        0.0000        0.0000        0.0000       0.000000       0.00000
   4     651.6        0.0000        0.0000        0.0000        0.0000       0.000000       0.00000
   3     718.7        0.0000        0.0000        0.0000        0.0000       0.000000       0.00000
   2     792.3        0.0000        0.0000        0.0000        0.0000       0.000000       0.00000
   1     891.5        0.0000        0.0000        0.0000        0.0000       0.000000       0.00000
   0    1013.0        0.0000        0.0000        0.0000        0.0000       0.000000       0.00000



 Wavenumbers:   820. -  2600. cm-1, ATM      1
 LEVEL PRESSURE   UPWARD FLUX   DIFDOWN FLUX  DIRDOWN FLUX  DOWNWARD FLUX   NET FLUX    HEATING RATE
          mb          W/m2          W/m2          W/m2        W/m2          W/m2       degree/day
  51    .06700        0.1825        0.0000        6.0047        6.0047       5.822119       0.00000
  50    .07753        0.1825        0.0000        6.0008        6.0008       5.818266       3.08820
  49    .09103        0.1825        0.0000        5.9999        5.9999       5.817380       0.55356
  48    0.1069        0.1825        0.0000        5.9989        5.9989       5.816391       0.52651
  47    0.1255        0.1825        0.0000        5.9978        5.9978       5.815274       0.50648
  46    0.1487        0.1825        0.0000        5.9964        5.9964       5.813917       0.49455
  45    0.1794        0.1825        0.0000        5.9947        5.9947       5.812198       0.47198
  44    0.2165        0.1825        0.0000        5.9929        5.9929       5.810355       0.41908
  43    0.2613        0.1825        0.0000        5.9909        5.9909       5.808396       0.36931
  42    0.3336        0.1825        0.0000        5.9880        5.9880       5.805518       0.33554
  41    0.4307        0.1825        0.0000        5.9846        5.9846       5.802049       0.30163
  40    0.5894        0.1825        0.0000        5.9791        5.9791       5.796544       0.29274
  39     1.339        0.1825        0.0000        5.9536        5.9536       5.771059       0.28692
  38     1.782        0.1825        0.0000        5.9395        5.9395       5.756922       0.26915
  37     2.292        0.1825        0.0000        5.9237        5.9237       5.741172       0.26086
  36     2.964        0.1825        0.0000        5.9039        5.9039       5.721399       0.24821
  35     3.853        0.1825        0.0000        5.8793        5.8793       5.696745       0.23397
  34     5.035        0.1825        0.0000        5.8487        5.8487       5.666184       0.21831
  33     6.613        0.1825        0.0000        5.8108        5.8108       5.628223       0.20294
  32     8.786        0.1825        0.0000        5.7631        5.7631       5.580603       0.18494
  31     11.80        0.1825        0.0000        5.7039        5.7039       5.521352       0.16589
  30     15.07        0.1825        0.0000        5.6539        5.6539       5.471318       0.12918
  29     18.79        0.1825        0.0000        5.6127        5.6127       5.430187       0.09326
  28     23.16        0.1826        0.0000        5.5794        5.5794       5.396816       0.06453
  27     28.12        0.1826        0.0000        5.5518        5.5518       5.369254       0.04685
  26     33.73        0.1826        0.0000        5.5268        5.5268       5.344205       0.03766
  25     40.54        0.1826        0.0000        5.4993        5.4993       5.316764       0.03404
  24     48.69        0.1826        0.0000        5.4678        5.4678       5.285223       0.03264
  23     57.69        0.1826        0.0000        5.4340        5.4340       5.251435       0.03167
  22     68.43        0.1826        0.0000        5.3947        5.3948       5.212159       0.03088
  21     81.20        0.1826        0.0000        5.3497        5.3497       5.167121       0.02976
  20     96.49        0.1826        0.0000        5.2982        5.2982       5.115602       0.02843
  19     114.6        0.1826        0.0000        5.2389        5.2389       5.056271       0.02770
  18     136.5        0.1827        0.0000        5.1716        5.1717       4.989003       0.02587
  17     162.9        0.1827        0.0000        5.0890        5.0890       4.906352       0.02642
  16     196.4        0.1828        0.0000        4.9668        4.9668       4.784080       0.03078
  15     218.7        0.1828        0.0000        4.8585        4.8585       4.675661       0.04116
  14     243.0        0.1829        0.0000        4.7078        4.7079       4.524953       0.05227
  13     269.0        0.1830        0.0000        4.5343        4.5343       4.351231       0.05635
  12     297.5        0.1833        0.0000        4.3419        4.3420       4.158686       0.05711
  11     328.5        0.1836        0.0000        4.1281        4.1281       3.944555       0.05822
  10     361.9        0.1840        0.0000        3.8786        3.8787       3.694680       0.06322
   9     398.1        0.1845        0.0000        3.6159        3.6159       3.431422       0.06133
   8     437.6        0.1852        0.0000        3.3759        3.3759       3.190674       0.05147
   7     480.5        0.1861        0.0000        3.1957        3.1958       3.009727       0.03554
   6     533.0        0.1873        0.0000        3.0467        3.0467       2.859367       0.02419
   5     589.8        0.1892        0.0000        2.9023        2.9023       2.713093       0.02171
   4     651.6        0.1925        0.0000        2.7183        2.7184       2.525855       0.02561
   3     718.7        0.1981        0.0000        2.5058        2.5059       2.307713       0.02741
   2     792.3        0.2088        0.0000        2.2756        2.2757       2.066871       0.02762
   1     891.5        0.0127        0.1948        1.5745        1.7692       1.756514       0.02641
   0    1013.0        0.0154        0.1566        1.2413        1.3979       1.382468       0.02597

  Modules and versions used in this calculation:

       rrtmg_sw.1col.f90:  $Revision$                    rrtmg_sw_init.f90:  $Revision$        
     rrtmgsw_cldprop.f90:  $Revision$                  rrtmgsw_cldprmc.f90:  NOT USED          
     rrtmg_sw_reftra.f90:  $Revision$                  rrtmg_sw_spcvrt.f90:  NOT USED          
     rrtmg_sw_spcvmc.f90:  NOT USED                    rrtmgsw_setcoef.f90:  NOT USED          
     rrtmg_sw_taumol.f90:  $Revision$                  rrtmg_sw_vrtqdr.f90:  NOT USED          
                rrtatm.f:  NOT USED                             util_xxx.f:  NOT USED          
                 extra.f:  NOT USED                       rrtmg_sw_k_g.f90:  $Revision$        

