

 Wavenumbers:   820. - 50000. cm-1, ATM      1
 LEVEL PRESSURE   UPWARD FLUX   DIFDOWN FLUX  DIRDOWN FLUX  DOWNWARD FLUX   NET FLUX    HEATING RATE
          mb          W/m2          W/m2          W/m2        W/m2          W/m2       degree/day
  51    .06700      438.9413        0.0000      617.8126      617.8126     178.871276       0.00000
  50    .07753      438.9409        0.0014      617.7947      617.7961     178.855134      12.93785
  49    .09103      438.9405        0.0030      617.7778      617.7808     178.840322       9.25783
  48    0.1069      438.9400        0.0050      617.7581      617.7631     178.823058       9.18974
  47    0.1255      438.9395        0.0072      617.7340      617.7412     178.801710       9.67808
  46    0.1487      438.9389        0.0101      617.7009      617.7109     178.772020      10.82226
  45    0.1794      438.9382        0.0139      617.6521      617.6660     178.727783      12.14409
  44    0.2165      438.9375        0.0184      617.5895      617.6079     178.670455      13.04130
  43    0.2613      438.9368        0.0238      617.5089      617.5327     178.595932      14.04712
  42    0.3336      438.9359        0.0326      617.3641      617.3968     178.460831      15.75154
  41    0.4307      438.9352        0.0443      617.1591      617.2034     178.268183      16.75024
  40    0.5894      438.9351        0.0631      616.8005      616.8635     177.928450      18.06660
  39     1.339      438.9527        0.1480      614.9443      615.0922     176.139576      20.13947
  38     1.782      438.9756        0.1957      613.9670      614.1628     175.187119      18.13324
  37     2.292      439.0138        0.2501      613.0059      613.2560     174.242238      15.64969
  36     2.964      439.0811        0.3208      611.9577      612.2784     173.197346      13.11656
  35     3.853      439.1942        0.4134      610.8024      611.2158     172.021693      11.15717
  34     5.035      439.3681        0.5357      609.5327      610.0684     170.700366       9.43901
  33     6.613      439.6130        0.6980      608.1464      608.8445     169.231432       7.85292
  32     8.786      439.9322        0.9158      606.6250      607.5408     167.608678       6.30219
  31     11.80      440.3454        1.2258      604.8486      606.0745     165.729094       5.26224
  30     15.07      440.7387        1.5567      603.2440      604.8006     164.061948       4.30425
  29     18.79      441.1379        1.9289      601.6511      603.5801     162.442123       3.67264
  28     23.16      441.5524        2.3615      599.9927      602.3542     160.801756       3.17194
  27     28.12      441.9656        2.8538      598.2881      601.1418     159.176206       2.76333
  26     33.73      442.3392        3.4026      596.5951      599.9977     157.658490       2.28193
  25     40.54      442.6871        4.0635      594.7727      598.8362     156.149013       1.87268
  24     48.69      443.0063        4.8564      592.7865      597.6429     154.636560       1.56515
  23     57.69      443.2597        5.7232      590.7959      596.5191     153.259354       1.29092
  22     68.43      443.4561        6.7501      588.6191      595.3692     151.913105       1.05833
  21     81.20      443.5435        7.9676      586.2690      594.2366     150.693118       0.80615
  20     96.49      443.5118        9.4092      583.6961      593.1053     149.593508       0.60691
  19     114.6      443.4193       11.1051      580.7708      591.8759     148.456682       0.53082
  18     136.5      443.2653       13.0910      577.4359      590.5269     147.261600       0.45954
  17     162.9      443.0443       15.4215      573.5624      588.9840     145.939630       0.42256
  16     196.4      442.6711       18.3937      568.5907      586.9844     144.313314       0.40936
  15     218.7      442.3981       20.3154      565.0572      585.3726     142.974517       0.50829
  14     243.0      442.0940       22.3766      560.7495      583.1261     141.032144       0.67368
  13     269.0      441.7603       24.5787      555.3947      579.9734     138.213134       0.91447
  12     297.5      441.4028       26.9224      548.9964      575.9188     134.516018       1.09652
  11     328.5      441.0317       29.4142      542.0895      571.5038     130.472102       1.09953
  10     361.9      440.6550       32.0503      534.6242      566.6745     126.019538       1.12654
   9     398.1      440.2840       34.8353      526.4204      561.2557     120.971672       1.17604
   8     437.6      439.9410       37.7677      517.3907      555.1584     115.217373       1.23031
   7     480.5      439.6498       40.8457      507.7216      548.5673     108.917522       1.23727
   6     533.0      439.4344       44.5464      495.9006      540.4470     101.012621       1.27165
   5     589.8      439.4633       48.4297      483.0788      531.5085      92.045237       1.33105
   4     651.6      440.0359       52.4827      468.6907      521.1734      81.137472       1.49167
   3     718.7      441.5730       56.6973      453.2257      509.9231      68.350092       1.60702
   2     792.3      445.1866       61.0515      436.4928      497.5443      52.357749       1.83414
   1     891.5      299.7090      336.1654        1.6804      337.8458      38.136787       1.21014
   0    1013.0      303.6538      329.6125        1.5768      331.1893      27.535494       0.73610



 Wavenumbers:  2600. -  3250. cm-1, ATM      1
 LEVEL PRESSURE   UPWARD FLUX   DIFDOWN FLUX  DIRDOWN FLUX  DOWNWARD FLUX   NET FLUX    HEATING RATE
          mb          W/m2          W/m2          W/m2        W/m2          W/m2       degree/day
  51    .06700        1.8457        0.0000        5.4450        5.4450       3.599351       0.00000
  50    .07753        1.8457        0.0000        5.4450        5.4450       3.599343       0.00640
  49    .09103        1.8457        0.0000        5.4450        5.4450       3.599333       0.00627
  48    0.1069        1.8457        0.0000        5.4450        5.4450       3.599321       0.00613
  47    0.1255        1.8457        0.0000        5.4450        5.4450       3.599308       0.00599
  46    0.1487        1.8457        0.0000        5.4450        5.4450       3.599291       0.00608
  45    0.1794        1.8457        0.0000        5.4450        5.4450       3.599269       0.00625
  44    0.2165        1.8457        0.0000        5.4449        5.4449       3.599242       0.00612
  43    0.2613        1.8457        0.0000        5.4449        5.4449       3.599210       0.00600
  42    0.3336        1.8457        0.0000        5.4448        5.4448       3.599157       0.00617
  41    0.4307        1.8457        0.0000        5.4448        5.4448       3.599086       0.00620
  40    0.5894        1.8457        0.0000        5.4446        5.4446       3.598966       0.00637
  39     1.339        1.8457        0.0000        5.4439        5.4439       3.598258       0.00797
  38     1.782        1.8457        0.0000        5.4434        5.4434       3.597715       0.01034
  37     2.292        1.8457        0.0000        5.4427        5.4427       3.596999       0.01186
  36     2.964        1.8457        0.0000        5.4416        5.4416       3.595961       0.01304
  35     3.853        1.8457        0.0000        5.4402        5.4402       3.594483       0.01402
  34     5.035        1.8457        0.0000        5.4381        5.4381       3.592427       0.01469
  33     6.613        1.8457        0.0000        5.4353        5.4353       3.589646       0.01487
  32     8.786        1.8457        0.0000        5.4317        5.4317       3.586013       0.01411
  31     11.80        1.8457        0.0000        5.4269        5.4269       3.581231       0.01339
  30     15.07        1.8457        0.0000        5.4224        5.4224       3.576702       0.01169
  29     18.79        1.8457        0.0000        5.4180        5.4180       3.572287       0.01001
  28     23.16        1.8457        0.0000        5.4135        5.4135       3.567795       0.00868
  27     28.12        1.8457        0.0000        5.4088        5.4088       3.563140       0.00791
  26     33.73        1.8457        0.0000        5.4036        5.4036       3.557889       0.00790
  25     40.54        1.8457        0.0000        5.3966        5.3967       3.550930       0.00863
  24     48.69        1.8458        0.0000        5.3872        5.3872       3.541428       0.00983
  23     57.69        1.8458        0.0000        5.3754        5.3754       3.529608       0.01108
  22     68.43        1.8459        0.0000        5.3599        5.3599       3.514069       0.01222
  21     81.20        1.8459        0.0000        5.3401        5.3401       3.494162       0.01315
  20     96.49        1.8460        0.0000        5.3155        5.3155       3.469491       0.01362
  19     114.6        1.8462        0.0001        5.2853        5.2854       3.439151       0.01417
  18     136.5        1.8464        0.0001        5.2504        5.2505       3.404041       0.01350
  17     162.9        1.8468        0.0001        5.2111        5.2112       3.364405       0.01267
  16     196.4        1.8473        0.0001        5.1640        5.1641       3.316825       0.01198
  15     218.7        1.8478        0.0001        5.1331        5.1332       3.285368       0.01194
  14     243.0        1.8487        0.0001        5.0962        5.0963       3.247583       0.01310
  13     269.0        1.8501        0.0001        5.0511        5.0512       3.201078       0.01509
  12     297.5        1.8522        0.0001        4.9956        4.9957       3.143490       0.01708
  11     328.5        1.8552        0.0001        4.9304        4.9305       3.075316       0.01854
  10     361.9        1.8593        0.0002        4.8511        4.8513       2.991991       0.02108
   9     398.1        1.8649        0.0002        4.7507        4.7508       2.885970       0.02470
   8     437.6        1.8727        0.0002        4.6220        4.6222       2.749524       0.02917
   7     480.5        1.8835        0.0002        4.4625        4.4627       2.579133       0.03346
   6     533.0        1.9012        0.0002        4.2460        4.2462       2.344999       0.03766
   5     589.8        1.9283        0.0002        3.9954        3.9956       2.067269       0.04122
   4     651.6        1.9733        0.0002        3.7089        3.7091       1.735792       0.04533
   3     718.7        2.0480        0.0002        3.4018        3.4020       1.354026       0.04798
   2     792.3        2.1851        0.0002        3.0564        3.0567       0.871581       0.05533
   1     891.5        0.7026        1.1561        0.0105        1.1666       0.464040       0.03468
   0    1013.0        0.7932        0.9914        0.0085        0.9998       0.206609       0.01787



 Wavenumbers:  3250. -  4000. cm-1, ATM      1
 LEVEL PRESSURE   UPWARD FLUX   DIFDOWN FLUX  DIRDOWN FLUX  DOWNWARD FLUX   NET FLUX    HEATING RATE
          mb          W/m2          W/m2          W/m2        W/m2          W/m2       degree/day
  51    .06700        0.0525        0.0000        9.1795        9.1795       9.127005       0.00000
  50    .07753        0.0525        0.0000        9.1747        9.1747       9.122163       3.88148
  49    .09103        0.0525        0.0000        9.1713        9.1713       9.118775       2.11747
  48    0.1069        0.0525        0.0000        9.1688        9.1688       9.116250       1.34402
  47    0.1255        0.0525        0.0000        9.1665        9.1665       9.113991       1.02422
  46    0.1487        0.0525        0.0000        9.1641        9.1641       9.111549       0.88991
  45    0.1794        0.0525        0.0000        9.1612        9.1612       9.108671       0.79008
  44    0.2165        0.0525        0.0000        9.1583        9.1583       9.105751       0.66430
  43    0.2613        0.0525        0.0000        9.1553        9.1553       9.102778       0.56041
  42    0.3336        0.0525        0.0000        9.1511        9.1511       9.098599       0.48723
  41    0.4307        0.0525        0.0000        9.1464        9.1464       9.093831       0.41459
  40    0.5894        0.0525        0.0000        9.1393        9.1394       9.086825       0.37255
  39     1.339        0.0525        0.0000        9.1127        9.1127       9.060211       0.29962
  38     1.782        0.0525        0.0000        9.1011        9.1011       9.048623       0.22062
  37     2.292        0.0525        0.0000        9.0901        9.0901       9.037557       0.18329
  36     2.964        0.0525        0.0000        9.0776        9.0776       9.025127       0.15603
  35     3.853        0.0525        0.0000        9.0629        9.0629       9.010337       0.14036
  34     5.035        0.0525        0.0000        9.0441        9.0441       8.991598       0.13386
  33     6.613        0.0525        0.0000        9.0191        9.0191       8.966596       0.13366
  32     8.786        0.0525        0.0000        8.9843        8.9843       8.931813       0.13509
  31     11.80        0.0525        0.0000        8.9327        8.9327       8.880196       0.14451
  30     15.07        0.0525        0.0000        8.8758        8.8759       8.823351       0.14676
  29     18.79        0.0525        0.0000        8.8110        8.8110       8.758524       0.14698
  28     23.16        0.0525        0.0000        8.7365        8.7366       8.684079       0.14395
  27     28.12        0.0525        0.0000        8.6554        8.6555       8.602966       0.13789
  26     33.73        0.0525        0.0000        8.5719        8.5719       8.519466       0.12554
  25     40.54        0.0525        0.0001        8.4812        8.4812       8.428743       0.11255
  24     48.69        0.0525        0.0001        8.3838        8.3839       8.331441       0.10069
  23     57.69        0.0524        0.0001        8.2861        8.2862       8.233706       0.09161
  22     68.43        0.0524        0.0001        8.1751        8.1751       8.122709       0.08726
  21     81.20        0.0524        0.0001        8.0457        8.0458       7.993351       0.08548
  20     96.49        0.0524        0.0001        7.8949        7.8951       7.842647       0.08318
  19     114.6        0.0524        0.0001        7.7162        7.7163       7.663937       0.08344
  18     136.5        0.0524        0.0002        7.5193        7.5195       7.467093       0.07569
  17     162.9        0.0523        0.0002        7.2913        7.2915       7.239200       0.07284
  16     196.4        0.0523        0.0002        6.9660        6.9662       6.913924       0.08188
  15     218.7        0.0523        0.0002        6.6648        6.6650       6.612726       0.11435
  14     243.0        0.0523        0.0002        6.2619        6.2622       6.209910       0.13971
  13     269.0        0.0523        0.0003        5.7576        5.7579       5.705557       0.16361
  12     297.5        0.0524        0.0003        5.1719        5.1722       5.119752       0.17374
  11     328.5        0.0526        0.0002        4.5757        4.5760       4.523394       0.16215
  10     361.9        0.0529        0.0002        3.9995        3.9998       3.946889       0.14586
   9     398.1        0.0534        0.0002        3.4655        3.4657       3.412293       0.12455
   8     437.6        0.0543        0.0002        2.9740        2.9743       2.919948       0.10527
   7     480.5        0.0557        0.0002        2.5307        2.5309       2.475123       0.08736
   6     533.0        0.0585        0.0002        2.0614        2.0616       2.003024       0.07595
   5     589.8        0.0637        0.0002        1.6150        1.6151       1.551474       0.06702
   4     651.6        0.0744        0.0001        1.1565        1.1566       1.082230       0.06417
   3     718.7        0.0980        0.0001        0.7390        0.7391       0.641147       0.05543
   2     792.3        0.1609        0.0001        0.3985        0.3985       0.237587       0.04628
   1     891.5        0.0002        0.0262        0.0005        0.0267       0.026485       0.01796
   0    1013.0        0.0022        0.0027        0.0000        0.0028       0.000571       0.00180



 Wavenumbers:  4000. -  4650. cm-1, ATM      1
 LEVEL PRESSURE   UPWARD FLUX   DIFDOWN FLUX  DIRDOWN FLUX  DOWNWARD FLUX   NET FLUX    HEATING RATE
          mb          W/m2          W/m2          W/m2        W/m2          W/m2       degree/day
  51    .06700        6.2162        0.0000       10.7795       10.7795       4.563356       0.00000
  50    .07753        6.2162        0.0000       10.7795       10.7795       4.563355       0.00080
  49    .09103        6.2162        0.0000       10.7795       10.7795       4.563354       0.00078
  48    0.1069        6.2162        0.0000       10.7795       10.7795       4.563353       0.00077
  47    0.1255        6.2162        0.0000       10.7795       10.7795       4.563351       0.00075
  46    0.1487        6.2162        0.0000       10.7795       10.7795       4.563349       0.00076
  45    0.1794        6.2162        0.0000       10.7795       10.7795       4.563346       0.00078
  44    0.2165        6.2162        0.0000       10.7795       10.7795       4.563343       0.00076
  43    0.2613        6.2162        0.0000       10.7795       10.7795       4.563339       0.00075
  42    0.3336        6.2162        0.0000       10.7795       10.7795       4.563332       0.00077
  41    0.4307        6.2162        0.0000       10.7795       10.7795       4.563323       0.00077
  40    0.5894        6.2162        0.0000       10.7795       10.7795       4.563308       0.00080
  39     1.339        6.2162        0.0000       10.7794       10.7794       4.563219       0.00101
  38     1.782        6.2162        0.0000       10.7793       10.7793       4.563149       0.00133
  37     2.292        6.2162        0.0000       10.7792       10.7792       4.563055       0.00156
  36     2.964        6.2162        0.0000       10.7791       10.7791       4.562914       0.00177
  35     3.853        6.2162        0.0000       10.7789       10.7789       4.562706       0.00198
  34     5.035        6.2162        0.0000       10.7786       10.7786       4.562398       0.00220
  33     6.613        6.2162        0.0000       10.7781       10.7781       4.561945       0.00242
  32     8.786        6.2162        0.0000       10.7774       10.7775       4.561277       0.00260
  31     11.80        6.2162        0.0001       10.7763       10.7764       4.560226       0.00294
  30     15.07        6.2162        0.0001       10.7751       10.7752       4.558992       0.00318
  29     18.79        6.2162        0.0001       10.7736       10.7737       4.557500       0.00338
  28     23.16        6.2162        0.0001       10.7717       10.7718       4.555645       0.00359
  27     28.12        6.2162        0.0001       10.7695       10.7696       4.553399       0.00382
  26     33.73        6.2162        0.0002       10.7667       10.7668       4.550626       0.00417
  25     40.54        6.2163        0.0002       10.7629       10.7631       4.546863       0.00467
  24     48.69        6.2163        0.0002       10.7579       10.7582       4.541842       0.00520
  23     57.69        6.2164        0.0003       10.7520       10.7523       4.535883       0.00559
  22     68.43        6.2165        0.0003       10.7446       10.7449       4.528404       0.00588
  21     81.20        6.2167        0.0004       10.7355       10.7359       4.519179       0.00610
  20     96.49        6.2170        0.0005       10.7245       10.7249       4.507932       0.00621
  19     114.6        6.2174        0.0006       10.7107       10.7113       4.493838       0.00658
  18     136.5        6.2180        0.0007       10.6942       10.6949       4.476815       0.00655
  17     162.9        6.2189        0.0008       10.6740       10.6748       4.455881       0.00669
  16     196.4        6.2204        0.0010       10.6464       10.6473       4.426883       0.00730
  15     218.7        6.2218        0.0011       10.6255       10.6265       4.404742       0.00841
  14     243.0        6.2237        0.0012       10.5980       10.5992       4.375487       0.01015
  13     269.0        6.2266        0.0013       10.5611       10.5624       4.335736       0.01289
  12     297.5        6.2309        0.0014       10.5119       10.5134       4.282455       0.01580
  11     328.5        6.2368        0.0016       10.4499       10.4514       4.214669       0.01843
  10     361.9        6.2445        0.0017       10.3702       10.3719       4.127433       0.02207
   9     398.1        6.2541        0.0019       10.2678       10.2697       4.015523       0.02607
   8     437.6        6.2665        0.0021       10.1390       10.1410       3.874543       0.03014
   7     480.5        6.2823        0.0022        9.9877        9.9899       3.707585       0.03279
   6     533.0        6.3068        0.0024        9.7937        9.7961       3.489353       0.03511
   5     589.8        6.3422        0.0027        9.5752        9.5778       3.235637       0.03766
   4     651.6        6.3995        0.0029        9.2958        9.2987       2.899209       0.04601
   3     718.7        6.4963        0.0031        8.9267        8.9298       2.433541       0.05852
   2     792.3        6.6798        0.0033        8.4542        8.4575       1.777735       0.07521
   1     891.5        2.9089        4.0766        0.0316        4.1082       1.199300       0.04922
   0    1013.0        3.0574        3.8246        0.0287        3.8533       0.795966       0.02801



 Wavenumbers:  4650. -  5150. cm-1, ATM      1
 LEVEL PRESSURE   UPWARD FLUX   DIFDOWN FLUX  DIRDOWN FLUX  DOWNWARD FLUX   NET FLUX    HEATING RATE
          mb          W/m2          W/m2          W/m2        W/m2          W/m2       degree/day
  51    .06700        4.4626        0.0000       10.2033       10.2033       5.740695       0.00000
  50    .07753        4.4626        0.0000       10.2031       10.2031       5.740459       0.18901
  49    .09103        4.4626        0.0000       10.2028       10.2028       5.740164       0.18428
  48    0.1069        4.4626        0.0000       10.2025       10.2025       5.739827       0.17931
  47    0.1255        4.4626        0.0000       10.2021       10.2021       5.739443       0.17426
  46    0.1487        4.4626        0.0000       10.2016       10.2016       5.738962       0.17536
  45    0.1794        4.4626        0.0000       10.2010       10.2010       5.738311       0.17850
  44    0.2165        4.4626        0.0000       10.2002       10.2002       5.737552       0.17277
  43    0.2613        4.4626        0.0000       10.1993       10.1993       5.736666       0.16690
  42    0.3336        4.4626        0.0000       10.1979       10.1979       5.735234       0.16702
  41    0.4307        4.4626        0.0000       10.1960       10.1960       5.733393       0.16002
  40    0.5894        4.4626        0.0000       10.1932       10.1932       5.730520       0.15283
  39     1.339        4.4626        0.0000       10.1816       10.1816       5.718927       0.13051
  38     1.782        4.4626        0.0000       10.1760       10.1760       5.713398       0.10527
  37     2.292        4.4626        0.0000       10.1706       10.1706       5.707941       0.09038
  36     2.964        4.4626        0.0000       10.1646       10.1647       5.702017       0.07437
  35     3.853        4.4626        0.0000       10.1584       10.1584       5.695801       0.05899
  34     5.035        4.4626        0.0000       10.1521       10.1521       5.689462       0.04528
  33     6.613        4.4626        0.0000       10.1456       10.1456       5.683000       0.03455
  32     8.786        4.4627        0.0001       10.1386       10.1386       5.675980       0.02726
  31     11.80        4.4627        0.0001       10.1295       10.1296       5.666922       0.02536
  30     15.07        4.4627        0.0001       10.1196       10.1197       5.657019       0.02557
  29     18.79        4.4627        0.0001       10.1076       10.1077       5.644978       0.02730
  28     23.16        4.4628        0.0002       10.0923       10.0924       5.629625       0.02969
  27     28.12        4.4629        0.0002       10.0731       10.0733       5.610465       0.03257
  26     33.73        4.4630        0.0002       10.0500       10.0503       5.587282       0.03486
  25     40.54        4.4632        0.0003       10.0201       10.0204       5.557252       0.03726
  24     48.69        4.4634        0.0003        9.9820        9.9823       5.518900       0.03969
  23     57.69        4.4637        0.0004        9.9384        9.9388       5.475129       0.04103
  22     68.43        4.4642        0.0005        9.8858        9.8862       5.422075       0.04171
  21     81.20        4.4648        0.0006        9.8234        9.8240       5.359239       0.04152
  20     96.49        4.4656        0.0007        9.7518        9.7524       5.286804       0.03998
  19     114.6        4.4668        0.0008        9.6719        9.6727       5.205901       0.03778
  18     136.5        4.4684        0.0009        9.5858        9.5867       5.118289       0.03369
  17     162.9        4.4707        0.0011        9.4940        9.4951       5.024426       0.03000
  16     196.4        4.4742        0.0013        9.3883        9.3896       4.915375       0.02745
  15     218.7        4.4770        0.0015        9.3229        9.3244       4.847399       0.02581
  14     243.0        4.4805        0.0016        9.2520        9.2536       4.773036       0.02579
  13     269.0        4.4853        0.0018        9.1717        9.1734       4.688083       0.02756
  12     297.5        4.4920        0.0019        9.0763        9.0782       4.586171       0.03023
  11     328.5        4.5008        0.0021        8.9650        8.9671       4.466305       0.03259
  10     361.9        4.5121        0.0023        8.8349        8.8372       4.325168       0.03571
   9     398.1        4.5267        0.0025        8.6820        8.6845       4.157812       0.03899
   8     437.6        4.5458        0.0027        8.5028        8.5055       3.959729       0.04235
   7     480.5        4.5706        0.0029        8.2948        8.2977       3.727120       0.04568
   6     533.0        4.6086        0.0032        8.0209        8.0241       3.415500       0.05013
   5     589.8        4.6614        0.0034        7.7063        7.7097       3.048341       0.05450
   4     651.6        4.7398        0.0036        7.3412        7.3449       2.605070       0.06062
   3     718.7        4.8588        0.0039        6.9387        6.9425       2.083696       0.06552
   2     792.3        5.0501        0.0040        6.5066        6.5106       1.460581       0.07146
   1     891.5        2.0806        2.9985        0.0241        3.0226       0.942003       0.04413
   0    1013.0        2.2182        2.7742        0.0215        2.7957       0.577552       0.02531



 Wavenumbers:  5150. -  6150. cm-1, ATM      1
 LEVEL PRESSURE   UPWARD FLUX   DIFDOWN FLUX  DIRDOWN FLUX  DOWNWARD FLUX   NET FLUX    HEATING RATE
          mb          W/m2          W/m2          W/m2        W/m2          W/m2       degree/day
  51    .06700       10.7695        0.0000       25.5798       25.5798      14.810346       0.00000
  50    .07753       10.7695        0.0000       25.5798       25.5798      14.810306       0.03162
  49    .09103       10.7695        0.0000       25.5797       25.5797      14.810255       0.03210
  48    0.1069       10.7695        0.0000       25.5797       25.5797      14.810194       0.03261
  47    0.1255       10.7695        0.0000       25.5796       25.5796      14.810121       0.03311
  46    0.1487       10.7695        0.0000       25.5795       25.5795      14.810025       0.03488
  45    0.1794       10.7695        0.0000       25.5794       25.5794      14.809890       0.03713
  44    0.2165       10.7695        0.0000       25.5792       25.5792      14.809724       0.03769
  43    0.2613       10.7695        0.0000       25.5790       25.5790      14.809521       0.03827
  42    0.3336       10.7695        0.0000       25.5786       25.5786      14.809174       0.04043
  41    0.4307       10.7695        0.0000       25.5782       25.5782      14.808703       0.04097
  40    0.5894       10.7695        0.0000       25.5774       25.5774      14.807914       0.04198
  39     1.339       10.7695        0.0000       25.5735       25.5736      14.804110       0.04283
  38     1.782       10.7695        0.0001       25.5713       25.5714      14.801895       0.04217
  37     2.292       10.7695        0.0001       25.5688       25.5688      14.799387       0.04153
  36     2.964       10.7695        0.0001       25.5656       25.5657      14.796200       0.04000
  35     3.853       10.7695        0.0001       25.5615       25.5616      14.792150       0.03844
  34     5.035       10.7695        0.0002       25.5562       25.5564      14.786932       0.03727
  33     6.613       10.7695        0.0002       25.5494       25.5496      14.780161       0.03620
  32     8.786       10.7695        0.0003       25.5406       25.5409      14.771384       0.03409
  31     11.80       10.7695        0.0004       25.5287       25.5290      14.759509       0.03325
  30     15.07       10.7696        0.0005       25.5167       25.5172      14.747593       0.03076
  29     18.79       10.7696        0.0006       25.5042       25.5048      14.735129       0.02826
  28     23.16       10.7697        0.0007       25.4907       25.4914      14.721693       0.02598
  27     28.12       10.7698        0.0009       25.4764       25.4773      14.707515       0.02410
  26     33.73       10.7700        0.0011       25.4620       25.4631      14.693127       0.02163
  25     40.54       10.7702        0.0013       25.4463       25.4475      14.677365       0.01955
  24     48.69       10.7705        0.0015       25.4294       25.4309      14.660446       0.01751
  23     57.69       10.7708        0.0018       25.4126       25.4144      14.643606       0.01578
  22     68.43       10.7713        0.0022       25.3944       25.3966      14.625278       0.01441
  21     81.20       10.7719        0.0026       25.3744       25.3770      14.605063       0.01336
  20     96.49       10.7727        0.0031       25.3519       25.3550      14.582303       0.01256
  19     114.6       10.7736        0.0036       25.3262       25.3298      14.556162       0.01221
  18     136.5       10.7748        0.0043       25.2962       25.3005      14.525699       0.01171
  17     162.9       10.7763        0.0051       25.2521       25.2572      14.480959       0.01430
  16     196.4       10.7783        0.0062       25.1593       25.1655      14.387192       0.02360
  15     218.7       10.7797        0.0068       25.0159       25.0228      14.243050       0.05473
  14     243.0       10.7815        0.0075       24.7089       24.7164      13.934944       0.10686
  13     269.0       10.7838        0.0082       24.1619       24.1701      13.386284       0.17798
  12     297.5       10.7869        0.0089       23.4544       23.4633      12.676399       0.21054
  11     328.5       10.7909        0.0096       22.7355       22.7451      11.954145       0.19638
  10     361.9       10.7962        0.0103       21.9224       21.9327      11.136493       0.20687
   9     398.1       10.8033        0.0110       20.9939       21.0049      10.201542       0.21782
   8     437.6       10.8132        0.0116       19.9833       19.9950       9.181759       0.21804
   7     480.5       10.8268        0.0123       18.9483       18.9606       8.133761       0.20582
   6     533.0       10.8498        0.0130       17.7796       17.7926       6.942767       0.19159
   5     589.8       10.8870        0.0137       16.6726       16.6863       5.799275       0.16973
   4     651.6       10.9550        0.0145       15.6343       15.6488       4.693787       0.15118
   3     718.7       11.0796        0.0154       14.7738       14.7891       3.709531       0.12369
   2     792.3       11.3289        0.0163       14.0291       14.0454       2.716465       0.11389
   1     891.5        5.2626        7.1246        0.0531        7.1777       1.915073       0.06819
   0    1013.0        5.4296        6.7941        0.0489        6.8430       1.413358       0.03484



 Wavenumbers:  6150. -  7700. cm-1, ATM      1
 LEVEL PRESSURE   UPWARD FLUX   DIFDOWN FLUX  DIRDOWN FLUX  DOWNWARD FLUX   NET FLUX    HEATING RATE
          mb          W/m2          W/m2          W/m2        W/m2          W/m2       degree/day
  51    .06700       16.9885        0.0000       47.3109       47.3109      30.322310       0.00000
  50    .07753       16.9885        0.0000       47.3108       47.3108      30.322253       0.04553
  49    .09103       16.9885        0.0000       47.3107       47.3107      30.322180       0.04583
  48    0.1069       16.9885        0.0000       47.3106       47.3106      30.322093       0.04614
  47    0.1255       16.9885        0.0000       47.3105       47.3105      30.321991       0.04645
  46    0.1487       16.9885        0.0000       47.3104       47.3104      30.321858       0.04852
  45    0.1794       16.9885        0.0000       47.3102       47.3102      30.321671       0.05127
  44    0.2165       16.9885        0.0000       47.3100       47.3100      30.321444       0.05167
  43    0.2613       16.9885        0.0000       47.3097       47.3097      30.321167       0.05210
  42    0.3336       16.9885        0.0000       47.3092       47.3092      30.320698       0.05471
  41    0.4307       16.9885        0.0000       47.3085       47.3086      30.320063       0.05521
  40    0.5894       16.9885        0.0001       47.3074       47.3075      30.319004       0.05633
  39     1.339       16.9884        0.0002       47.3022       47.3024      30.313912       0.05733
  38     1.782       16.9884        0.0002       47.2991       47.2994      30.310942       0.05655
  37     2.292       16.9884        0.0003       47.2956       47.2959      30.307566       0.05591
  36     2.964       16.9883        0.0004       47.2912       47.2916      30.303247       0.05421
  35     3.853       16.9883        0.0005       47.2855       47.2860      30.297713       0.05252
  34     5.035       16.9882        0.0007       47.2780       47.2787      30.290532       0.05129
  33     6.613       16.9880        0.0009       47.2683       47.2692      30.281144       0.05019
  32     8.786       16.9879        0.0011       47.2556       47.2567      30.268845       0.04777
  31     11.80       16.9876        0.0015       47.2380       47.2396      30.251941       0.04733
  30     15.07       16.9874        0.0020       47.2201       47.2220      30.234653       0.04463
  29     18.79       16.9871        0.0024       47.2008       47.2033      30.216172       0.04190
  28     23.16       16.9867        0.0030       47.1795       47.1825      30.195781       0.03943
  27     28.12       16.9864        0.0037       47.1565       47.1601      30.173786       0.03739
  26     33.73       16.9859        0.0044       47.1324       47.1368      30.150863       0.03447
  25     40.54       16.9854        0.0053       47.1054       47.1106      30.125225       0.03181
  24     48.69       16.9848        0.0063       47.0754       47.0817      30.096968       0.02924
  23     57.69       16.9841        0.0075       47.0449       47.0524      30.068343       0.02683
  22     68.43       16.9833        0.0089       47.0110       47.0199      30.036601       0.02495
  21     81.20       16.9823        0.0105       46.9729       46.9834      30.001101       0.02346
  20     96.49       16.9811        0.0125       46.9294       46.9419      29.960751       0.02227
  19     114.6       16.9798        0.0148       46.8790       46.8939      29.914105       0.02178
  18     136.5       16.9781        0.0176       46.8200       46.8376      29.859463       0.02101
  17     162.9       16.9762        0.0209       46.7361       46.7571      29.780808       0.02514
  16     196.4       16.9739        0.0252       46.5703       46.5955      29.621526       0.04009
  15     218.7       16.9726        0.0280       46.3473       46.3753      29.402662       0.08309
  14     243.0       16.9715        0.0309       45.9299       45.9607      28.989217       0.14340
  13     269.0       16.9711        0.0338       45.1708       45.2046      28.233472       0.24516
  12     297.5       16.9720        0.0366       44.0115       44.0481      27.076060       0.34328
  11     328.5       16.9749        0.0395       42.7242       42.7638      25.788911       0.34997
  10     361.9       16.9805        0.0425       41.3539       41.3965      24.415954       0.34737
   9     398.1       16.9905        0.0454       39.7953       39.8407      22.850166       0.36479
   8     437.6       17.0077        0.0482       37.9948       38.0429      21.035267       0.38804
   7     480.5       17.0353        0.0508       36.0647       36.1155      19.080262       0.38396
   6     533.0       17.0874        0.0537       33.7773       33.8310      16.743592       0.37590
   5     589.8       17.1784        0.0563       31.4082       31.4645      14.286039       0.36478
   4     651.6       17.3544        0.0584       28.8834       28.9418      11.587400       0.36905
   3     718.7       17.6911        0.0604       26.4104       26.4707       8.779669       0.35285
   2     792.3       18.4058        0.0620       24.0056       24.0676       5.661795       0.35759
   1     891.5        7.6259       10.8995        0.0862       10.9857       3.359798       0.19589
   0    1013.0        8.0497       10.0698        0.0756       10.1454       2.095688       0.08777



 Wavenumbers:  7700. -  8050. cm-1, ATM      1
 LEVEL PRESSURE   UPWARD FLUX   DIFDOWN FLUX  DIRDOWN FLUX  DOWNWARD FLUX   NET FLUX    HEATING RATE
          mb          W/m2          W/m2          W/m2        W/m2          W/m2       degree/day
  51    .06700        7.9949        0.0000       11.1810       11.1810       3.186050       0.00000
  50    .07753        7.9949        0.0000       11.1809       11.1809       3.186027       0.01870
  49    .09103        7.9949        0.0000       11.1809       11.1809       3.185997       0.01833
  48    0.1069        7.9949        0.0000       11.1809       11.1809       3.185964       0.01794
  47    0.1255        7.9949        0.0000       11.1809       11.1809       3.185925       0.01756
  46    0.1487        7.9950        0.0000       11.1808       11.1808       3.185876       0.01782
  45    0.1794        7.9950        0.0000       11.1808       11.1808       3.185809       0.01833
  44    0.2165        7.9950        0.0000       11.1807       11.1807       3.185730       0.01798
  43    0.2613        7.9950        0.0000       11.1806       11.1806       3.185637       0.01765
  42    0.3336        7.9950        0.0000       11.1805       11.1805       3.185482       0.01806
  41    0.4307        7.9951        0.0000       11.1803       11.1804       3.185276       0.01786
  40    0.5894        7.9952        0.0000       11.1801       11.1801       3.184941       0.01784
  39     1.339        7.9955        0.0001       11.1788       11.1789       3.183353       0.01787
  38     1.782        7.9958        0.0001       11.1781       11.1782       3.182421       0.01775
  37     2.292        7.9960        0.0001       11.1772       11.1773       3.181342       0.01788
  36     2.964        7.9963        0.0002       11.1761       11.1763       3.179924       0.01779
  35     3.853        7.9968        0.0002       11.1746       11.1748       3.178052       0.01777
  34     5.035        7.9973        0.0003       11.1726       11.1729       3.175565       0.01777
  33     6.613        7.9981        0.0004       11.1700       11.1704       3.172243       0.01776
  32     8.786        7.9991        0.0005       11.1664       11.1669       3.167766       0.01738
  31     11.80        8.0006        0.0007       11.1613       11.1620       3.161365       0.01792
  30     15.07        8.0022        0.0009       11.1558       11.1567       3.154497       0.01773
  29     18.79        8.0041        0.0011       11.1497       11.1508       3.146744       0.01758
  28     23.16        8.0062        0.0014       11.1425       11.1439       3.137697       0.01749
  27     28.12        8.0086        0.0017       11.1343       11.1360       3.127364       0.01757
  26     33.73        8.0114        0.0020       11.1252       11.1272       3.115817       0.01736
  25     40.54        8.0147        0.0024       11.1142       11.1166       3.101892       0.01728
  24     48.69        8.0188        0.0029       11.1010       11.1039       3.085144       0.01733
  23     57.69        8.0233        0.0035       11.0866       11.0901       3.066797       0.01720
  22     68.43        8.0286        0.0041       11.0695       11.0736       3.045016       0.01712
  21     81.20        8.0350        0.0049       11.0494       11.0542       3.019167       0.01708
  20     96.49        8.0428        0.0058       11.0255       11.0313       2.988509       0.01692
  19     114.6        8.0521        0.0068       10.9975       11.0044       2.952306       0.01690
  18     136.5        8.0632        0.0081       10.9648       10.9729       2.909665       0.01640
  17     162.9        8.0767        0.0096       10.9263       10.9359       2.859246       0.01612
  16     196.4        8.0945        0.0116       10.8773       10.8889       2.794400       0.01632
  15     218.7        8.1063        0.0129       10.8455       10.8584       2.752086       0.01606
  14     243.0        8.1195        0.0143       10.8114       10.8257       2.706269       0.01589
  13     269.0        8.1339        0.0158       10.7749       10.7907       2.656733       0.01607
  12     297.5        8.1499        0.0174       10.7357       10.7531       2.603189       0.01588
  11     328.5        8.1677        0.0192       10.6937       10.7129       2.545250       0.01575
  10     361.9        8.1873        0.0211       10.6489       10.6700       2.482609       0.01585
   9     398.1        8.2092        0.0231       10.6008       10.6239       2.414652       0.01583
   8     437.6        8.2338        0.0253       10.5491       10.5744       2.340610       0.01583
   7     480.5        8.2614        0.0277       10.4934       10.5211       2.259760       0.01588
   6     533.0        8.2973        0.0306       10.4243       10.4549       2.157549       0.01644
   5     589.8        8.3392        0.0337       10.3479       10.3816       2.042344       0.01710
   4     651.6        8.3896        0.0370       10.2613       10.2984       1.908793       0.01826
   3     718.7        8.4513        0.0406       10.1618       10.2023       1.751027       0.01983
   2     792.3        8.5298        0.0443       10.0439       10.0882       1.558379       0.02209
   1     891.5        4.3140        5.6306        0.0400        5.6706       1.356664       0.01716
   0    1013.0        4.4040        5.5113        0.0390        5.5503       1.146333       0.01460



 Wavenumbers:  8050. - 12850. cm-1, ATM      1
 LEVEL PRESSURE   UPWARD FLUX   DIFDOWN FLUX  DIRDOWN FLUX  DOWNWARD FLUX   NET FLUX    HEATING RATE
          mb          W/m2          W/m2          W/m2        W/m2          W/m2       degree/day
  51    .06700      103.0431        0.0000      156.5418      156.5418      53.498690       0.00000
  50    .07753      103.0430        0.0000      156.5417      156.5417      53.498690       0.00000
  49    .09103      103.0430        0.0001      156.5417      156.5417      53.498690      -0.00000
  48    0.1069      103.0430        0.0001      156.5416      156.5417      53.498690       0.00000
  47    0.1255      103.0430        0.0002      156.5415      156.5417      53.498690       0.00000
  46    0.1487      103.0430        0.0002      156.5414      156.5417      53.498690      -0.00000
  45    0.1794      103.0429        0.0003      156.5413      156.5416      53.498690       0.00000
  44    0.2165      103.0429        0.0004      156.5412      156.5416      53.498690      -0.00000
  43    0.2613      103.0429        0.0006      156.5410      156.5415      53.498690      -0.00000
  42    0.3336      103.0428        0.0008      156.5407      156.5415      53.498690       0.00000
  41    0.4307      103.0427        0.0011      156.5403      156.5414      53.498690       0.00000
  40    0.5894      103.0425        0.0015      156.5397      156.5412      53.498690       0.00000
  39     1.339      103.0417        0.0037      156.5367      156.5404      53.498690       0.00000
  38     1.782      103.0413        0.0050      156.5350      156.5400      53.498690      -0.00000
  37     2.292      103.0408        0.0065      156.5330      156.5395      53.498690       0.00000
  36     2.964      103.0401        0.0084      156.5303      156.5388      53.498690       0.00000
  35     3.853      103.0392        0.0110      156.5268      156.5378      53.498690      -0.00000
  34     5.035      103.0379        0.0144      156.5222      156.5366      53.498690       0.00000
  33     6.613      103.0363        0.0190      156.5160      156.5350      53.498690      -0.00000
  32     8.786      103.0341        0.0252      156.5076      156.5328      53.498690       0.00000
  31     11.80      103.0310        0.0340      156.4957      156.5297      53.498690       0.00000
  30     15.07      103.0276        0.0435      156.4828      156.5263      53.498690       0.00000
  29     18.79      103.0238        0.0543      156.4682      156.5225      53.498690      -0.00000
  28     23.16      103.0193        0.0668      156.4512      156.5180      53.498690       0.00000
  27     28.12      103.0142        0.0812      156.4317      156.5129      53.498690      -0.00000
  26     33.73      103.0085        0.0973      156.4099      156.5072      53.498690       0.00000
  25     40.54      103.0016        0.1168      156.3834      156.5003      53.498690       0.00000
  24     48.69      102.9932        0.1404      156.3515      156.4919      53.498690       0.00000
  23     57.69      102.9840        0.1663      156.3164      156.4827      53.498690      -0.00000
  22     68.43      102.9730        0.1971      156.2746      156.4717      53.498690       0.00000
  21     81.20      102.9599        0.2340      156.2246      156.4586      53.498690      -0.00000
  20     96.49      102.9443        0.2780      156.1649      156.4430      53.498690       0.00000
  19     114.6      102.9259        0.3304      156.0879      156.4183      53.492428       0.00292
  18     136.5      102.9040        0.3925      155.9962      156.3887      53.484663       0.00299
  17     162.9      102.8780        0.4667      155.8831      156.3498      53.471787       0.00412
  16     196.4      102.8443        0.5632      155.7199      156.2832      53.438828       0.00830
  15     218.7      102.8226        0.6267      155.5733      156.2000      53.377384       0.02333
  14     243.0      102.8000        0.6957      155.3367      156.0323      53.232293       0.05032
  13     269.0      102.7781        0.7703      154.9514      155.7217      52.943530       0.09367
  12     297.5      102.7595        0.8506      154.3896      155.2402      52.480737       0.13726
  11     328.5      102.7457        0.9372      153.7151      154.6523      51.906676       0.15609
  10     361.9      102.7401        1.0302      152.9087      153.9390      51.198831       0.17909
   9     398.1      102.7486        1.1297      151.8986      153.0283      50.279654       0.21415
   8     437.6      102.7811        1.2355      150.6031      151.8386      49.057558       0.26129
   7     480.5      102.8495        1.3474      149.0014      150.3488      47.499291       0.30604
   6     533.0      102.9976        1.4828      146.7375      148.2203      45.222744       0.36622
   5     589.8      103.2762        1.6246      143.8730      145.4976      42.221380       0.44550
   4     651.6      103.8318        1.7701      140.0955      141.8656      38.033746       0.57267
   3     718.7      104.8816        1.9176      135.5278      137.4454      32.563785       0.68742
   2     792.3      106.9740        2.0635      130.0690      132.1325      25.158500       0.84930
   1     891.5       49.7335       67.5859        0.4959       68.0818      18.348280       0.57952
   0    1013.0       51.5198       64.4716        0.4586       64.9302      13.410431       0.34286



 Wavenumbers: 12850. - 16000. cm-1, ATM      1
 LEVEL PRESSURE   UPWARD FLUX   DIFDOWN FLUX  DIRDOWN FLUX  DOWNWARD FLUX   NET FLUX    HEATING RATE
          mb          W/m2          W/m2          W/m2        W/m2          W/m2       degree/day
  51    .06700       78.4049        0.0000       98.0872       98.0872      19.682391       0.00000
  50    .07753       78.4048        0.0001       98.0864       98.0864      19.681599       0.63485
  49    .09103       78.4048        0.0002       98.0853       98.0855      19.680604       0.62183
  48    0.1069       78.4049        0.0003       98.0841       98.0843      19.679460       0.60856
  47    0.1255       78.4049        0.0004       98.0826       98.0830      19.678147       0.59559
  46    0.1487       78.4049        0.0005       98.0809       98.0814      19.676488       0.60448
  45    0.1794       78.4049        0.0007       98.0784       98.0792      19.674232       0.61943
  44    0.2165       78.4050        0.0010       98.0756       98.0766      19.671577       0.60393
  43    0.2613       78.4051        0.0012       98.0723       98.0736      19.668454       0.58866
  42    0.3336       78.4054        0.0017       98.0670       98.0687      19.663356       0.59446
  41    0.4307       78.4058        0.0023       98.0602       98.0625      19.656759       0.57351
  40    0.5894       78.4066        0.0034       98.0496       98.0529      19.646360       0.55304
  39     1.339       78.4133        0.0081       98.0043       98.0125      19.599147       0.53153
  38     1.782       78.4195        0.0110       97.9793       97.9903      19.570745       0.54073
  37     2.292       78.4287        0.0142       97.9498       97.9640      19.535331       0.58655
  36     2.964       78.4438        0.0185       97.9088       97.9273      19.483487       0.65080
  35     3.853       78.4683        0.0242       97.8503       97.8745      19.406236       0.73312
  34     5.035       78.5050        0.0317       97.7680       97.7997      19.294619       0.79735
  33     6.613       78.5564        0.0417       97.6562       97.6979      19.141506       0.81854
  32     8.786       78.6232        0.0552       97.5107       97.5659      18.942636       0.77234
  31     11.80       78.7103        0.0745       97.3179       97.3923      18.682042       0.72958
  30     15.07       78.7938        0.0951       97.1283       97.2235      18.429705       0.65149
  29     18.79       78.8791        0.1185       96.9300       97.0485      18.169412       0.59016
  28     23.16       78.9684        0.1457       96.7166       96.8623      17.893896       0.53276
  27     28.12       79.0584        0.1769       96.4935       96.6703      17.611924       0.47933
  26     33.73       79.1419        0.2117       96.2731       96.4848      17.342934       0.40443
  25     40.54       79.2226        0.2538       96.0408       96.2946      17.071955       0.33618
  24     48.69       79.3005        0.3046       95.7946       96.0991      16.798601       0.28288
  23     57.69       79.3673        0.3603       95.5573       95.9176      16.550320       0.23273
  22     68.43       79.4264        0.4268       95.3106       95.7374      16.310984       0.18815
  21     81.20       79.4689        0.5061       95.0643       95.5704      16.101474       0.13844
  20     96.49       79.4938        0.6007       94.8153       95.4159      15.922114       0.09899
  19     114.6       79.5222        0.7140       94.5411       95.2551      15.732891       0.08835
  18     136.5       79.5447        0.8484       94.2320       95.0805      15.535725       0.07582
  17     162.9       79.5615        1.0084       93.8753       94.8838      15.322282       0.06823
  16     196.4       79.5616        1.2160       93.4347       94.6506      15.088989       0.05872
  15     218.7       79.5542        1.3523       93.1513       94.5035      14.949365       0.05301
  14     243.0       79.5430        1.5004       92.8439       94.3443      14.801302       0.05135
  13     269.0       79.5283        1.6609       92.5111       94.1720      14.643741       0.05111
  12     297.5       79.5107        1.8343       92.1495       93.9838      14.473116       0.05061
  11     328.5       79.4925        2.0218       91.7554       93.7771      14.284658       0.05124
  10     361.9       79.4748        2.2235       91.3262       93.5497      14.074909       0.05307
   9     398.1       79.4595        2.4406       90.8575       93.2981      13.838627       0.05505
   8     437.6       79.4501        2.6735       90.3418       93.0153      13.565255       0.05845
   7     480.5       79.4502        2.9230       89.7728       92.6958      13.245630       0.06277
   6     533.0       79.4699        3.2297       89.0428       92.2726      12.802688       0.07126
   5     589.8       79.5270        3.5593       88.2038       91.7631      12.236070       0.08410
   4     651.6       79.6611        3.9111       87.1979       91.1091      11.447957       0.10778
   3     718.7       79.9031        4.2839       86.0161       90.3001      10.396943       0.13208
   2     792.3       80.3449        4.6738       84.5970       89.2708       8.925988       0.16870
   1     891.5       52.6340       59.5812        0.3347       59.9159       7.281888       0.13990
   0    1013.0       53.3960       58.5802        0.3232       58.9034       5.507390       0.12321



 Wavenumbers: 16000. - 22650. cm-1, ATM      1
 LEVEL PRESSURE   UPWARD FLUX   DIFDOWN FLUX  DIRDOWN FLUX  DOWNWARD FLUX   NET FLUX    HEATING RATE
          mb          W/m2          W/m2          W/m2        W/m2          W/m2       degree/day
  51    .06700      140.6093        0.0000      156.3892      156.3892      15.779968       0.00000
  50    .07753      140.6093        0.0004      156.3887      156.3891      15.779821       0.11818
  49    .09103      140.6092        0.0009      156.3879      156.3888      15.779606       0.13404
  48    0.1069      140.6092        0.0015      156.3871      156.3885      15.779319       0.15285
  47    0.1255      140.6092        0.0021      156.3861      156.3882      15.778935       0.17423
  46    0.1487      140.6093        0.0030      156.3847      156.3877      15.778369       0.20646
  45    0.1794      140.6094        0.0041      156.3828      156.3869      15.777483       0.24309
  44    0.2165      140.6096        0.0054      156.3805      156.3859      15.776282       0.27321
  43    0.2613      140.6100        0.0070      156.3776      156.3846      15.774653       0.30715
  42    0.3336      140.6107        0.0096      156.3726      156.3823      15.771555       0.36120
  41    0.4307      140.6120        0.0131      156.3657      156.3788      15.766885       0.40603
  40    0.5894      140.6145        0.0188      156.3537      156.3725      15.757979       0.47362
  39     1.339      140.6370        0.0458      156.2834      156.3292      15.692179       0.74078
  38     1.782      140.6579        0.0616      156.2324      156.2940      15.636126       1.06717
  37     2.292      140.6891        0.0799      156.1641      156.2440      15.554988       1.34385
  36     2.964      140.7409        0.1040      156.0605      156.1645      15.423544       1.65002
  35     3.853      140.8248        0.1357      155.9041      156.0398      15.214975       1.97936
  34     5.035      140.9514        0.1779      155.6774      155.8552      14.903807       2.22285
  33     6.613      141.1283        0.2341      155.3656      155.5997      14.471376       2.31178
  32     8.786      141.3587        0.3097      154.9577      155.2674      13.908687       2.18528
  31     11.80      141.6585        0.4178      154.4153      154.8331      13.174528       2.05541
  30     15.07      141.9457        0.5337      153.8804      154.4140      12.468296       1.82335
  29     18.79      142.2390        0.6643      153.3191      153.9834      11.744478       1.64112
  28     23.16      142.5454        0.8167      152.7126      153.5293      10.983938       1.47064
  27     28.12      142.8536        0.9908      152.0755      153.0663      10.212629       1.31117
  26     33.73      143.1381        1.1853      151.4409      152.6263       9.488144       1.08928
  25     40.54      143.4118        1.4202      150.7637      152.1839       8.772099       0.88834
  24     48.69      143.6737        1.7030      150.0338      151.7369       8.063209       0.73359
  23     57.69      143.8956        2.0134      149.3151      151.3285       7.432939       0.59078
  22     68.43      144.0889        2.3825      148.5476      150.9301       6.841288       0.46512
  21     81.20      144.2219        2.8221      147.7517      150.5738       6.351858       0.32341
  20     96.49      144.2902        3.3453      146.9127      150.2580       5.967782       0.21198
  19     114.6      144.3249        3.9648      145.9763      149.9411       5.616196       0.16417
  18     136.5      144.3347        4.6963      144.9088      149.6050       5.270330       0.13299
  17     162.9      144.3179        5.5632      143.6785      149.2418       4.923875       0.11074
  16     196.4      144.2346        6.6818      142.1651      148.8469       4.612277       0.07843
  15     218.7      144.1574        7.4128      141.2033      148.6162       4.458767       0.05828
  14     243.0      144.0631        8.2040      140.1753      148.3793       4.316181       0.04945
  13     269.0      143.9503        9.0575      139.0797      148.1372       4.186919       0.04193
  12     297.5      143.8181        9.9754      137.9141      147.8895       4.071343       0.03428
  11     328.5      143.6708       10.9620      136.6676      147.6296       3.958820       0.03059
  10     361.9      143.5080       12.0182      135.3392      147.3574       3.849472       0.02767
   9     398.1      143.3292       13.1481      133.9235      147.0716       3.742384       0.02495
   8     437.6      143.1355       14.3536      132.4163      146.7698       3.634371       0.02309
   7     480.5      142.9265       15.6369      130.8147      146.4516       3.525101       0.02146
   6     533.0      142.6696       17.2042      128.8599      146.0642       3.394597       0.02099
   5     589.8      142.3971       18.8789      126.7679      145.6468       3.249731       0.02150
   4     651.6      142.1159       20.6624      124.5274      145.1898       3.073972       0.02404
   3     718.7      141.8325       22.5565      122.1285      144.6849       2.852406       0.02784
   2     792.3      141.5650       24.5590      119.5548      144.1138       2.548866       0.03481
   1     891.5      118.4113      120.0577        0.4710      120.5287       2.117452       0.03671
   0    1013.0      118.6756      119.7474        0.4539      120.2014       1.525740       0.04109



 Wavenumbers: 22650. - 29000. cm-1, ATM      1
 LEVEL PRESSURE   UPWARD FLUX   DIFDOWN FLUX  DIRDOWN FLUX  DOWNWARD FLUX   NET FLUX    HEATING RATE
          mb          W/m2          W/m2          W/m2        W/m2          W/m2       degree/day
  51    .06700       58.4020        0.0000       59.0156       59.0156       0.613604       0.00000
  50    .07753       58.4019        0.0005       59.0151       59.0155       0.613604       0.00000
  49    .09103       58.4018        0.0010       59.0144       59.0154       0.613604      -0.00000
  48    0.1069       58.4017        0.0017       59.0136       59.0153       0.613604       0.00000
  47    0.1255       58.4015        0.0025       59.0127       59.0151       0.613604      -0.00000
  46    0.1487       58.4013        0.0034       59.0115       59.0149       0.613604       0.00000
  45    0.1794       58.4011        0.0048       59.0099       59.0147       0.613604      -0.00000
  44    0.2165       58.4008        0.0063       59.0080       59.0144       0.613604       0.00000
  43    0.2613       58.4004        0.0082       59.0058       59.0140       0.613604       0.00000
  42    0.3336       58.3998        0.0113       59.0022       59.0134       0.613604       0.00000
  41    0.4307       58.3990        0.0153       58.9973       59.0126       0.613604       0.00000
  40    0.5894       58.3977        0.0220       58.9894       59.0113       0.613604      -0.00000
  39     1.339       58.3916        0.0534       58.9518       59.0052       0.613604       0.00000
  38     1.782       58.3880        0.0719       58.9297       59.0016       0.613604       0.00000
  37     2.292       58.3838        0.0933       58.9042       58.9974       0.613604       0.00000
  36     2.964       58.3784        0.1213       58.8706       58.9920       0.613604      -0.00000
  35     3.853       58.3711        0.1584       58.8264       58.9848       0.613604       0.00000
  34     5.035       58.3616        0.2076       58.7676       58.9752       0.613604      -0.00000
  33     6.613       58.3488        0.2733       58.6891       58.9624       0.613604       0.00000
  32     8.786       58.3315        0.3617       58.5834       58.9451       0.613604       0.00000
  31     11.80       58.3069        0.4881       58.4324       58.9205       0.613604       0.00000
  30     15.07       58.2805        0.6235       58.2706       58.8941       0.613604      -0.00000
  29     18.79       58.2508        0.7761       58.0882       58.8644       0.613604       0.00000
  28     23.16       58.2161        0.9540       57.8757       58.8297       0.613604      -0.00000
  27     28.12       58.1766        1.1568       57.6333       58.7902       0.613604       0.00000
  26     33.73       58.1325        1.3830       57.3631       58.7461       0.613604       0.00000
  25     40.54       58.0794        1.6551       57.0379       58.6930       0.613604       0.00000
  24     48.69       58.0158        1.9815       56.6479       58.6294       0.613604       0.00000
  23     57.69       57.9463        2.3378       56.2221       58.5599       0.613604      -0.00000
  22     68.43       57.8641        2.7591       55.7186       58.4777       0.613604      -0.00000
  21     81.20       57.7670        3.2567       55.1239       58.3806       0.613604      -0.00000
  20     96.49       57.6524        3.8432       54.4228       58.2660       0.613604       0.00000
  19     114.6       57.5181        4.5308       53.6010       58.1318       0.613604      -0.00000
  18     136.5       57.3613        5.3332       52.6418       57.9749       0.613604       0.00000
  17     162.9       57.1779        6.2712       51.5203       57.7915       0.613604       0.00000
  16     196.4       56.9454        7.4595       50.0994       57.5590       0.613604       0.00000
  15     218.7       56.7958        8.2231       49.1863       57.4094       0.613604      -0.00000
  14     243.0       56.6360        9.0384       48.2113       57.2496       0.613604       0.00000
  13     269.0       56.4661        9.9048       47.1749       57.0797       0.613604       0.00000
  12     297.5       56.2862       10.8215       46.0783       56.8998       0.613604       0.00000
  11     328.5       56.0959       11.7900       44.9195       56.7095       0.613604      -0.00000
  10     361.9       55.8958       12.8075       43.7018       56.5094       0.613604      -0.00000
   9     398.1       55.6857       13.8743       42.4250       56.2993       0.613604       0.00000
   8     437.6       55.4662       14.9882       41.0916       56.0798       0.613604      -0.00000
   7     480.5       55.2375       16.1466       39.7045       55.8511       0.613604       0.00000
   6     533.0       54.9651       17.5244       38.0543       55.5787       0.613604       0.00000
   5     589.8       54.6821       18.9527       36.3431       55.2958       0.613604       0.00000
   4     651.6       54.3900       20.4241       34.5795       55.0036       0.613604      -0.00000
   3     718.7       54.0896       21.9330       32.7702       54.7032       0.613604       0.00000
   2     792.3       53.7826       23.4706       30.9256       54.3962       0.613604      -0.00000
   1     891.5       47.7010       48.1981        0.1160       48.3141       0.613107       0.00004
   0    1013.0       47.6779       48.1856        0.1054       48.2910       0.613107      -0.00000



 Wavenumbers: 29000. - 38000. cm-1, ATM      1
 LEVEL PRESSURE   UPWARD FLUX   DIFDOWN FLUX  DIRDOWN FLUX  DOWNWARD FLUX   NET FLUX    HEATING RATE
          mb          W/m2          W/m2          W/m2        W/m2          W/m2       degree/day
  51    .06700        8.7423        0.0000       20.8114       20.8114      12.069071       0.00000
  50    .07753        8.7421        0.0003       20.8070       20.8074      12.065264       3.05153
  49    .09103        8.7419        0.0007       20.8009       20.8016      12.059727       3.46083
  48    0.1069        8.7416        0.0012       20.7928       20.7939      12.052317       3.94427
  47    0.1255        8.7413        0.0017       20.7820       20.7837      12.042412       4.49031
  46    0.1487        8.7410        0.0024       20.7665       20.7688      12.027849       5.30841
  45    0.1794        8.7405        0.0033       20.7424       20.7457      12.005184       6.22200
  44    0.2165        8.7400        0.0044       20.7103       20.7147      11.974662       6.94335
  43    0.2613        8.7394        0.0056       20.6675       20.6731      11.933667       7.72727
  42    0.3336        8.7385        0.0077       20.5880       20.5956      11.857107       8.92619
  41    0.4307        8.7375        0.0104       20.4722       20.4826      11.745155       9.73395
  40    0.5894        8.7359        0.0147       20.2637       20.2784      11.542473      10.77838
  39     1.339        8.7325        0.0331       19.0984       19.1315      10.399009      12.87333
  38     1.782        8.7330        0.0427       18.4394       18.4820       9.749095      12.37331
  37     2.292        8.7356        0.0530       17.7714       17.8244       9.088765      10.93679
  36     2.964        8.7421        0.0657       17.0421       17.1078       8.365664       9.07710
  35     3.853        8.7549        0.0816       16.2678       16.3494       7.594521       7.31829
  34     5.035        8.7760        0.1017       15.4803       15.5820       6.806080       5.63230
  33     6.613        8.8066        0.1275       14.7157       14.8432       6.036569       4.11381
  32     8.786        8.8471        0.1612       13.9936       14.1548       5.307712       2.83062
  31     11.80        8.8999        0.2083       13.2835       13.4918       4.591867       2.00414
  30     15.07        8.9509        0.2570       12.7394       12.9964       4.045504       1.41060
  29     18.79        9.0035        0.3111       12.2666       12.5777       3.574166       1.06867
  28     23.16        9.0594        0.3726       11.8300       12.2026       3.143137       0.83347
  27     28.12        9.1167        0.4414       11.4279       11.8693       2.752551       0.66397
  26     33.73        9.1696        0.5173       11.0695       11.5867       2.417140       0.50430
  25     40.54        9.2198        0.6079       10.7209       11.3288       2.109060       0.38221
  24     48.69        9.2671        0.7155       10.3742       11.0897       1.822584       0.29646
  23     57.69        9.3059        0.8319       10.0549       10.8868       1.580888       0.22655
  22     68.43        9.3373        0.9685        9.7327       10.7012       1.363904       0.17058
  21     81.20        9.3523        1.1297        9.4134       10.5432       1.190877       0.11433
  20     96.49        9.3489        1.3193        9.0887       10.4080       1.059161       0.07270
  19     114.6        9.3352        1.5383        8.7388       10.2771       0.941913       0.05475
  18     136.5        9.3142        1.7887        8.3549       10.1436       0.829407       0.04326
  17     162.9        9.2860        2.0741        7.9311       10.0052       0.719248       0.03521
  16     196.4        9.2386        2.4276        7.4333        9.8609       0.622283       0.02441
  15     218.7        9.2045        2.6499        7.1295        9.7795       0.574990       0.01796
  14     243.0        9.1671        2.8824        6.8161        9.6984       0.531318       0.01515
  13     269.0        9.1263        3.1240        6.4943        9.6184       0.492103       0.01272
  12     297.5        9.0820        3.3738        6.1657        9.5396       0.457534       0.01025
  11     328.5        9.0358        3.6308        5.8295        9.4603       0.424436       0.00900
  10     361.9        8.9881        3.8925        5.4886        9.3811       0.392957       0.00796
   9     398.1        8.9391        4.1582        5.1440        9.3022       0.363124       0.00695
   8     437.6        8.8892        4.4266        4.7969        9.2235       0.334365       0.00615
   7     480.5        8.8387        4.6954        4.4504        9.1458       0.307065       0.00536
   6     533.0        8.7809        5.0019        4.0563        9.0582       0.277304       0.00479
   5     589.8        8.7238        5.3041        3.6682        8.9722       0.248487       0.00428
   4     651.6        8.6684        5.5982        3.2905        8.8887       0.220292       0.00386
   3     718.7        8.6152        5.8827        2.9252        8.8079       0.192675       0.00347
   2     792.3        8.5650        6.1542        2.5764        8.7307       0.165641       0.00310
   1     891.5        7.8805        8.0063        0.0088        8.0151       0.134570       0.00264
   0    1013.0        7.8879        7.9823        0.0071        7.9894       0.101452       0.00230



 Wavenumbers: 38000. - 50000. cm-1, ATM      1
 LEVEL PRESSURE   UPWARD FLUX   DIFDOWN FLUX  DIRDOWN FLUX  DOWNWARD FLUX   NET FLUX    HEATING RATE
          mb          W/m2          W/m2          W/m2        W/m2          W/m2       degree/day
  51    .06700        0.0061        0.0000        1.2836        1.2836       1.277518       0.00000
  50    .07753        0.0061        0.0001        1.2812        1.2812       1.275183       1.87150
  49    .09103        0.0060        0.0002        1.2777        1.2778       1.271851       2.08247
  48    0.1069        0.0059        0.0002        1.2731        1.2734       1.267473       2.33059
  47    0.1255        0.0058        0.0004        1.2672        1.2675       1.261717       2.60908
  46    0.1487        0.0057        0.0005        1.2586        1.2591       1.253391       3.03499
  45    0.1794        0.0055        0.0007        1.2455        1.2462       1.240623       3.50520
  44    0.2165        0.0054        0.0009        1.2282        1.2291       1.223697       3.85037
  43    0.2613        0.0052        0.0011        1.2054        1.2065       1.201348       4.21261
  42    0.3336        0.0049        0.0015        1.1639        1.1654       1.160524       4.75970
  41    0.4307        0.0045        0.0020        1.1051        1.1070       1.102565       5.03943
  40    0.5894        0.0039        0.0026        1.0039        1.0064       1.002524       5.32007
  39     1.339        0.0022        0.0035        0.5438        0.5473       0.545104       5.14971
  38     1.782        0.0016        0.0032        0.3635        0.3666       0.365006       3.42879
  37     2.292        0.0012        0.0027        0.2356        0.2383       0.237058       2.11916
  36     2.964        0.0009        0.0022        0.1455        0.1477       0.146786       1.13318
  35     3.853        0.0006        0.0017        0.0858        0.0875       0.086906       0.56828
  34     5.035        0.0004        0.0013        0.0488        0.0501       0.049701       0.26578
  33     6.613        0.0003        0.0010        0.0273        0.0282       0.027974       0.11615
  32     8.786        0.0002        0.0007        0.0144        0.0151       0.014928       0.05067
  31     11.80        0.0001        0.0004        0.0065        0.0070       0.006903       0.02247
  30     15.07        0.0000        0.0003        0.0031        0.0034       0.003329       0.00923
  29     18.79        0.0000        0.0002        0.0014        0.0016       0.001583       0.00396
  28     23.16        0.0000        0.0001        0.0006        0.0007       0.000720       0.00167
  27     28.12        0.0000        0.0001        0.0003        0.0003       0.000317       0.00069
  26     33.73        0.0000        0.0000        0.0001        0.0001       0.000140       0.00027
  25     40.54        0.0000        0.0000        0.0000        0.0001       0.000057       0.00010
  24     48.69        0.0000        0.0000        0.0000        0.0000       0.000021       0.00004
  23     57.69        0.0000        0.0000        0.0000        0.0000       0.000008       0.00001
  22     68.43        0.0000        0.0000        0.0000        0.0000       0.000003       0.00000
  21     81.20        0.0000        0.0000        0.0000        0.0000       0.000001       0.00000
  20     96.49        0.0000        0.0000        0.0000        0.0000       0.000000       0.00000
  19     114.6        0.0000        0.0000        0.0000        0.0000       0.000000       0.00000
  18     136.5        0.0000        0.0000        0.0000        0.0000       0.000000       0.00000
  17     162.9        0.0000        0.0000        0.0000        0.0000       0.000000       0.00000
  16     196.4        0.0000        0.0000        0.0000        0.0000       0.000000       0.00000
  15     218.7        0.0000        0.0000        0.0000        0.0000       0.000000       0.00000
  14     243.0        0.0000        0.0000        0.0000        0.0000       0.000000       0.00000
  13     269.0        0.0000        0.0000        0.0000        0.0000       0.000000       0.00000
  12     297.5        0.0000        0.0000        0.0000        0.0000       0.000000       0.00000
  11     328.5        0.0000        0.0000        0.0000        0.0000       0.000000       0.00000
  10     361.9        0.0000        0.0000        0.0000        0.0000       0.000000       0.00000
   9     398.1        0.0000        0.0000        0.0000        0.0000       0.000000       0.00000
   8     437.6        0.0000        0.0000        0.0000        0.0000       0.000000       0.00000
   7     480.5        0.0000        0.0000        0.0000        0.0000       0.000000       0.00000
   6     533.0        0.0000        0.0000        0.0000        0.0000       0.000000       0.00000
   5     589.8        0.0000        0.0000        0.0000        0.0000       0.000000       0.00000
   4     651.6        0.0000        0.0000        0.0000        0.0000       0.000000       0.00000
   3     718.7        0.0000        0.0000        0.0000        0.0000       0.000000       0.00000
   2     792.3        0.0000        0.0000        0.0000        0.0000       0.000000       0.00000
   1     891.5        0.0000        0.0000        0.0000        0.0000       0.000000       0.00000
   0    1013.0        0.0000        0.0000        0.0000        0.0000       0.000000       0.00000



 Wavenumbers:   820. -  2600. cm-1, ATM      1
 LEVEL PRESSURE   UPWARD FLUX   DIFDOWN FLUX  DIRDOWN FLUX  DOWNWARD FLUX   NET FLUX    HEATING RATE
          mb          W/m2          W/m2          W/m2        W/m2          W/m2       degree/day
  51    .06700        1.4037        0.0000        6.0047        6.0047       4.600921       0.00000
  50    .07753        1.4037        0.0000        6.0008        6.0008       4.597068       3.08824
  49    .09103        1.4037        0.0000        5.9999        5.9999       4.596183       0.55361
  48    0.1069        1.4037        0.0000        5.9989        5.9989       4.595193       0.52655
  47    0.1255        1.4037        0.0000        5.9978        5.9978       4.594076       0.50653
  46    0.1487        1.4037        0.0000        5.9964        5.9964       4.592719       0.49460
  45    0.1794        1.4037        0.0000        5.9947        5.9947       4.591000       0.47203
  44    0.2165        1.4037        0.0000        5.9929        5.9929       4.589157       0.41914
  43    0.2613        1.4037        0.0000        5.9909        5.9909       4.587198       0.36937
  42    0.3336        1.4037        0.0000        5.9880        5.9880       4.584319       0.33560
  41    0.4307        1.4037        0.0000        5.9846        5.9846       4.580849       0.30169
  40    0.5894        1.4037        0.0000        5.9791        5.9791       4.575343       0.29280
  39     1.339        1.4037        0.0000        5.9536        5.9536       4.549852       0.28698
  38     1.782        1.4037        0.0000        5.9395        5.9395       4.535712       0.26921
  37     2.292        1.4037        0.0000        5.9237        5.9237       4.519958       0.26092
  36     2.964        1.4038        0.0000        5.9039        5.9039       4.500180       0.24827
  35     3.853        1.4038        0.0000        5.8793        5.8793       4.475520       0.23403
  34     5.035        1.4038        0.0000        5.8487        5.8487       4.444951       0.21837
  33     6.613        1.4038        0.0000        5.8108        5.8108       4.406978       0.20300
  32     8.786        1.4038        0.0000        5.7631        5.7631       4.359343       0.18500
  31     11.80        1.4038        0.0000        5.7039        5.7039       4.300070       0.16595
  30     15.07        1.4039        0.0000        5.6539        5.6539       4.250012       0.12924
  29     18.79        1.4039        0.0000        5.6127        5.6127       4.208856       0.09332
  28     23.16        1.4039        0.0000        5.5794        5.5794       4.175453       0.06459
  27     28.12        1.4040        0.0000        5.5518        5.5518       4.147856       0.04691
  26     33.73        1.4040        0.0000        5.5268        5.5268       4.122767       0.03772
  25     40.54        1.4041        0.0000        5.4993        5.4993       4.095279       0.03410
  24     48.69        1.4041        0.0000        5.4678        5.4678       4.063683       0.03270
  23     57.69        1.4042        0.0000        5.4340        5.4340       4.029832       0.03173
  22     68.43        1.4043        0.0000        5.3947        5.3948       3.990481       0.03094
  21     81.20        1.4044        0.0000        5.3497        5.3497       3.945352       0.02982
  20     96.49        1.4045        0.0000        5.2982        5.2982       3.893719       0.02850
  19     114.6        1.4047        0.0000        5.2389        5.2389       3.834250       0.02777
  18     136.5        1.4049        0.0000        5.1716        5.1717       3.766806       0.02593
  17     162.9        1.4051        0.0000        5.0890        5.0891       3.683909       0.02650
  16     196.4        1.4056        0.0000        4.9668        4.9668       3.561207       0.03089
  15     218.7        1.4061        0.0000        4.8585        4.8585       3.452375       0.04132
  14     243.0        1.4069        0.0000        4.7078        4.7079       3.301000       0.05250
  13     269.0        1.4080        0.0000        4.5343        4.5343       3.126293       0.05667
  12     297.5        1.4098        0.0000        4.3419        4.3420       2.932167       0.05758
  11     328.5        1.4122        0.0000        4.1281        4.1281       2.715919       0.05880
  10     361.9        1.4155        0.0000        3.8786        3.8787       2.463227       0.06393
   9     398.1        1.4196        0.0000        3.6159        3.6160       2.196321       0.06218
   8     437.6        1.4251        0.0000        3.3759        3.3759       1.950840       0.05249
   7     480.5        1.4317        0.0000        3.1957        3.1958       1.764088       0.03668
   6     533.0        1.4418        0.0000        3.0467        3.0467       1.604901       0.02561
   5     589.8        1.4567        0.0000        2.9023        2.9023       1.445586       0.02365
   4     651.6        1.4827        0.0001        2.7183        2.7184       1.235621       0.02871
   3     718.7        1.5278        0.0001        2.5058        2.5059       0.978042       0.03237
   2     792.3        1.6147        0.0001        2.2756        2.2757       0.661027       0.03636
   1     891.5        0.4538        0.8240        0.0080        0.8320       0.378129       0.02407
   0    1013.0        0.5423        0.6773        0.0063        0.6836       0.141299       0.01644

  Modules and versions used in this calculation:

       rrtmg_sw.1col.f90:  $Revision$                    rrtmg_sw_init.f90:  $Revision$        
     rrtmgsw_cldprop.f90:  $Revision$                  rrtmgsw_cldprmc.f90:  NOT USED          
     rrtmg_sw_reftra.f90:  $Revision$                  rrtmg_sw_spcvrt.f90:  NOT USED          
     rrtmg_sw_spcvmc.f90:  NOT USED                    rrtmgsw_setcoef.f90:  NOT USED          
     rrtmg_sw_taumol.f90:  $Revision$                  rrtmg_sw_vrtqdr.f90:  NOT USED          
                rrtatm.f:  NOT USED                             util_xxx.f:  NOT USED          
                 extra.f:  NOT USED                       rrtmg_sw_k_g.f90:  $Revision$        

