

 Wavenumbers:   820. - 50000. cm-1, ATM      1
 LEVEL PRESSURE   UPWARD FLUX   DIFDOWN FLUX  DIRDOWN FLUX  DOWNWARD FLUX   NET FLUX    HEATING RATE
          mb          W/m2          W/m2          W/m2        W/m2          W/m2       degree/day
  51    .06700      410.6595        0.0000      617.8126      617.8126     207.153076       0.00000
  50    .07753      410.6591        0.0014      617.7947      617.7961     207.136936      12.93650
  49    .09103      410.6587        0.0030      617.7778      617.7808     207.122126       9.25649
  48    0.1069      410.6582        0.0050      617.7581      617.7631     207.104865       9.18840
  47    0.1255      410.6577        0.0072      617.7340      617.7412     207.083520       9.67674
  46    0.1487      410.6571        0.0101      617.7009      617.7109     207.053834      10.82087
  45    0.1794      410.6564        0.0139      617.6521      617.6660     207.009602      12.14262
  44    0.2165      410.6557        0.0185      617.5895      617.6079     206.952280      13.03983
  43    0.2613      410.6550        0.0238      617.5089      617.5327     206.877766      14.04564
  42    0.3336      410.6541        0.0327      617.3641      617.3968     206.742677      15.74997
  41    0.4307      410.6534        0.0443      617.1591      617.2034     206.550048      16.74863
  40    0.5894      410.6532        0.0631      616.8005      616.8636     206.210346      18.06493
  39     1.339      410.6707        0.1481      614.9443      615.0923     204.421647      20.13751
  38     1.782      410.6936        0.1959      613.9670      614.1629     203.469312      18.13093
  37     2.292      410.7316        0.2503      613.0059      613.2561     202.524590      15.64706
  36     2.964      410.7987        0.3210      611.9577      612.2786     201.479933      13.11360
  35     3.853      410.9115        0.4137      610.8024      611.2161     200.304631      11.15383
  34     5.035      411.0850        0.5361      609.5327      610.0688     198.983812       9.43538
  33     6.613      411.3293        0.6985      608.1464      608.8449     197.515582       7.84916
  32     8.786      411.6477        0.9164      606.6250      607.5414     195.893766       6.29855
  31     11.80      412.0598        1.2266      604.8486      606.0753     194.015468       5.25864
  30     15.07      412.4520        1.5577      603.2440      604.8016     192.349633       4.30086
  29     18.79      412.8501        1.9302      601.6511      603.5813     190.731231       3.66941
  28     23.16      413.2633        2.3630      599.9927      602.3557     189.092460       3.16886
  27     28.12      413.6751        2.8557      598.2881      601.1437     187.468656       2.76036
  26     33.73      414.0472        3.4049      596.5951      600.0000     185.952783       2.27916
  25     40.54      414.3935        4.0662      594.7727      598.8389     184.445414       1.87006
  24     48.69      414.7108        4.8597      592.7865      597.6462     182.935424       1.56260
  23     57.69      414.9621        5.7271      590.7959      596.5230     181.560883       1.28842
  22     68.43      415.1560        6.7548      588.6191      595.3738     180.217798       1.05584
  21     81.20      415.2406        7.9731      586.2690      594.2421     179.001545       0.80368
  20     96.49      415.2054        9.4157      583.6961      593.1118     177.906426       0.60443
  19     114.6      415.1105       11.1130      580.7708      591.8839     176.773310       0.52909
  18     136.5      414.9530       13.1005      577.4359      590.5364     175.583398       0.45755
  17     162.9      414.7269       15.4330      573.5624      588.9955     174.268591       0.42027
  16     196.4      414.3449       18.4077      568.5907      586.9984     172.653514       0.40653
  15     218.7      414.0647       20.3311      565.0572      585.3883     171.323652       0.50490
  14     243.0      413.7506       22.3941      560.7495      583.1437     169.393122       0.66957
  13     269.0      413.4025       24.5983      555.3947      579.9930     166.590507       0.90916
  12     297.5      413.0235       26.9442      548.9964      575.9406     162.917087       1.08950
  11     328.5      412.6224       29.4384      542.0895      571.5280     158.905599       1.09071
  10     361.9      412.2041       32.0772      534.6242      566.7014     154.497289       1.11535
   9     398.1      411.7751       34.8650      526.4204      561.2854     149.510337       1.16185
   8     437.6      411.3495       37.8007      517.3907      555.1913     143.841804       1.21197
   7     480.5      410.9415       40.8823      507.7216      548.6038     137.662329       1.21363
   6     533.0      410.5286       44.5875      495.9006      540.4882     129.959537       1.23913
   5     589.8      410.2441       48.4761      483.0788      531.5550     121.310807       1.28375
   4     651.6      410.2629       52.5356      468.6907      521.2262     110.963290       1.41505
   3     718.7      410.8078       56.7577      453.2257      509.9835      99.175646       1.48138
   2     792.3      412.4446       61.1208      436.4928      497.6137      85.169092       1.60639
   1     891.5      353.3312      249.4404      171.5133      420.9537      67.622442       1.49314
   0    1013.0      358.5361      246.3918      160.9387      407.3306      48.794490       1.30732



 Wavenumbers:  2600. -  3250. cm-1, ATM      1
 LEVEL PRESSURE   UPWARD FLUX   DIFDOWN FLUX  DIRDOWN FLUX  DOWNWARD FLUX   NET FLUX    HEATING RATE
          mb          W/m2          W/m2          W/m2        W/m2          W/m2       degree/day
  51    .06700        0.6936        0.0000        5.4450        5.4450       4.751459       0.00000
  50    .07753        0.6936        0.0000        5.4450        5.4450       4.751451       0.00640
  49    .09103        0.6936        0.0000        5.4450        5.4450       4.751441       0.00627
  48    0.1069        0.6936        0.0000        5.4450        5.4450       4.751429       0.00613
  47    0.1255        0.6936        0.0000        5.4450        5.4450       4.751416       0.00599
  46    0.1487        0.6936        0.0000        5.4450        5.4450       4.751400       0.00608
  45    0.1794        0.6936        0.0000        5.4450        5.4450       4.751377       0.00625
  44    0.2165        0.6936        0.0000        5.4449        5.4449       4.751350       0.00612
  43    0.2613        0.6936        0.0000        5.4449        5.4449       4.751318       0.00600
  42    0.3336        0.6936        0.0000        5.4448        5.4448       4.751265       0.00617
  41    0.4307        0.6936        0.0000        5.4448        5.4448       4.751194       0.00620
  40    0.5894        0.6936        0.0000        5.4446        5.4446       4.751074       0.00637
  39     1.339        0.6936        0.0000        5.4439        5.4439       4.750367       0.00797
  38     1.782        0.6936        0.0000        5.4434        5.4434       4.749824       0.01034
  37     2.292        0.6936        0.0000        5.4427        5.4427       4.749108       0.01186
  36     2.964        0.6936        0.0000        5.4416        5.4416       4.748069       0.01304
  35     3.853        0.6936        0.0000        5.4402        5.4402       4.746592       0.01402
  34     5.035        0.6936        0.0000        5.4381        5.4381       4.744536       0.01468
  33     6.613        0.6936        0.0000        5.4353        5.4353       4.741755       0.01487
  32     8.786        0.6936        0.0000        5.4317        5.4317       4.738123       0.01411
  31     11.80        0.6936        0.0000        5.4269        5.4269       4.733342       0.01338
  30     15.07        0.6936        0.0000        5.4224        5.4224       4.728815       0.01169
  29     18.79        0.6936        0.0000        5.4180        5.4180       4.724402       0.01001
  28     23.16        0.6936        0.0000        5.4135        5.4135       4.719914       0.00868
  27     28.12        0.6936        0.0000        5.4088        5.4088       4.715265       0.00790
  26     33.73        0.6936        0.0000        5.4036        5.4036       4.710021       0.00788
  25     40.54        0.6936        0.0000        5.3966        5.3967       4.703075       0.00862
  24     48.69        0.6936        0.0000        5.3872        5.3872       4.693591       0.00981
  23     57.69        0.6936        0.0000        5.3754        5.3754       4.681796       0.01106
  22     68.43        0.6936        0.0000        5.3599        5.3599       4.666294       0.01219
  21     81.20        0.6937        0.0000        5.3401        5.3401       4.646439       0.01312
  20     96.49        0.6937        0.0000        5.3155        5.3155       4.621842       0.01358
  19     114.6        0.6937        0.0000        5.2853        5.2853       4.591603       0.01412
  18     136.5        0.6938        0.0001        5.2504        5.2505       4.556636       0.01345
  17     162.9        0.6939        0.0001        5.2111        5.2111       4.517206       0.01260
  16     196.4        0.6941        0.0001        5.1640        5.1641       4.469968       0.01189
  15     218.7        0.6943        0.0001        5.1331        5.1332       4.438849       0.01181
  14     243.0        0.6947        0.0001        5.0962        5.0963       4.401630       0.01291
  13     269.0        0.6952        0.0001        5.0511        5.0512       4.355995       0.01480
  12     297.5        0.6960        0.0001        4.9956        4.9957       4.299726       0.01669
  11     328.5        0.6971        0.0001        4.9304        4.9305       4.233394       0.01804
  10     361.9        0.6986        0.0001        4.8511        4.8512       4.152604       0.02044
   9     398.1        0.7007        0.0001        4.7507        4.7508       4.050086       0.02388
   8     437.6        0.7037        0.0002        4.6220        4.6222       3.918508       0.02813
   7     480.5        0.7078        0.0002        4.4625        4.4626       3.754875       0.03214
   6     533.0        0.7144        0.0002        4.2460        4.2462       3.531777       0.03589
   5     589.8        0.7246        0.0002        3.9954        3.9956       3.270950       0.03872
   4     651.6        0.7415        0.0002        3.7089        3.7090       2.967523       0.04149
   3     718.7        0.7695        0.0002        3.4018        3.4020       2.632491       0.04210
   2     792.3        0.8206        0.0002        3.0564        3.0566       2.236038       0.04547
   1     891.5        0.0171        0.7341        1.0700        1.8041       1.787074       0.03820
   0    1013.0        0.0197        0.6027        0.8636        1.4663       1.446630       0.02364



 Wavenumbers:  3250. -  4000. cm-1, ATM      1
 LEVEL PRESSURE   UPWARD FLUX   DIFDOWN FLUX  DIRDOWN FLUX  DOWNWARD FLUX   NET FLUX    HEATING RATE
          mb          W/m2          W/m2          W/m2        W/m2          W/m2       degree/day
  51    .06700        0.0174        0.0000        9.1795        9.1795       9.162119       0.00000
  50    .07753        0.0174        0.0000        9.1747        9.1747       9.157276       3.88148
  49    .09103        0.0174        0.0000        9.1713        9.1713       9.153888       2.11747
  48    0.1069        0.0174        0.0000        9.1688        9.1688       9.151363       1.34402
  47    0.1255        0.0174        0.0000        9.1665        9.1665       9.149104       1.02422
  46    0.1487        0.0174        0.0000        9.1641        9.1641       9.146663       0.88991
  45    0.1794        0.0174        0.0000        9.1612        9.1612       9.143785       0.79008
  44    0.2165        0.0174        0.0000        9.1583        9.1583       9.140864       0.66430
  43    0.2613        0.0174        0.0000        9.1553        9.1553       9.137891       0.56041
  42    0.3336        0.0174        0.0000        9.1511        9.1511       9.133712       0.48723
  41    0.4307        0.0174        0.0000        9.1464        9.1464       9.128944       0.41459
  40    0.5894        0.0174        0.0000        9.1393        9.1394       9.121939       0.37255
  39     1.339        0.0174        0.0000        9.1127        9.1127       9.095325       0.29962
  38     1.782        0.0174        0.0000        9.1011        9.1011       9.083737       0.22062
  37     2.292        0.0174        0.0000        9.0901        9.0901       9.072670       0.18329
  36     2.964        0.0174        0.0000        9.0776        9.0776       9.060240       0.15603
  35     3.853        0.0174        0.0000        9.0629        9.0629       9.045450       0.14036
  34     5.035        0.0174        0.0000        9.0441        9.0441       9.026711       0.13386
  33     6.613        0.0174        0.0000        9.0191        9.0191       9.001710       0.13366
  32     8.786        0.0174        0.0000        8.9843        8.9843       8.966926       0.13509
  31     11.80        0.0174        0.0000        8.9327        8.9327       8.915310       0.14451
  30     15.07        0.0174        0.0000        8.8758        8.8759       8.858465       0.14676
  29     18.79        0.0174        0.0000        8.8110        8.8110       8.793637       0.14698
  28     23.16        0.0174        0.0000        8.7365        8.7366       8.719193       0.14395
  27     28.12        0.0174        0.0000        8.6554        8.6555       8.638080       0.13789
  26     33.73        0.0174        0.0000        8.5719        8.5719       8.554580       0.12554
  25     40.54        0.0174        0.0001        8.4812        8.4812       8.463856       0.11255
  24     48.69        0.0173        0.0001        8.3838        8.3839       8.366555       0.10069
  23     57.69        0.0173        0.0001        8.2861        8.2862       8.268820       0.09161
  22     68.43        0.0173        0.0001        8.1751        8.1751       8.157823       0.08726
  21     81.20        0.0173        0.0001        8.0457        8.0458       8.028465       0.08548
  20     96.49        0.0173        0.0001        7.8949        7.8950       7.877761       0.08318
  19     114.6        0.0173        0.0001        7.7162        7.7163       7.699052       0.08344
  18     136.5        0.0172        0.0002        7.5193        7.5195       7.502208       0.07569
  17     162.9        0.0172        0.0002        7.2913        7.2915       7.274316       0.07284
  16     196.4        0.0172        0.0002        6.9660        6.9662       6.949042       0.08188
  15     218.7        0.0172        0.0002        6.6648        6.6650       6.647851       0.11435
  14     243.0        0.0171        0.0002        6.2619        6.2622       6.245049       0.13970
  13     269.0        0.0171        0.0003        5.7576        5.7579       5.740733       0.16360
  12     297.5        0.0172        0.0003        5.1719        5.1722       5.155005       0.17372
  11     328.5        0.0172        0.0002        4.5757        4.5760       4.558781       0.16211
  10     361.9        0.0173        0.0002        3.9995        3.9998       3.982499       0.14581
   9     398.1        0.0174        0.0002        3.4655        3.4657       3.448267       0.12446
   8     437.6        0.0177        0.0002        2.9740        2.9743       2.956528       0.10514
   7     480.5        0.0182        0.0002        2.5307        2.5309       2.512684       0.08717
   6     533.0        0.0191        0.0002        2.0614        2.0616       2.042479       0.07564
   5     589.8        0.0207        0.0002        1.6150        1.6151       1.594388       0.06651
   4     651.6        0.0242        0.0001        1.1565        1.1566       1.132370       0.06318
   3     718.7        0.0319        0.0001        0.7390        0.7391       0.707222       0.05343
   2     792.3        0.0523        0.0001        0.3985        0.3985       0.346251       0.04140
   1     891.5        0.0000        0.0325        0.0472        0.0797       0.079647       0.02269
   0    1013.0        0.0003        0.0034        0.0039        0.0073       0.006921       0.00505



 Wavenumbers:  4000. -  4650. cm-1, ATM      1
 LEVEL PRESSURE   UPWARD FLUX   DIFDOWN FLUX  DIRDOWN FLUX  DOWNWARD FLUX   NET FLUX    HEATING RATE
          mb          W/m2          W/m2          W/m2        W/m2          W/m2       degree/day
  51    .06700        2.8208        0.0000       10.7795       10.7795       7.958726       0.00000
  50    .07753        2.8208        0.0000       10.7795       10.7795       7.958725       0.00080
  49    .09103        2.8208        0.0000       10.7795       10.7795       7.958724       0.00078
  48    0.1069        2.8208        0.0000       10.7795       10.7795       7.958722       0.00076
  47    0.1255        2.8208        0.0000       10.7795       10.7795       7.958720       0.00075
  46    0.1487        2.8208        0.0000       10.7795       10.7795       7.958718       0.00076
  45    0.1794        2.8208        0.0000       10.7795       10.7795       7.958716       0.00078
  44    0.2165        2.8208        0.0000       10.7795       10.7795       7.958712       0.00076
  43    0.2613        2.8208        0.0000       10.7795       10.7795       7.958708       0.00075
  42    0.3336        2.8208        0.0000       10.7795       10.7795       7.958702       0.00077
  41    0.4307        2.8208        0.0000       10.7795       10.7795       7.958693       0.00077
  40    0.5894        2.8208        0.0000       10.7795       10.7795       7.958678       0.00080
  39     1.339        2.8208        0.0000       10.7794       10.7794       7.958588       0.00101
  38     1.782        2.8208        0.0000       10.7793       10.7793       7.958519       0.00133
  37     2.292        2.8208        0.0000       10.7792       10.7792       7.958425       0.00156
  36     2.964        2.8208        0.0000       10.7791       10.7791       7.958284       0.00176
  35     3.853        2.8208        0.0000       10.7789       10.7789       7.958076       0.00197
  34     5.035        2.8208        0.0000       10.7786       10.7786       7.957769       0.00219
  33     6.613        2.8208        0.0000       10.7781       10.7781       7.957317       0.00242
  32     8.786        2.8208        0.0000       10.7774       10.7774       7.956650       0.00259
  31     11.80        2.8208        0.0000       10.7763       10.7764       7.955603       0.00293
  30     15.07        2.8208        0.0001       10.7751       10.7752       7.954374       0.00317
  29     18.79        2.8208        0.0001       10.7736       10.7737       7.952887       0.00337
  28     23.16        2.8208        0.0001       10.7717       10.7718       7.951042       0.00357
  27     28.12        2.8208        0.0001       10.7695       10.7696       7.948808       0.00380
  26     33.73        2.8208        0.0001       10.7667       10.7668       7.946055       0.00414
  25     40.54        2.8208        0.0002       10.7629       10.7631       7.942320       0.00463
  24     48.69        2.8208        0.0002       10.7579       10.7581       7.937345       0.00515
  23     57.69        2.8208        0.0002       10.7520       10.7522       7.931447       0.00553
  22     68.43        2.8208        0.0003       10.7446       10.7449       7.924058       0.00581
  21     81.20        2.8209        0.0003       10.7355       10.7358       7.914962       0.00601
  20     96.49        2.8210        0.0004       10.7245       10.7249       7.903898       0.00611
  19     114.6        2.8211        0.0005       10.7107       10.7112       7.890070       0.00646
  18     136.5        2.8213        0.0006       10.6942       10.6948       7.873418       0.00640
  17     162.9        2.8217        0.0007       10.6740       10.6747       7.853020       0.00652
  16     196.4        2.8222        0.0008       10.6464       10.6472       7.824915       0.00707
  15     218.7        2.8228        0.0009       10.6255       10.6263       7.803561       0.00811
  14     243.0        2.8236        0.0010       10.5980       10.5990       7.775443       0.00975
  13     269.0        2.8248        0.0011       10.5611       10.5622       7.737364       0.01235
  12     297.5        2.8266        0.0012       10.5119       10.5131       7.686516       0.01508
  11     328.5        2.8291        0.0013       10.4499       10.4512       7.622060       0.01753
  10     361.9        2.8324        0.0015       10.3702       10.3716       7.539187       0.02097
   9     398.1        2.8366        0.0016       10.2678       10.2694       7.432764       0.02479
   8     437.6        2.8419        0.0017       10.1390       10.1407       7.298809       0.02864
   7     480.5        2.8487        0.0019        9.9877        9.9896       7.140875       0.03102
   6     533.0        2.8591        0.0020        9.7937        9.7957       6.936600       0.03286
   5     589.8        2.8742        0.0022        9.5752        9.5774       6.703215       0.03464
   4     651.6        2.8983        0.0024        9.2958        9.2982       6.399902       0.04148
   3     718.7        2.9385        0.0025        8.9267        8.9293       5.990767       0.05142
   2     792.3        3.0130        0.0027        8.4542        8.4569       5.443923       0.06272
   1     891.5        0.8246        2.3922        3.2298        5.6220       4.797383       0.05502
   0    1013.0        0.8787        2.1951        2.9322        5.1273       4.248623       0.03810



 Wavenumbers:  4650. -  5150. cm-1, ATM      1
 LEVEL PRESSURE   UPWARD FLUX   DIFDOWN FLUX  DIRDOWN FLUX  DOWNWARD FLUX   NET FLUX    HEATING RATE
          mb          W/m2          W/m2          W/m2        W/m2          W/m2       degree/day
  51    .06700        1.7576        0.0000       10.2033       10.2033       8.445721       0.00000
  50    .07753        1.7576        0.0000       10.2031       10.2031       8.445486       0.18901
  49    .09103        1.7576        0.0000       10.2028       10.2028       8.445191       0.18428
  48    0.1069        1.7576        0.0000       10.2025       10.2025       8.444854       0.17931
  47    0.1255        1.7576        0.0000       10.2021       10.2021       8.444470       0.17426
  46    0.1487        1.7576        0.0000       10.2016       10.2016       8.443989       0.17536
  45    0.1794        1.7576        0.0000       10.2010       10.2010       8.443338       0.17850
  44    0.2165        1.7576        0.0000       10.2002       10.2002       8.442579       0.17277
  43    0.2613        1.7576        0.0000       10.1993       10.1993       8.441693       0.16690
  42    0.3336        1.7576        0.0000       10.1979       10.1979       8.440261       0.16702
  41    0.4307        1.7576        0.0000       10.1960       10.1960       8.438420       0.16002
  40    0.5894        1.7576        0.0000       10.1932       10.1932       8.435547       0.15283
  39     1.339        1.7576        0.0000       10.1816       10.1816       8.423955       0.13050
  38     1.782        1.7576        0.0000       10.1760       10.1760       8.418426       0.10526
  37     2.292        1.7576        0.0000       10.1706       10.1706       8.412970       0.09037
  36     2.964        1.7576        0.0000       10.1646       10.1647       8.407047       0.07435
  35     3.853        1.7576        0.0000       10.1584       10.1584       8.400833       0.05897
  34     5.035        1.7576        0.0000       10.1521       10.1521       8.394497       0.04526
  33     6.613        1.7576        0.0000       10.1456       10.1456       8.388040       0.03452
  32     8.786        1.7576        0.0001       10.1386       10.1386       8.381029       0.02723
  31     11.80        1.7576        0.0001       10.1295       10.1296       8.371988       0.02531
  30     15.07        1.7576        0.0001       10.1196       10.1197       8.362108       0.02551
  29     18.79        1.7576        0.0001       10.1076       10.1077       8.350099       0.02723
  28     23.16        1.7576        0.0001       10.0923       10.0924       8.334792       0.02960
  27     28.12        1.7576        0.0002       10.0731       10.0733       8.315693       0.03247
  26     33.73        1.7576        0.0002       10.0500       10.0502       8.292591       0.03473
  25     40.54        1.7577        0.0002       10.0201       10.0204       8.262677       0.03711
  24     48.69        1.7578        0.0003        9.9820        9.9823       8.224488       0.03952
  23     57.69        1.7579        0.0003        9.9384        9.9388       8.180926       0.04083
  22     68.43        1.7580        0.0004        9.8858        9.8862       8.128159       0.04148
  21     81.20        1.7582        0.0005        9.8234        9.8239       8.065719       0.04126
  20     96.49        1.7585        0.0006        9.7518        9.7523       7.993830       0.03968
  19     114.6        1.7589        0.0007        9.6719        9.6726       7.913676       0.03743
  18     136.5        1.7595        0.0008        9.5858        9.5866       7.827091       0.03329
  17     162.9        1.7603        0.0009        9.4940        9.4950       7.734650       0.02955
  16     196.4        1.7616        0.0011        9.3883        9.3894       7.627772       0.02690
  15     218.7        1.7627        0.0012        9.3229        9.3242       7.561500       0.02516
  14     243.0        1.7640        0.0014        9.2520        9.2533       7.489334       0.02503
  13     269.0        1.7658        0.0015        9.1717        9.1732       7.407320       0.02660
  12     297.5        1.7684        0.0016        9.0763        9.0779       7.309497       0.02901
  11     328.5        1.7718        0.0018        8.9650        8.9668       7.194949       0.03115
  10     361.9        1.7762        0.0020        8.8349        8.8369       7.060662       0.03398
   9     398.1        1.7819        0.0021        8.6820        8.6841       6.902197       0.03692
   8     437.6        1.7894        0.0023        8.5028        8.5051       6.715672       0.03988
   7     480.5        1.7992        0.0025        8.2948        8.2973       6.498097       0.04273
   6     533.0        1.8141        0.0027        8.0209        8.0235       6.209435       0.04644
   5     589.8        1.8349        0.0028        7.7063        7.7092       5.874245       0.04975
   4     651.6        1.8658        0.0030        7.3412        7.3442       5.478425       0.05413
   3     718.7        1.9126        0.0032        6.9387        6.9418       5.029199       0.05646
   2     792.3        1.9874        0.0033        6.5066        6.5099       4.522509       0.05811
   1     891.5        0.2150        1.7284        2.4596        4.1880       3.973053       0.04676
   0    1013.0        0.2329        1.5604        2.1971        3.7575       3.524590       0.03114



 Wavenumbers:  5150. -  6150. cm-1, ATM      1
 LEVEL PRESSURE   UPWARD FLUX   DIFDOWN FLUX  DIRDOWN FLUX  DOWNWARD FLUX   NET FLUX    HEATING RATE
          mb          W/m2          W/m2          W/m2        W/m2          W/m2       degree/day
  51    .06700        5.1010        0.0000       25.5798       25.5798      20.478792       0.00000
  50    .07753        5.1010        0.0000       25.5798       25.5798      20.478753       0.03158
  49    .09103        5.1010        0.0000       25.5797       25.5797      20.478701       0.03207
  48    0.1069        5.1010        0.0000       25.5797       25.5797      20.478640       0.03258
  47    0.1255        5.1010        0.0000       25.5796       25.5796      20.478567       0.03308
  46    0.1487        5.1010        0.0000       25.5795       25.5795      20.478472       0.03485
  45    0.1794        5.1010        0.0000       25.5794       25.5794      20.478336       0.03709
  44    0.2165        5.1010        0.0000       25.5792       25.5792      20.478171       0.03766
  43    0.2613        5.1010        0.0000       25.5790       25.5790      20.477968       0.03823
  42    0.3336        5.1010        0.0000       25.5786       25.5786      20.477622       0.04040
  41    0.4307        5.1010        0.0000       25.5782       25.5782      20.477151       0.04094
  40    0.5894        5.1010        0.0000       25.5774       25.5774      20.476362       0.04195
  39     1.339        5.1010        0.0000       25.5735       25.5736      20.472562       0.04278
  38     1.782        5.1010        0.0000       25.5713       25.5714      20.470350       0.04211
  37     2.292        5.1010        0.0001       25.5688       25.5688      20.467847       0.04146
  36     2.964        5.1010        0.0001       25.5656       25.5657      20.464667       0.03992
  35     3.853        5.1010        0.0001       25.5615       25.5616      20.460626       0.03835
  34     5.035        5.1010        0.0001       25.5562       25.5564      20.455422       0.03717
  33     6.613        5.1009        0.0002       25.5494       25.5496      20.448672       0.03609
  32     8.786        5.1009        0.0002       25.5406       25.5408      20.439925       0.03397
  31     11.80        5.1009        0.0003       25.5287       25.5290      20.428098       0.03311
  30     15.07        5.1009        0.0004       25.5167       25.5171      20.416239       0.03062
  29     18.79        5.1009        0.0005       25.5042       25.5047      20.403844       0.02810
  28     23.16        5.1008        0.0007       25.4907       25.4913      20.390494       0.02581
  27     28.12        5.1008        0.0008       25.4764       25.4772      20.376420       0.02392
  26     33.73        5.1008        0.0009       25.4620       25.4630      20.362162       0.02144
  25     40.54        5.1008        0.0011       25.4463       25.4474      20.346578       0.01933
  24     48.69        5.1008        0.0014       25.4294       25.4307      20.329898       0.01726
  23     57.69        5.1009        0.0016       25.4126       25.4142      20.313345       0.01552
  22     68.43        5.1010        0.0019       25.3944       25.3963      20.295381       0.01412
  21     81.20        5.1011        0.0023       25.3744       25.3767      20.275622       0.01306
  20     96.49        5.1012        0.0027       25.3519       25.3546      20.253424       0.01225
  19     114.6        5.1014        0.0032       25.3262       25.3294      20.227973       0.01188
  18     136.5        5.1016        0.0038       25.2962       25.3000      20.198353       0.01139
  17     162.9        5.1020        0.0045       25.2521       25.2566      20.154652       0.01397
  16     196.4        5.1024        0.0054       25.1593       25.1647      20.062296       0.02325
  15     218.7        5.1028        0.0060       25.0159       25.0220      19.919151       0.05435
  14     243.0        5.1033        0.0066       24.7089       24.7155      19.612243       0.10645
  13     269.0        5.1040        0.0072       24.1619       24.1691      19.065070       0.17750
  12     297.5        5.1050        0.0078       23.4544       23.4622      18.357137       0.20997
  11     328.5        5.1064        0.0084       22.7355       22.7438      17.637380       0.19570
  10     361.9        5.1084        0.0089       21.9224       21.9314      16.822963       0.20606
   9     398.1        5.1111        0.0095       20.9939       21.0034      15.892293       0.21683
   8     437.6        5.1150        0.0100       19.9833       19.9933      14.878374       0.21678
   7     480.5        5.1204        0.0105       18.9483       18.9588      13.838424       0.20424
   6     533.0        5.1296        0.0110       17.7796       17.7906      12.660991       0.18941
   5     589.8        5.1448        0.0116       16.6726       16.6841      11.539367       0.16649
   4     651.6        5.1726        0.0121       15.6343       15.6464      10.473815       0.14572
   3     718.7        5.2236        0.0127       14.7738       14.7865       9.562950       0.11447
   2     792.3        5.3245        0.0134       14.0291       14.0425       8.718019       0.09690
   1     891.5        1.7289        4.1046        5.4204        9.5250       7.796063       0.07845
   0    1013.0        1.8049        3.8197        4.9880        8.8077       7.002744       0.05508



 Wavenumbers:  6150. -  7700. cm-1, ATM      1
 LEVEL PRESSURE   UPWARD FLUX   DIFDOWN FLUX  DIRDOWN FLUX  DOWNWARD FLUX   NET FLUX    HEATING RATE
          mb          W/m2          W/m2          W/m2        W/m2          W/m2       degree/day
  51    .06700        8.3060        0.0000       47.3109       47.3109      39.004815       0.00000
  50    .07753        8.3060        0.0000       47.3108       47.3108      39.004758       0.04553
  49    .09103        8.3060        0.0000       47.3107       47.3107      39.004685       0.04583
  48    0.1069        8.3060        0.0000       47.3106       47.3106      39.004598       0.04614
  47    0.1255        8.3060        0.0000       47.3105       47.3105      39.004496       0.04645
  46    0.1487        8.3060        0.0000       47.3104       47.3104      39.004363       0.04852
  45    0.1794        8.3060        0.0000       47.3102       47.3102      39.004176       0.05127
  44    0.2165        8.3060        0.0000       47.3100       47.3100      39.003949       0.05167
  43    0.2613        8.3060        0.0000       47.3097       47.3097      39.003672       0.05210
  42    0.3336        8.3060        0.0000       47.3092       47.3092      39.003203       0.05471
  41    0.4307        8.3060        0.0000       47.3085       47.3086      39.002568       0.05521
  40    0.5894        8.3060        0.0001       47.3074       47.3075      39.001509       0.05633
  39     1.339        8.3059        0.0002       47.3022       47.3023      38.996417       0.05733
  38     1.782        8.3059        0.0002       47.2991       47.2993      38.993446       0.05655
  37     2.292        8.3058        0.0003       47.2956       47.2959      38.990071       0.05591
  36     2.964        8.3058        0.0003       47.2912       47.2915      38.985752       0.05421
  35     3.853        8.3057        0.0004       47.2855       47.2859      38.980218       0.05252
  34     5.035        8.3056        0.0006       47.2780       47.2786      38.973037       0.05129
  33     6.613        8.3054        0.0008       47.2683       47.2691      38.963650       0.05019
  32     8.786        8.3052        0.0010       47.2556       47.2566      38.951351       0.04777
  31     11.80        8.3050        0.0014       47.2380       47.2394      38.934447       0.04732
  30     15.07        8.3047        0.0018       47.2201       47.2218      38.917160       0.04463
  29     18.79        8.3043        0.0022       47.2008       47.2030      38.898681       0.04190
  28     23.16        8.3039        0.0027       47.1795       47.1822      38.878291       0.03943
  27     28.12        8.3035        0.0033       47.1565       47.1598      38.856298       0.03739
  26     33.73        8.3030        0.0039       47.1324       47.1364      38.833378       0.03446
  25     40.54        8.3024        0.0047       47.1054       47.1101      38.807743       0.03180
  24     48.69        8.3016        0.0057       47.0754       47.0811      38.779492       0.02924
  23     57.69        8.3008        0.0067       47.0449       47.0517      38.750872       0.02683
  22     68.43        8.2998        0.0080       47.0110       47.0190      38.719139       0.02495
  21     81.20        8.2987        0.0095       46.9729       46.9823      38.683649       0.02345
  20     96.49        8.2973        0.0112       46.9294       46.9406      38.643315       0.02226
  19     114.6        8.2957        0.0133       46.8790       46.8924      38.596693       0.02177
  18     136.5        8.2937        0.0158       46.8200       46.8358      38.542085       0.02100
  17     162.9        8.2914        0.0188       46.7361       46.7549      38.463492       0.02512
  16     196.4        8.2885        0.0227       46.5703       46.5929      38.304368       0.04005
  15     218.7        8.2867        0.0251       46.3473       46.3724      38.085700       0.08302
  14     243.0        8.2849        0.0277       45.9299       45.9576      37.672651       0.14326
  13     269.0        8.2833        0.0303       45.1708       45.2010      36.917736       0.24489
  12     297.5        8.2822        0.0327       44.0115       44.0442      35.761983       0.34278
  11     328.5        8.2819        0.0353       42.7242       42.7595      34.477598       0.34922
  10     361.9        8.2827        0.0378       41.3539       41.3917      33.109061       0.34625
   9     398.1        8.2852        0.0402       39.7953       39.8355      31.550255       0.36317
   8     437.6        8.2908        0.0425       37.9948       38.0372      29.746478       0.38566
   7     480.5        8.3006        0.0446       36.0647       36.1093      27.808663       0.38058
   6     533.0        8.3204        0.0468       33.7773       33.8240      25.503615       0.37081
   5     589.8        8.3564        0.0487       31.4082       31.4568      23.100436       0.35671
   4     651.6        8.4274        0.0501       28.8834       28.9335      20.506070       0.35479
   3     718.7        8.5632        0.0512       26.4104       26.4616      17.898381       0.32771
   2     792.3        8.8457        0.0521       24.0056       24.0577      15.212012       0.30810
   1     891.5        3.0062        6.7203        8.7986       15.5189      12.512739       0.22970
   0    1013.0        3.2337        5.9966        7.7132       13.7098      10.476097       0.14141



 Wavenumbers:  7700. -  8050. cm-1, ATM      1
 LEVEL PRESSURE   UPWARD FLUX   DIFDOWN FLUX  DIRDOWN FLUX  DOWNWARD FLUX   NET FLUX    HEATING RATE
          mb          W/m2          W/m2          W/m2        W/m2          W/m2       degree/day
  51    .06700        6.1252        0.0000       11.1810       11.1810       5.055743       0.00000
  50    .07753        6.1252        0.0000       11.1809       11.1809       5.055721       0.01755
  49    .09103        6.1252        0.0000       11.1809       11.1809       5.055693       0.01720
  48    0.1069        6.1252        0.0000       11.1809       11.1809       5.055662       0.01684
  47    0.1255        6.1252        0.0000       11.1809       11.1809       5.055625       0.01648
  46    0.1487        6.1252        0.0000       11.1808       11.1808       5.055580       0.01672
  45    0.1794        6.1253        0.0000       11.1808       11.1808       5.055517       0.01721
  44    0.2165        6.1253        0.0000       11.1807       11.1807       5.055443       0.01688
  43    0.2613        6.1253        0.0000       11.1806       11.1806       5.055355       0.01656
  42    0.3336        6.1253        0.0000       11.1805       11.1805       5.055209       0.01695
  41    0.4307        6.1253        0.0000       11.1803       11.1804       5.055017       0.01676
  40    0.5894        6.1254        0.0000       11.1801       11.1801       5.054702       0.01674
  39     1.339        6.1257        0.0001       11.1788       11.1789       5.053212       0.01677
  38     1.782        6.1258        0.0001       11.1781       11.1782       5.052337       0.01666
  37     2.292        6.1260        0.0001       11.1772       11.1773       5.051324       0.01677
  36     2.964        6.1262        0.0002       11.1761       11.1762       5.049995       0.01669
  35     3.853        6.1266        0.0002       11.1746       11.1748       5.048238       0.01667
  34     5.035        6.1270        0.0003       11.1726       11.1729       5.045905       0.01667
  33     6.613        6.1275        0.0004       11.1700       11.1703       5.042788       0.01666
  32     8.786        6.1283        0.0005       11.1664       11.1669       5.038589       0.01631
  31     11.80        6.1294        0.0007       11.1613       11.1620       5.032586       0.01681
  30     15.07        6.1305        0.0008       11.1558       11.1567       5.026147       0.01663
  29     18.79        6.1318        0.0010       11.1497       11.1507       5.018879       0.01648
  28     23.16        6.1334        0.0013       11.1425       11.1438       5.010402       0.01639
  27     28.12        6.1352        0.0016       11.1343       11.1359       5.000722       0.01646
  26     33.73        6.1372        0.0019       11.1252       11.1271       4.989910       0.01626
  25     40.54        6.1396        0.0022       11.1142       11.1164       4.976877       0.01617
  24     48.69        6.1425        0.0027       11.1010       11.1037       4.961209       0.01621
  23     57.69        6.1457        0.0032       11.0866       11.0898       4.944057       0.01608
  22     68.43        6.1496        0.0038       11.0695       11.0733       4.923708       0.01600
  21     81.20        6.1543        0.0045       11.0494       11.0538       4.899581       0.01594
  20     96.49        6.1599        0.0053       11.0255       11.0309       4.870993       0.01578
  19     114.6        6.1666        0.0063       10.9975       11.0038       4.837277       0.01574
  18     136.5        6.1746        0.0075       10.9648       10.9723       4.797622       0.01525
  17     162.9        6.1844        0.0089       10.9263       10.9352       4.750814       0.01496
  16     196.4        6.1972        0.0107       10.8773       10.8880       4.690742       0.01512
  15     218.7        6.2058        0.0119       10.8455       10.8574       4.651623       0.01485
  14     243.0        6.2153        0.0132       10.8114       10.8246       4.609336       0.01467
  13     269.0        6.2257        0.0146       10.7749       10.7894       4.563701       0.01480
  12     297.5        6.2373        0.0161       10.7357       10.7518       4.514472       0.01460
  11     328.5        6.2501        0.0177       10.6937       10.7114       4.461317       0.01445
  10     361.9        6.2643        0.0194       10.6489       10.6683       4.403983       0.01451
   9     398.1        6.2801        0.0213       10.6008       10.6221       4.341938       0.01445
   8     437.6        6.2979        0.0233       10.5491       10.5724       4.274522       0.01441
   7     480.5        6.3178        0.0255       10.4934       10.5189       4.201115       0.01442
   6     533.0        6.3438        0.0281       10.4243       10.4524       4.108618       0.01488
   5     589.8        6.3741        0.0310       10.3479       10.3789       4.004747       0.01542
   4     651.6        6.4106        0.0340       10.2613       10.2954       3.884826       0.01640
   3     718.7        6.4552        0.0373       10.1618       10.1990       3.743824       0.01772
   2     792.3        6.5120        0.0407       10.0439       10.0846       3.572647       0.01963
   1     891.5        4.6239        3.8778        4.0875        7.9653       3.341418       0.01968
   0    1013.0        4.7232        3.7947        3.9829        7.7777       3.054457       0.01993



 Wavenumbers:  8050. - 12850. cm-1, ATM      1
 LEVEL PRESSURE   UPWARD FLUX   DIFDOWN FLUX  DIRDOWN FLUX  DOWNWARD FLUX   NET FLUX    HEATING RATE
          mb          W/m2          W/m2          W/m2        W/m2          W/m2       degree/day
  51    .06700       97.1184        0.0000      156.5418      156.5418      59.423349       0.00000
  50    .07753       97.1184        0.0000      156.5417      156.5417      59.423349      -0.00000
  49    .09103       97.1184        0.0001      156.5417      156.5417      59.423349       0.00000
  48    0.1069       97.1184        0.0001      156.5416      156.5417      59.423349       0.00000
  47    0.1255       97.1183        0.0002      156.5415      156.5417      59.423349      -0.00000
  46    0.1487       97.1183        0.0002      156.5414      156.5417      59.423349       0.00000
  45    0.1794       97.1183        0.0003      156.5413      156.5416      59.423349       0.00000
  44    0.2165       97.1182        0.0004      156.5412      156.5416      59.423349       0.00000
  43    0.2613       97.1182        0.0006      156.5410      156.5415      59.423349      -0.00000
  42    0.3336       97.1181        0.0008      156.5407      156.5415      59.423349       0.00000
  41    0.4307       97.1180        0.0010      156.5403      156.5414      59.423349      -0.00000
  40    0.5894       97.1178        0.0015      156.5397      156.5412      59.423349       0.00000
  39     1.339       97.1170        0.0036      156.5367      156.5404      59.423349      -0.00000
  38     1.782       97.1166        0.0049      156.5350      156.5399      59.423349       0.00000
  37     2.292       97.1160        0.0064      156.5330      156.5394      59.423349      -0.00000
  36     2.964       97.1153        0.0083      156.5303      156.5386      59.423349       0.00000
  35     3.853       97.1143        0.0108      156.5268      156.5377      59.423349       0.00000
  34     5.035       97.1131        0.0142      156.5222      156.5364      59.423349      -0.00000
  33     6.613       97.1114        0.0187      156.5160      156.5347      59.423349      -0.00000
  32     8.786       97.1091        0.0248      156.5076      156.5324      59.423349       0.00000
  31     11.80       97.1058        0.0335      156.4957      156.5291      59.423349       0.00000
  30     15.07       97.1023        0.0428      156.4828      156.5256      59.423349      -0.00000
  29     18.79       97.0983        0.0534      156.4682      156.5216      59.423349      -0.00000
  28     23.16       97.0936        0.0658      156.4512      156.5170      59.423349       0.00000
  27     28.12       97.0883        0.0799      156.4317      156.5116      59.423349       0.00000
  26     33.73       97.0823        0.0958      156.4099      156.5057      59.423349      -0.00000
  25     40.54       97.0751        0.1150      156.3834      156.4984      59.423349       0.00000
  24     48.69       97.0664        0.1382      156.3515      156.4897      59.423349      -0.00000
  23     57.69       97.0567        0.1637      156.3164      156.4801      59.423349      -0.00000
  22     68.43       97.0453        0.1941      156.2746      156.4686      59.423349       0.00000
  21     81.20       97.0316        0.2304      156.2246      156.4550      59.423349      -0.00000
  20     96.49       97.0153        0.2737      156.1649      156.4386      59.423349       0.00000
  19     114.6       96.9960        0.3252      156.0879      156.4132      59.417120       0.00291
  18     136.5       96.9732        0.3864      155.9962      156.3826      59.409394       0.00297
  17     162.9       96.9460        0.4595      155.8831      156.3425      59.396574       0.00410
  16     196.4       96.9107        0.5545      155.7199      156.2744      59.363732       0.00827
  15     218.7       96.8877        0.6169      155.5733      156.1902      59.302521       0.02324
  14     243.0       96.8634        0.6848      155.3367      156.0215      59.158077       0.05010
  13     269.0       96.8387        0.7582      154.9514      155.7097      58.870941       0.09315
  12     297.5       96.8153        0.8373      154.3896      155.2269      58.411660       0.13622
  11     328.5       96.7940        0.9226      153.7151      154.6377      57.843625       0.15445
  10     361.9       96.7772        1.0141      152.9087      153.9228      57.145563       0.17662
   9     398.1       96.7685        1.1119      151.8986      153.0105      56.242026       0.21050
   8     437.6       96.7742        1.2161      150.6031      151.8192      55.045025       0.25593
   7     480.5       96.8018        1.3262      149.0014      150.3275      53.525745       0.29838
   6     533.0       96.8766        1.4594      146.7375      148.1969      51.320297       0.35479
   5     589.8       97.0326        1.5990      143.8730      145.4720      48.439307       0.42763
   4     651.6       97.3604        1.7423      140.0955      141.8378      44.477354       0.54181
   3     718.7       97.9866        1.8878      135.5278      137.4156      39.428996       0.63444
   2     792.3       99.2136        2.0322      130.0690      132.1012      32.887594       0.75023
   1     891.5       81.2000       54.6577       50.6026      105.2604      24.060401       0.75115
   0    1013.0       84.8164       51.7970       46.8006       98.5976      13.781160       0.71374



 Wavenumbers: 12850. - 16000. cm-1, ATM      1
 LEVEL PRESSURE   UPWARD FLUX   DIFDOWN FLUX  DIRDOWN FLUX  DOWNWARD FLUX   NET FLUX    HEATING RATE
          mb          W/m2          W/m2          W/m2        W/m2          W/m2       degree/day
  51    .06700       80.1419        0.0000       98.0872       98.0872      17.945314       0.00000
  50    .07753       80.1419        0.0001       98.0864       98.0864      17.944522       0.63480
  49    .09103       80.1419        0.0002       98.0853       98.0855      17.943527       0.62177
  48    0.1069       80.1419        0.0003       98.0841       98.0843      17.942384       0.60849
  47    0.1255       80.1419        0.0004       98.0826       98.0830      17.941070       0.59552
  46    0.1487       80.1420        0.0005       98.0809       98.0814      17.939412       0.60439
  45    0.1794       80.1420        0.0007       98.0784       98.0792      17.937156       0.61932
  44    0.2165       80.1421        0.0010       98.0756       98.0766      17.934502       0.60381
  43    0.2613       80.1422        0.0013       98.0723       98.0736      17.931380       0.58853
  42    0.3336       80.1425        0.0017       98.0670       98.0687      17.926282       0.59431
  41    0.4307       80.1429        0.0024       98.0602       98.0625      17.919688       0.57334
  40    0.5894       80.1437        0.0034       98.0496       98.0530      17.909292       0.55283
  39     1.339       80.1504        0.0082       98.0043       98.0125      17.862108       0.53122
  38     1.782       80.1566        0.0110       97.9793       97.9903      17.833729       0.54028
  37     2.292       80.1657        0.0143       97.9498       97.9641      17.798349       0.58598
  36     2.964       80.1809        0.0186       97.9088       97.9274      17.746561       0.65010
  35     3.853       80.2052        0.0243       97.8503       97.8746      17.669400       0.73228
  34     5.035       80.2419        0.0318       97.7680       97.7998      17.557916       0.79639
  33     6.613       80.2931        0.0419       97.6562       97.6981      17.404990       0.81754
  32     8.786       80.3598        0.0555       97.5107       97.5662      17.206365       0.77139
  31     11.80       80.4466        0.0749       97.3179       97.3927      16.946093       0.72868
  30     15.07       80.5299        0.0957       97.1283       97.2240      16.694068       0.65068
  29     18.79       80.6151        0.1192       96.9300       97.0492      16.434098       0.58943
  28     23.16       80.7042        0.1466       96.7166       96.8631      16.158926       0.53209
  27     28.12       80.7940        0.1779       96.4935       96.6714      15.877307       0.47873
  26     33.73       80.8773        0.2129       96.2731       96.4860      15.608653       0.40393
  25     40.54       80.9580        0.2553       96.0408       96.2960      15.338015       0.33576
  24     48.69       81.0359        0.3063       95.7946       96.1009      15.065028       0.28250
  23     57.69       81.1025        0.3624       95.5573       95.9197      14.817131       0.23237
  22     68.43       81.1616        0.4292       95.3106       95.7398      14.578251       0.18779
  21     81.20       81.2040        0.5090       95.0643       95.5733      14.369285       0.13808
  20     96.49       81.2288        0.6041       94.8153       95.4194      14.190598       0.09862
  19     114.6       81.2589        0.7183       94.5411       95.2593      14.000467       0.08878
  18     136.5       81.2829        0.8536       94.2320       95.0856      13.802734       0.07603
  17     162.9       81.3009        1.0147       93.8753       94.8900      13.589176       0.06826
  16     196.4       81.3016        1.2237       93.4347       94.6584      13.356794       0.05849
  15     218.7       81.2940        1.3610       93.1513       94.5122      13.218278       0.05259
  14     243.0       81.2823        1.5101       92.8439       94.3541      13.071819       0.05080
  13     269.0       81.2665        1.6718       92.5111       94.1829      12.916497       0.05039
  12     297.5       81.2471        1.8465       92.1495       93.9960      12.748961       0.04969
  11     328.5       81.2262        2.0354       91.7554       93.7907      12.564559       0.05014
  10     361.9       81.2047        2.2386       91.3262       93.5648      12.360117       0.05173
   9     398.1       81.1842        2.4574       90.8575       93.3149      12.130775       0.05343
   8     437.6       81.1674        2.6922       90.3418       93.0340      11.866590       0.05648
   7     480.5       81.1575        2.9438       89.7728       92.7166      11.559122       0.06039
   6     533.0       81.1609        3.2532       89.0428       92.2960      11.135152       0.06820
   5     589.8       81.1939        3.5858       88.2038       91.7896      10.595779       0.08006
   4     651.6       81.2894        3.9414       87.1979       91.1393       9.849889       0.10200
   3     718.7       81.4710        4.3182       86.0161       90.3344       8.863429       0.12397
   2     792.3       81.8112        4.7126       84.5970       89.3097       7.498465       0.15655
   1     891.5       72.7746       43.9928       34.1613       78.1541       5.379482       0.18032
   0    1013.0       73.9986       43.4324       32.9931       76.4255       2.426902       0.20501



 Wavenumbers: 16000. - 22650. cm-1, ATM      1
 LEVEL PRESSURE   UPWARD FLUX   DIFDOWN FLUX  DIRDOWN FLUX  DOWNWARD FLUX   NET FLUX    HEATING RATE
          mb          W/m2          W/m2          W/m2        W/m2          W/m2       degree/day
  51    .06700      140.5844        0.0000      156.3892      156.3892      15.804855       0.00000
  50    .07753      140.5844        0.0004      156.3887      156.3891      15.804708       0.11808
  49    .09103      140.5843        0.0009      156.3879      156.3888      15.804493       0.13393
  48    0.1069      140.5843        0.0015      156.3871      156.3885      15.804206       0.15272
  47    0.1255      140.5844        0.0021      156.3861      156.3882      15.803822       0.17409
  46    0.1487      140.5844        0.0030      156.3847      156.3877      15.803256       0.20629
  45    0.1794      140.5845        0.0041      156.3828      156.3869      15.802372       0.24289
  44    0.2165      140.5848        0.0054      156.3805      156.3859      15.801172       0.27298
  43    0.2613      140.5851        0.0070      156.3776      156.3846      15.799544       0.30689
  42    0.3336      140.5858        0.0096      156.3726      156.3823      15.796448       0.36090
  41    0.4307      140.5871        0.0131      156.3657      156.3789      15.791782       0.40570
  40    0.5894      140.5896        0.0188      156.3537      156.3725      15.782883       0.47322
  39     1.339      140.6121        0.0458      156.2834      156.3292      15.717138       0.74017
  38     1.782      140.6329        0.0616      156.2324      156.2940      15.661131       1.06628
  37     2.292      140.6640        0.0800      156.1641      156.2441      15.580061       1.34274
  36     2.964      140.7158        0.1040      156.0605      156.1645      15.448727       1.64864
  35     3.853      140.7995        0.1357      155.9041      156.0398      15.240331       1.97771
  34     5.035      140.9258        0.1779      155.6774      155.8552      14.929423       2.22100
  33     6.613      141.1024        0.2341      155.3656      155.5997      14.497354       2.30984
  32     8.786      141.3323        0.3098      154.9577      155.2674      13.935139       2.18344
  31     11.80      141.6315        0.4179      154.4153      154.8331      13.201602       2.05367
  30     15.07      141.9181        0.5337      153.8804      154.4141      12.495973       1.82180
  29     18.79      142.2107        0.6644      153.3191      153.9835      11.772777       1.63971
  28     23.16      142.5165        0.8169      152.7126      153.5294      11.012895       1.46937
  27     28.12      142.8241        0.9909      152.0755      153.0664      10.242259       1.31003
  26     33.73      143.1080        1.1855      151.4409      152.6264       9.518412       1.08832
  25     40.54      143.3811        1.4204      150.7637      152.1841       8.803000       0.88755
  24     48.69      143.6424        1.7033      150.0338      151.7371       8.094743       0.73294
  23     57.69      143.8637        2.0136      149.3151      151.3288       7.465040       0.59025
  22     68.43      144.0565        2.3828      148.5476      150.9305       6.873924       0.46470
  21     81.20      144.1892        2.8225      147.7517      150.5741       6.384940       0.32311
  20     96.49      144.2572        3.3458      146.9127      150.2584       6.001216       0.21179
  19     114.6      144.2917        3.9653      145.9763      149.9416       5.649860       0.16406
  18     136.5      144.3014        4.6969      144.9088      149.6056       5.304221       0.13291
  17     162.9      144.2845        5.5639      143.6785      149.2425       4.957995       0.11067
  16     196.4      144.2011        6.6827      142.1651      148.8477       4.646605       0.07838
  15     218.7      144.1239        7.4138      141.2033      148.6171       4.493202       0.05824
  14     243.0      144.0296        8.2050      140.1753      148.3804       4.350725       0.04942
  13     269.0      143.9168        9.0587      139.0797      148.1383       4.221590       0.04189
  12     297.5      143.7846        9.9767      137.9141      147.8908       4.106175       0.03423
  11     328.5      143.6372       10.9634      136.6676      147.6310       3.993862       0.03054
  10     361.9      143.4742       12.0198      135.3392      147.3590       3.884788       0.02760
   9     398.1      143.2952       13.1498      133.9235      147.0733       3.778067       0.02486
   8     437.6      143.1012       14.3555      132.4163      146.7717       3.670560       0.02299
   7     480.5      142.8917       15.6390      130.8147      146.4536       3.561977       0.02133
   6     533.0      142.6339       17.2065      128.8599      146.0665       3.432570       0.02082
   5     589.8      142.3601       18.8815      126.7679      145.6494       3.289322       0.02126
   4     651.6      142.0766       20.6653      124.5274      145.1927       3.116170       0.02368
   3     718.7      141.7895       22.5598      122.1285      144.6882       2.898677       0.02733
   2     792.3      141.5159       24.5627      119.5548      144.1176       2.601625       0.03407
   1     891.5      129.6500       83.6604       48.0855      131.7459       2.095887       0.04304
   0    1013.0      129.7349       84.7417       46.3386      131.0803       1.345366       0.05211



 Wavenumbers: 22650. - 29000. cm-1, ATM      1
 LEVEL PRESSURE   UPWARD FLUX   DIFDOWN FLUX  DIRDOWN FLUX  DOWNWARD FLUX   NET FLUX    HEATING RATE
          mb          W/m2          W/m2          W/m2        W/m2          W/m2       degree/day
  51    .06700       58.6808        0.0000       59.0156       59.0156       0.334797       0.00000
  50    .07753       58.6807        0.0005       59.0151       59.0155       0.334797      -0.00000
  49    .09103       58.6806        0.0010       59.0144       59.0154       0.334797       0.00000
  48    0.1069       58.6805        0.0017       59.0136       59.0153       0.334797      -0.00000
  47    0.1255       58.6803        0.0025       59.0127       59.0151       0.334797       0.00000
  46    0.1487       58.6801        0.0035       59.0115       59.0149       0.334797      -0.00000
  45    0.1794       58.6799        0.0048       59.0099       59.0147       0.334797       0.00000
  44    0.2165       58.6796        0.0063       59.0080       59.0144       0.334797       0.00000
  43    0.2613       58.6792        0.0082       59.0058       59.0140       0.334797       0.00000
  42    0.3336       58.6786        0.0113       59.0022       59.0134       0.334797      -0.00000
  41    0.4307       58.6779        0.0154       58.9973       59.0127       0.334797       0.00000
  40    0.5894       58.6766        0.0220       58.9894       59.0114       0.334797      -0.00000
  39     1.339       58.6705        0.0535       58.9518       59.0053       0.334797       0.00000
  38     1.782       58.6669        0.0720       58.9297       59.0017       0.334797       0.00000
  37     2.292       58.6628        0.0934       58.9042       58.9976       0.334797       0.00000
  36     2.964       58.6574        0.1216       58.8706       58.9922       0.334797      -0.00000
  35     3.853       58.6503        0.1587       58.8264       58.9851       0.334797       0.00000
  34     5.035       58.6408        0.2080       58.7676       58.9756       0.334797       0.00000
  33     6.613       58.6281        0.2738       58.6891       58.9629       0.334797       0.00000
  32     8.786       58.6110        0.3624       58.5834       58.9458       0.334797      -0.00000
  31     11.80       58.5867        0.4890       58.4324       58.9215       0.334797      -0.00000
  30     15.07       58.5605        0.6247       58.2706       58.8953       0.334797       0.00000
  29     18.79       58.5311        0.7776       58.0882       58.8659       0.334797       0.00000
  28     23.16       58.4968        0.9559       57.8757       58.8316       0.334797      -0.00000
  27     28.12       58.4576        1.1591       57.6333       58.7924       0.334797      -0.00000
  26     33.73       58.4140        1.3857       57.3631       58.7488       0.334797       0.00000
  25     40.54       58.3615        1.6584       57.0379       58.6963       0.334797       0.00000
  24     48.69       58.2985        1.9854       56.6479       58.6333       0.334797      -0.00000
  23     57.69       58.2297        2.3424       56.2221       58.5645       0.334797       0.00000
  22     68.43       58.1483        2.7646       55.7186       58.4831       0.334797      -0.00000
  21     81.20       58.0523        3.2631       55.1239       58.3871       0.334797       0.00000
  20     96.49       57.9390        3.8510       54.4228       58.2738       0.334797       0.00000
  19     114.6       57.8061        4.5399       53.6010       58.1409       0.334797       0.00000
  18     136.5       57.6510        5.3441       52.6418       57.9858       0.334797      -0.00000
  17     162.9       57.4697        6.2841       51.5203       57.8045       0.334797       0.00000
  16     196.4       57.2398        7.4752       50.0994       57.5746       0.334797       0.00000
  15     218.7       57.0920        8.2405       49.1863       57.4268       0.334797      -0.00000
  14     243.0       56.9342        9.0577       48.2113       57.2690       0.334797      -0.00000
  13     269.0       56.7664        9.9262       47.1749       57.1012       0.334797       0.00000
  12     297.5       56.5887       10.8452       46.0783       56.9235       0.334797      -0.00000
  11     328.5       56.4009       11.8162       44.9195       56.7357       0.334797       0.00000
  10     361.9       56.2035       12.8364       43.7018       56.5383       0.334797       0.00000
   9     398.1       55.9963       13.9061       42.4250       56.3311       0.334797       0.00000
   8     437.6       55.7799       15.0230       41.0916       56.1147       0.334797       0.00000
   7     480.5       55.5546       16.1849       39.7045       55.8894       0.334797       0.00000
   6     533.0       55.2863       17.5669       38.0543       55.6211       0.334797       0.00000
   5     589.8       55.0079       18.9997       36.3431       55.3427       0.334797      -0.00000
   4     651.6       54.7207       20.4760       34.5795       55.0555       0.334797       0.00000
   3     718.7       54.4257       21.9902       32.7702       54.7605       0.334797      -0.00000
   2     792.3       54.1245       23.5337       30.9256       54.4593       0.334797       0.00000
   1     891.5       50.9703       39.4646       11.8405       51.3050       0.334711       0.00001
   0    1013.0       50.7861       40.3623       10.7585       51.1208       0.334711       0.00000



 Wavenumbers: 29000. - 38000. cm-1, ATM      1
 LEVEL PRESSURE   UPWARD FLUX   DIFDOWN FLUX  DIRDOWN FLUX  DOWNWARD FLUX   NET FLUX    HEATING RATE
          mb          W/m2          W/m2          W/m2        W/m2          W/m2       degree/day
  51    .06700        8.7687        0.0000       20.8114       20.8114      12.042626       0.00000
  50    .07753        8.7685        0.0003       20.8070       20.8074      12.038818       3.05155
  49    .09103        8.7683        0.0007       20.8009       20.8016      12.033281       3.46085
  48    0.1069        8.7681        0.0012       20.7928       20.7939      12.025872       3.94429
  47    0.1255        8.7678        0.0017       20.7820       20.7837      12.015967       4.49034
  46    0.1487        8.7674        0.0024       20.7665       20.7688      12.001404       5.30844
  45    0.1794        8.7670        0.0033       20.7424       20.7457      11.978739       6.22205
  44    0.2165        8.7665        0.0044       20.7103       20.7147      11.948216       6.94341
  43    0.2613        8.7659        0.0056       20.6675       20.6731      11.907221       7.72733
  42    0.3336        8.7650        0.0077       20.5880       20.5957      11.830660       8.92626
  41    0.4307        8.7639        0.0104       20.4722       20.4826      11.718707       9.73404
  40    0.5894        8.7624        0.0147       20.2637       20.2784      11.516023      10.77848
  39     1.339        8.7590        0.0331       19.0984       19.1315      10.372544      12.87350
  38     1.782        8.7595        0.0427       18.4394       18.4821       9.722618      12.37355
  37     2.292        8.7621        0.0530       17.7714       17.8244       9.062270      10.93708
  36     2.964        8.7687        0.0657       17.0421       17.1078       8.339142       9.07745
  35     3.853        8.7815        0.0816       16.2678       16.3495       7.567955       7.31870
  34     5.035        8.8027        0.1018       15.4803       15.5821       6.779451       5.63275
  33     6.613        8.8334        0.1276       14.7157       14.8433       6.009854       4.11427
  32     8.786        8.8741        0.1614       13.9936       14.1549       5.280886       2.83105
  31     11.80        8.9271        0.2084       13.2835       13.4920       4.564899       2.00454
  30     15.07        8.9782        0.2573       12.7394       12.9966       4.018400       1.41095
  29     18.79        9.0311        0.3114       12.2666       12.5780       3.546925       1.06898
  28     23.16        9.0872        0.3729       11.8300       12.2029       3.115753       0.83375
  27     28.12        9.1447        0.4418       11.4279       11.8697       2.725023       0.66422
  26     33.73        9.1978        0.5178       11.0695       11.5873       2.389478       0.50450
  25     40.54        9.2482        0.6086       10.7209       11.3295       2.081268       0.38237
  24     48.69        9.2958        0.7162       10.3742       11.0904       1.794664       0.29659
  23     57.69        9.3348        0.8328       10.0549       10.8877       1.552858       0.22666
  22     68.43        9.3665        0.9695        9.7327       10.7023       1.335772       0.17066
  21     81.20        9.3818        1.1310        9.4134       10.5444       1.162661       0.11439
  20     96.49        9.3787        1.3208        9.0887       10.4095       1.030880       0.07273
  19     114.6        9.3653        1.5401        8.7388       10.2789       0.913573       0.05477
  18     136.5        9.3447        1.7908        8.3549       10.1457       0.801011       0.04328
  17     162.9        9.3170        2.0767        7.9311       10.0078       0.690794       0.03523
  16     196.4        9.2702        2.4307        7.4333        9.8640       0.593778       0.02442
  15     218.7        9.2365        2.6534        7.1295        9.7830       0.546458       0.01797
  14     243.0        9.1996        2.8863        6.8161        9.7023       0.502762       0.01516
  13     269.0        9.1592        3.1284        6.4943        9.6227       0.463524       0.01273
  12     297.5        9.1154        3.3786        6.1657        9.5443       0.428934       0.01026
  11     328.5        9.0697        3.6361        5.8295        9.4656       0.395815       0.00900
  10     361.9        9.0226        3.8983        5.4886        9.3869       0.364316       0.00797
   9     398.1        8.9742        4.1646        5.1440        9.3086       0.334464       0.00695
   8     437.6        8.9249        4.4337        4.7969        9.2306       0.305684       0.00615
   7     480.5        8.8752        4.7032        4.4504        9.1536       0.278365       0.00537
   6     533.0        8.8182        5.0105        4.0563        9.0668       0.248581       0.00479
   5     589.8        8.7621        5.3136        3.6682        8.9818       0.219741       0.00428
   4     651.6        8.7077        5.6087        3.2905        8.8993       0.191522       0.00386
   3     718.7        8.6557        5.8944        2.9252        8.8196       0.163882       0.00347
   2     792.3        8.6067        6.1671        2.5764        8.7435       0.136823       0.00310
   1     891.5        8.3117        7.5183        0.8975        8.4158       0.104098       0.00278
   0    1013.0        8.2958        7.6380        0.7262        8.3642       0.068406       0.00248



 Wavenumbers: 38000. - 50000. cm-1, ATM      1
 LEVEL PRESSURE   UPWARD FLUX   DIFDOWN FLUX  DIRDOWN FLUX  DOWNWARD FLUX   NET FLUX    HEATING RATE
          mb          W/m2          W/m2          W/m2        W/m2          W/m2       degree/day
  51    .06700        0.0061        0.0000        1.2836        1.2836       1.277518       0.00000
  50    .07753        0.0061        0.0001        1.2812        1.2812       1.275183       1.87150
  49    .09103        0.0060        0.0002        1.2777        1.2778       1.271851       2.08247
  48    0.1069        0.0059        0.0002        1.2731        1.2734       1.267473       2.33059
  47    0.1255        0.0058        0.0004        1.2672        1.2675       1.261717       2.60908
  46    0.1487        0.0057        0.0005        1.2586        1.2591       1.253391       3.03499
  45    0.1794        0.0055        0.0007        1.2455        1.2462       1.240623       3.50520
  44    0.2165        0.0054        0.0009        1.2282        1.2291       1.223697       3.85037
  43    0.2613        0.0052        0.0011        1.2054        1.2065       1.201348       4.21261
  42    0.3336        0.0049        0.0015        1.1639        1.1654       1.160524       4.75970
  41    0.4307        0.0045        0.0020        1.1051        1.1070       1.102565       5.03943
  40    0.5894        0.0039        0.0026        1.0039        1.0064       1.002524       5.32007
  39     1.339        0.0022        0.0035        0.5438        0.5473       0.545104       5.14971
  38     1.782        0.0016        0.0032        0.3635        0.3666       0.365006       3.42879
  37     2.292        0.0012        0.0027        0.2356        0.2383       0.237058       2.11916
  36     2.964        0.0009        0.0022        0.1455        0.1477       0.146786       1.13318
  35     3.853        0.0006        0.0017        0.0858        0.0875       0.086906       0.56828
  34     5.035        0.0004        0.0013        0.0488        0.0501       0.049701       0.26578
  33     6.613        0.0003        0.0010        0.0273        0.0282       0.027974       0.11615
  32     8.786        0.0002        0.0007        0.0144        0.0151       0.014928       0.05067
  31     11.80        0.0001        0.0004        0.0065        0.0070       0.006903       0.02247
  30     15.07        0.0000        0.0003        0.0031        0.0034       0.003329       0.00923
  29     18.79        0.0000        0.0002        0.0014        0.0016       0.001583       0.00396
  28     23.16        0.0000        0.0001        0.0006        0.0007       0.000720       0.00167
  27     28.12        0.0000        0.0001        0.0003        0.0003       0.000317       0.00069
  26     33.73        0.0000        0.0000        0.0001        0.0001       0.000140       0.00027
  25     40.54        0.0000        0.0000        0.0000        0.0001       0.000057       0.00010
  24     48.69        0.0000        0.0000        0.0000        0.0000       0.000021       0.00004
  23     57.69        0.0000        0.0000        0.0000        0.0000       0.000008       0.00001
  22     68.43        0.0000        0.0000        0.0000        0.0000       0.000003       0.00000
  21     81.20        0.0000        0.0000        0.0000        0.0000       0.000001       0.00000
  20     96.49        0.0000        0.0000        0.0000        0.0000       0.000000       0.00000
  19     114.6        0.0000        0.0000        0.0000        0.0000       0.000000       0.00000
  18     136.5        0.0000        0.0000        0.0000        0.0000       0.000000       0.00000
  17     162.9        0.0000        0.0000        0.0000        0.0000       0.000000       0.00000
  16     196.4        0.0000        0.0000        0.0000        0.0000       0.000000       0.00000
  15     218.7        0.0000        0.0000        0.0000        0.0000       0.000000       0.00000
  14     243.0        0.0000        0.0000        0.0000        0.0000       0.000000       0.00000
  13     269.0        0.0000        0.0000        0.0000        0.0000       0.000000       0.00000
  12     297.5        0.0000        0.0000        0.0000        0.0000       0.000000       0.00000
  11     328.5        0.0000        0.0000        0.0000        0.0000       0.000000       0.00000
  10     361.9        0.0000        0.0000        0.0000        0.0000       0.000000       0.00000
   9     398.1        0.0000        0.0000        0.0000        0.0000       0.000000       0.00000
   8     437.6        0.0000        0.0000        0.0000        0.0000       0.000000       0.00000
   7     480.5        0.0000        0.0000        0.0000        0.0000       0.000000       0.00000
   6     533.0        0.0000        0.0000        0.0000        0.0000       0.000000       0.00000
   5     589.8        0.0000        0.0000        0.0000        0.0000       0.000000       0.00000
   4     651.6        0.0000        0.0000        0.0000        0.0000       0.000000       0.00000
   3     718.7        0.0000        0.0000        0.0000        0.0000       0.000000       0.00000
   2     792.3        0.0000        0.0000        0.0000        0.0000       0.000000       0.00000
   1     891.5        0.0000        0.0000        0.0000        0.0000       0.000000       0.00000
   0    1013.0        0.0000        0.0000        0.0000        0.0000       0.000000       0.00000



 Wavenumbers:   820. -  2600. cm-1, ATM      1
 LEVEL PRESSURE   UPWARD FLUX   DIFDOWN FLUX  DIRDOWN FLUX  DOWNWARD FLUX   NET FLUX    HEATING RATE
          mb          W/m2          W/m2          W/m2        W/m2          W/m2       degree/day
  51    .06700        0.5374        0.0000        6.0047        6.0047       5.467244       0.00000
  50    .07753        0.5374        0.0000        6.0008        6.0008       5.463391       3.08821
  49    .09103        0.5374        0.0000        5.9999        5.9999       5.462505       0.55358
  48    0.1069        0.5374        0.0000        5.9989        5.9989       5.461516       0.52652
  47    0.1255        0.5374        0.0000        5.9978        5.9978       5.460399       0.50649
  46    0.1487        0.5374        0.0000        5.9964        5.9964       5.459042       0.49457
  45    0.1794        0.5374        0.0000        5.9947        5.9947       5.457323       0.47200
  44    0.2165        0.5374        0.0000        5.9929        5.9929       5.455480       0.41910
  43    0.2613        0.5374        0.0000        5.9909        5.9909       5.453521       0.36933
  42    0.3336        0.5374        0.0000        5.9880        5.9880       5.450643       0.33556
  41    0.4307        0.5374        0.0000        5.9846        5.9846       5.447173       0.30165
  40    0.5894        0.5374        0.0000        5.9791        5.9791       5.441668       0.29276
  39     1.339        0.5374        0.0000        5.9536        5.9536       5.416181       0.28694
  38     1.782        0.5374        0.0000        5.9395        5.9395       5.402043       0.26917
  37     2.292        0.5374        0.0000        5.9237        5.9237       5.386292       0.26088
  36     2.964        0.5374        0.0000        5.9039        5.9039       5.366518       0.24822
  35     3.853        0.5374        0.0000        5.8793        5.8793       5.341862       0.23399
  34     5.035        0.5374        0.0000        5.8487        5.8487       5.311298       0.21833
  33     6.613        0.5374        0.0000        5.8108        5.8108       5.273333       0.20296
  32     8.786        0.5374        0.0000        5.7631        5.7631       5.225709       0.18495
  31     11.80        0.5374        0.0000        5.7039        5.7039       5.166451       0.16590
  30     15.07        0.5375        0.0000        5.6539        5.6539       5.116411       0.12920
  29     18.79        0.5375        0.0000        5.6127        5.6127       5.075272       0.09327
  28     23.16        0.5375        0.0000        5.5794        5.5794       5.041892       0.06455
  27     28.12        0.5375        0.0000        5.5518        5.5518       5.014319       0.04687
  26     33.73        0.5375        0.0000        5.5268        5.5268       4.989258       0.03768
  25     40.54        0.5375        0.0000        5.4993        5.4993       4.961803       0.03406
  24     48.69        0.5376        0.0000        5.4678        5.4678       4.930246       0.03266
  23     57.69        0.5376        0.0000        5.4340        5.4340       4.896438       0.03169
  22     68.43        0.5376        0.0000        5.3947        5.3948       4.857140       0.03089
  21     81.20        0.5377        0.0000        5.3497        5.3497       4.812075       0.02978
  20     96.49        0.5377        0.0000        5.2982        5.2982       4.760522       0.02845
  19     114.6        0.5378        0.0000        5.2389        5.2389       4.701150       0.02772
  18     136.5        0.5378        0.0000        5.1716        5.1717       4.633829       0.02589
  17     162.9        0.5379        0.0000        5.0890        5.0890       4.551105       0.02644
  16     196.4        0.5381        0.0000        4.9668        4.9668       4.428705       0.03081
  15     218.7        0.5383        0.0000        4.8585        4.8585       4.320162       0.04121
  14     243.0        0.5386        0.0000        4.7078        4.7079       4.169255       0.05234
  13     269.0        0.5390        0.0000        4.5343        4.5343       3.995240       0.05645
  12     297.5        0.5397        0.0000        4.3419        4.3420       3.802223       0.05725
  11     328.5        0.5407        0.0000        4.1281        4.1281       3.587462       0.05839
  10     361.9        0.5419        0.0000        3.8786        3.8787       3.336749       0.06343
   9     398.1        0.5435        0.0000        3.6159        3.6159       3.072408       0.06159
   8     437.6        0.5456        0.0000        3.3759        3.3759       2.830256       0.05177
   7     480.5        0.5482        0.0000        3.1957        3.1958       2.647591       0.03587
   6     533.0        0.5521        0.0000        3.0467        3.0467       2.494625       0.02461
   5     589.8        0.5578        0.0000        2.9023        2.9023       2.344514       0.02228
   4     651.6        0.5677        0.0000        2.7183        2.7184       2.150626       0.02651
   3     718.7        0.5848        0.0000        2.5058        2.5059       1.921032       0.02885
   2     792.3        0.6173        0.0000        2.2756        2.2757       1.658391       0.03012
   1     891.5        0.0090        0.5566        0.8129        1.3694       1.360486       0.02535
   0    1013.0        0.0108        0.4479        0.6408        1.0887       1.077883       0.01962

  Modules and versions used in this calculation:

       rrtmg_sw.1col.f90:  $Revision$                    rrtmg_sw_init.f90:  $Revision$        
     rrtmgsw_cldprop.f90:  $Revision$                  rrtmgsw_cldprmc.f90:  NOT USED          
     rrtmg_sw_reftra.f90:  $Revision$                  rrtmg_sw_spcvrt.f90:  NOT USED          
     rrtmg_sw_spcvmc.f90:  NOT USED                    rrtmgsw_setcoef.f90:  NOT USED          
     rrtmg_sw_taumol.f90:  $Revision$                  rrtmg_sw_vrtqdr.f90:  NOT USED          
                rrtatm.f:  NOT USED                             util_xxx.f:  NOT USED          
                 extra.f:  NOT USED                       rrtmg_sw_k_g.f90:  $Revision$        

