

 Wavenumbers:   820. - 50000. cm-1, ATM      1
 LEVEL PRESSURE   UPWARD FLUX   DIFDOWN FLUX  DIRDOWN FLUX  DOWNWARD FLUX   NET FLUX    HEATING RATE
          mb          W/m2          W/m2          W/m2        W/m2          W/m2       degree/day
  51    .06700      476.1538        0.0000      617.8126      617.8126     141.658824       0.00000
  50    .07753      476.1534        0.0014      617.7947      617.7961     141.642678      12.94124
  49    .09103      476.1530        0.0031      617.7778      617.7808     141.627860       9.26155
  48    0.1069      476.1525        0.0050      617.7581      617.7631     141.610588       9.19384
  47    0.1255      476.1520        0.0073      617.7340      617.7412     141.589230       9.68262
  46    0.1487      476.1515        0.0101      617.7009      617.7110     141.559526      10.82750
  45    0.1794      476.1508        0.0140      617.6521      617.6661     141.515267      12.15014
  44    0.2165      476.1501        0.0185      617.5895      617.6080     141.457909      13.04799
  43    0.2613      476.1495        0.0239      617.5089      617.5328     141.383347      14.05452
  42    0.3336      476.1488        0.0328      617.3641      617.3969     141.248172      15.76013
  41    0.4307      476.1482        0.0445      617.1591      617.2036     141.055415      16.75979
  40    0.5894      476.1484        0.0634      616.8005      616.8639     140.715474      18.07761
  39     1.339      476.1679        0.1488      614.9443      615.0930     138.925110      20.15625
  38     1.782      476.1924        0.1968      613.9670      614.1638     137.971403      18.15704
  37     2.292      476.2327        0.2515      613.0059      613.2574     137.024726      15.67944
  36     2.964      476.3033        0.3226      611.9577      612.2803     135.976939      13.15289
  35     3.853      476.4215        0.4158      610.8024      611.2182     134.796709      11.20060
  34     5.035      476.6030        0.5388      609.5327      610.0715     133.468557       9.48777
  33     6.613      476.8584        0.7021      608.1464      608.8486     131.990118       7.90374
  32     8.786      477.1913        0.9212      606.6250      607.5463     130.354933       6.35047
  31     11.80      477.6228        1.2331      604.8486      606.0818     128.459004       5.30800
  30     15.07      478.0340        1.5660      603.2440      604.8100     126.775980       4.34524
  29     18.79      478.4520        1.9406      601.6511      603.5917     125.139717       3.70991
  28     23.16      478.8867        2.3759      599.9927      602.3686     123.481875       3.20573
  27     28.12      479.3210        2.8713      598.2881      601.1594     121.838362       2.79386
  26     33.73      479.7153        3.4237      596.5951      600.0187     120.303481       2.30774
  25     40.54      480.0847        4.0887      594.7727      598.8614     118.776673       1.89418
  24     48.69      480.4267        4.8868      592.7865      597.6733     117.246617       1.58337
  23     57.69      480.7019        5.7593      590.7959      596.5551     115.853245       1.30608
  22     68.43      480.9208        6.7929      588.6191      595.4120     114.491176       1.07077
  21     81.20      481.0304        8.0186      586.2690      594.2875     113.257128       0.81544
  20     96.49      481.0208        9.4698      583.6961      593.1659     112.145177       0.61372
  19     114.6      480.9512       11.1773      580.7708      591.9481     110.996897       0.53617
  18     136.5      480.8236       13.1769      577.4359      590.6128     109.789231       0.46438
  17     162.9      480.6334       15.5239      573.5624      589.0863     108.452929       0.42714
  16     196.4      480.2985       18.5175      568.5907      587.1082     106.809676       0.41363
  15     218.7      480.0509       20.4533      565.0572      585.5105     105.459627       0.51256
  14     243.0      479.7759       22.5300      560.7495      583.2795     103.503653       0.67840
  13     269.0      479.4765       24.7489      555.3947      580.1436     100.667093       0.92017
  12     297.5      479.1615       27.1108      548.9964      576.1072      96.945701       1.10372
  11     328.5      478.8430       29.6223      542.0895      571.7119      92.868862       1.10848
  10     361.9      478.5327       32.2797      534.6242      566.9040      88.371296       1.13793
   9     398.1      478.2473       35.0877      526.4204      561.5081      83.260833       1.19062
   8     437.6      478.0187       38.0449      517.3907      555.4356      77.416914       1.24947
   7     480.5      477.8821       41.1496      507.7216      548.8712      70.989056       1.26241
   6     533.0      477.9182       44.8831      495.9006      540.7837      62.865484       1.30682
   5     589.8      478.3336       48.8017      483.0788      531.8805      53.546887       1.38319
   4     651.6      479.5747       52.8922      468.6907      521.5829      42.008162       1.57795
   3     718.7      482.3048       57.1467      453.2257      510.3725      28.067710       1.75193
   2     792.3      488.3572       61.5427      436.4928      498.0356       9.678349       2.10905
   1     891.5      130.4112      134.2795        0.0000      134.2795       3.868270       0.49441
   0    1013.0      130.6504      133.9448        0.0000      133.9448       3.294355       0.03985



 Wavenumbers:  2600. -  3250. cm-1, ATM      1
 LEVEL PRESSURE   UPWARD FLUX   DIFDOWN FLUX  DIRDOWN FLUX  DOWNWARD FLUX   NET FLUX    HEATING RATE
          mb          W/m2          W/m2          W/m2        W/m2          W/m2       degree/day
  51    .06700        2.3704        0.0000        5.4450        5.4450       3.074608       0.00000
  50    .07753        2.3704        0.0000        5.4450        5.4450       3.074600       0.00640
  49    .09103        2.3704        0.0000        5.4450        5.4450       3.074590       0.00627
  48    0.1069        2.3704        0.0000        5.4450        5.4450       3.074578       0.00613
  47    0.1255        2.3704        0.0000        5.4450        5.4450       3.074565       0.00599
  46    0.1487        2.3704        0.0000        5.4450        5.4450       3.074548       0.00608
  45    0.1794        2.3704        0.0000        5.4450        5.4450       3.074526       0.00625
  44    0.2165        2.3704        0.0000        5.4449        5.4449       3.074499       0.00612
  43    0.2613        2.3704        0.0000        5.4449        5.4449       3.074467       0.00600
  42    0.3336        2.3704        0.0000        5.4448        5.4448       3.074414       0.00617
  41    0.4307        2.3704        0.0000        5.4448        5.4448       3.074343       0.00620
  40    0.5894        2.3704        0.0000        5.4446        5.4446       3.074223       0.00637
  39     1.339        2.3704        0.0000        5.4439        5.4439       3.073515       0.00797
  38     1.782        2.3704        0.0000        5.4434        5.4434       3.072972       0.01034
  37     2.292        2.3704        0.0000        5.4427        5.4427       3.072256       0.01186
  36     2.964        2.3704        0.0000        5.4416        5.4416       3.071218       0.01304
  35     3.853        2.3704        0.0000        5.4402        5.4402       3.069740       0.01402
  34     5.035        2.3704        0.0000        5.4381        5.4381       3.067684       0.01469
  33     6.613        2.3704        0.0000        5.4353        5.4353       3.064902       0.01487
  32     8.786        2.3704        0.0000        5.4317        5.4317       3.061269       0.01411
  31     11.80        2.3704        0.0000        5.4269        5.4269       3.056486       0.01339
  30     15.07        2.3704        0.0000        5.4224        5.4224       3.051956       0.01170
  29     18.79        2.3704        0.0000        5.4180        5.4180       3.047538       0.01002
  28     23.16        2.3704        0.0000        5.4135        5.4135       3.043044       0.00869
  27     28.12        2.3705        0.0000        5.4088        5.4088       3.038384       0.00792
  26     33.73        2.3705        0.0000        5.4036        5.4036       3.033127       0.00790
  25     40.54        2.3705        0.0000        5.3966        5.3967       3.026159       0.00864
  24     48.69        2.3705        0.0000        5.3872        5.3872       3.016642       0.00985
  23     57.69        2.3706        0.0000        5.3754        5.3754       3.004802       0.01110
  22     68.43        2.3707        0.0000        5.3599        5.3599       2.989235       0.01224
  21     81.20        2.3708        0.0000        5.3401        5.3401       2.969288       0.01318
  20     96.49        2.3710        0.0000        5.3155        5.3155       2.944561       0.01365
  19     114.6        2.3712        0.0001        5.2853        5.2854       2.914143       0.01420
  18     136.5        2.3715        0.0001        5.2504        5.2505       2.878925       0.01354
  17     162.9        2.3720        0.0001        5.2111        5.2112       2.839136       0.01272
  16     196.4        2.3728        0.0001        5.1640        5.1641       2.791305       0.01204
  15     218.7        2.3736        0.0001        5.1331        5.1332       2.759609       0.01203
  14     243.0        2.3749        0.0001        5.0962        5.0963       2.721434       0.01324
  13     269.0        2.3769        0.0001        5.0511        5.0512       2.674326       0.01528
  12     297.5        2.3799        0.0001        4.9956        4.9957       2.615818       0.01735
  11     328.5        2.3842        0.0001        4.9304        4.9305       2.546343       0.01889
  10     361.9        2.3901        0.0002        4.8511        4.8513       2.461208       0.02154
   9     398.1        2.3982        0.0002        4.7507        4.7509       2.352650       0.02529
   8     437.6        2.4096        0.0002        4.6220        4.6222       2.212611       0.02994
   7     480.5        2.4255        0.0002        4.4625        4.4627       2.037131       0.03446
   6     533.0        2.4517        0.0002        4.2460        4.2463       1.794517       0.03903
   5     589.8        2.4921        0.0002        3.9954        3.9956       1.503493       0.04320
   4     651.6        2.5599        0.0002        3.7089        3.7091       1.149231       0.04845
   3     718.7        2.6743        0.0002        3.4018        3.4021       0.727803       0.05296
   2     792.3        2.8892        0.0002        3.0564        3.0567       0.167494       0.06426
   1     891.5        0.0001        0.0151        0.0000        0.0151       0.014936       0.01298
   0    1013.0        0.0001        0.0139        0.0000        0.0139       0.013766       0.00008



 Wavenumbers:  3250. -  4000. cm-1, ATM      1
 LEVEL PRESSURE   UPWARD FLUX   DIFDOWN FLUX  DIRDOWN FLUX  DOWNWARD FLUX   NET FLUX    HEATING RATE
          mb          W/m2          W/m2          W/m2        W/m2          W/m2       degree/day
  51    .06700        0.1085        0.0000        9.1795        9.1795       9.071032       0.00000
  50    .07753        0.1085        0.0000        9.1747        9.1747       9.066189       3.88148
  49    .09103        0.1085        0.0000        9.1713        9.1713       9.062801       2.11747
  48    0.1069        0.1085        0.0000        9.1688        9.1688       9.060276       1.34402
  47    0.1255        0.1085        0.0000        9.1665        9.1665       9.058017       1.02422
  46    0.1487        0.1085        0.0000        9.1641        9.1641       9.055576       0.88991
  45    0.1794        0.1085        0.0000        9.1612        9.1612       9.052698       0.79008
  44    0.2165        0.1085        0.0000        9.1583        9.1583       9.049778       0.66430
  43    0.2613        0.1085        0.0000        9.1553        9.1553       9.046805       0.56041
  42    0.3336        0.1085        0.0000        9.1511        9.1511       9.042626       0.48723
  41    0.4307        0.1085        0.0000        9.1464        9.1464       9.037857       0.41459
  40    0.5894        0.1085        0.0000        9.1393        9.1394       9.030852       0.37255
  39     1.339        0.1085        0.0000        9.1127        9.1127       9.004238       0.29962
  38     1.782        0.1085        0.0000        9.1011        9.1011       8.992650       0.22062
  37     2.292        0.1085        0.0000        9.0901        9.0901       8.981583       0.18329
  36     2.964        0.1085        0.0000        9.0776        9.0776       8.969153       0.15603
  35     3.853        0.1085        0.0000        9.0629        9.0629       8.954363       0.14036
  34     5.035        0.1085        0.0000        9.0441        9.0441       8.935624       0.13386
  33     6.613        0.1085        0.0000        9.0191        9.0191       8.910623       0.13366
  32     8.786        0.1085        0.0000        8.9843        8.9843       8.875839       0.13509
  31     11.80        0.1085        0.0000        8.9327        8.9327       8.824223       0.14451
  30     15.07        0.1085        0.0000        8.8758        8.8759       8.767378       0.14676
  29     18.79        0.1085        0.0000        8.8110        8.8110       8.702551       0.14698
  28     23.16        0.1085        0.0000        8.7365        8.7366       8.628106       0.14395
  27     28.12        0.1085        0.0000        8.6554        8.6555       8.546993       0.13789
  26     33.73        0.1085        0.0000        8.5719        8.5719       8.463493       0.12554
  25     40.54        0.1084        0.0001        8.4812        8.4812       8.372769       0.11255
  24     48.69        0.1084        0.0001        8.3838        8.3839       8.275467       0.10069
  23     57.69        0.1084        0.0001        8.2861        8.2862       8.177732       0.09161
  22     68.43        0.1084        0.0001        8.1751        8.1751       8.066735       0.08726
  21     81.20        0.1084        0.0001        8.0457        8.0458       7.937377       0.08548
  20     96.49        0.1084        0.0001        7.8949        7.8951       7.786673       0.08318
  19     114.6        0.1084        0.0001        7.7162        7.7163       7.607962       0.08345
  18     136.5        0.1083        0.0002        7.5193        7.5195       7.411117       0.07569
  17     162.9        0.1083        0.0002        7.2913        7.2915       7.183223       0.07284
  16     196.4        0.1083        0.0002        6.9660        6.9662       6.857942       0.08188
  15     218.7        0.1083        0.0002        6.6648        6.6650       6.556735       0.11436
  14     243.0        0.1083        0.0002        6.2619        6.2622       6.153895       0.13972
  13     269.0        0.1084        0.0003        5.7576        5.7579       5.649484       0.16363
  12     297.5        0.1086        0.0003        5.1719        5.1722       5.063556       0.17378
  11     328.5        0.1090        0.0003        4.5757        4.5760       4.466984       0.16221
  10     361.9        0.1097        0.0002        3.9995        3.9998       3.890125       0.14595
   9     398.1        0.1108        0.0002        3.4655        3.4657       3.354946       0.12468
   8     437.6        0.1126        0.0002        2.9740        2.9743       2.861634       0.10547
   7     480.5        0.1156        0.0002        2.5307        2.5309       2.415242       0.08767
   6     533.0        0.1214        0.0002        2.0614        2.0616       1.940122       0.07643
   5     589.8        0.1321        0.0002        1.6150        1.6151       1.483048       0.06784
   4     651.6        0.1543        0.0001        1.1565        1.1566       1.002252       0.06575
   3     718.7        0.2035        0.0001        0.7390        0.7391       0.535610       0.05864
   2     792.3        0.3360        0.0001        0.3985        0.3985       0.062478       0.05426
   1     891.5        0.0000        0.0000        0.0000        0.0000       0.000001       0.00532
   0    1013.0        0.0000        0.0000        0.0000        0.0000       0.000000       0.00000



 Wavenumbers:  4000. -  4650. cm-1, ATM      1
 LEVEL PRESSURE   UPWARD FLUX   DIFDOWN FLUX  DIRDOWN FLUX  DOWNWARD FLUX   NET FLUX    HEATING RATE
          mb          W/m2          W/m2          W/m2        W/m2          W/m2       degree/day
  51    .06700        7.4579        0.0000       10.7795       10.7795       3.321682       0.00000
  50    .07753        7.4579        0.0000       10.7795       10.7795       3.321681       0.00080
  49    .09103        7.4579        0.0000       10.7795       10.7795       3.321680       0.00078
  48    0.1069        7.4579        0.0000       10.7795       10.7795       3.321678       0.00077
  47    0.1255        7.4579        0.0000       10.7795       10.7795       3.321677       0.00075
  46    0.1487        7.4579        0.0000       10.7795       10.7795       3.321675       0.00076
  45    0.1794        7.4579        0.0000       10.7795       10.7795       3.321672       0.00078
  44    0.2165        7.4579        0.0000       10.7795       10.7795       3.321668       0.00076
  43    0.2613        7.4579        0.0000       10.7795       10.7795       3.321664       0.00075
  42    0.3336        7.4579        0.0000       10.7795       10.7795       3.321658       0.00077
  41    0.4307        7.4579        0.0000       10.7795       10.7795       3.321649       0.00078
  40    0.5894        7.4579        0.0000       10.7795       10.7795       3.321634       0.00080
  39     1.339        7.4579        0.0000       10.7794       10.7794       3.321544       0.00101
  38     1.782        7.4579        0.0000       10.7793       10.7793       3.321474       0.00134
  37     2.292        7.4579        0.0000       10.7792       10.7792       3.321380       0.00156
  36     2.964        7.4579        0.0000       10.7791       10.7791       3.321239       0.00177
  35     3.853        7.4579        0.0000       10.7789       10.7789       3.321030       0.00198
  34     5.035        7.4579        0.0000       10.7786       10.7786       3.320722       0.00220
  33     6.613        7.4579        0.0000       10.7781       10.7781       3.320268       0.00243
  32     8.786        7.4579        0.0000       10.7774       10.7775       3.319598       0.00260
  31     11.80        7.4579        0.0001       10.7763       10.7764       3.318543       0.00295
  30     15.07        7.4579        0.0001       10.7751       10.7752       3.317306       0.00320
  29     18.79        7.4579        0.0001       10.7736       10.7737       3.315807       0.00340
  28     23.16        7.4579        0.0001       10.7717       10.7718       3.313944       0.00360
  27     28.12        7.4579        0.0001       10.7695       10.7696       3.311686       0.00384
  26     33.73        7.4580        0.0002       10.7667       10.7669       3.308896       0.00419
  25     40.54        7.4580        0.0002       10.7629       10.7631       3.305107       0.00470
  24     48.69        7.4581        0.0003       10.7579       10.7582       3.300047       0.00524
  23     57.69        7.4583        0.0003       10.7520       10.7523       3.294035       0.00564
  22     68.43        7.4585        0.0004       10.7446       10.7450       3.286481       0.00594
  21     81.20        7.4588        0.0004       10.7355       10.7359       3.277149       0.00617
  20     96.49        7.4592        0.0005       10.7245       10.7250       3.265753       0.00629
  19     114.6        7.4599        0.0006       10.7107       10.7113       3.251447       0.00668
  18     136.5        7.4608        0.0007       10.6942       10.6949       3.234134       0.00666
  17     162.9        7.4621        0.0008       10.6740       10.6749       3.212791       0.00682
  16     196.4        7.4642        0.0010       10.6464       10.6474       3.183137       0.00746
  15     218.7        7.4661        0.0011       10.6255       10.6266       3.160441       0.00862
  14     243.0        7.4689        0.0012       10.5980       10.5993       3.130411       0.01042
  13     269.0        7.4729        0.0014       10.5611       10.5625       3.089552       0.01325
  12     297.5        7.4788        0.0015       10.5119       10.5135       3.034684       0.01627
  11     328.5        7.4868        0.0017       10.4499       10.4515       2.964742       0.01902
  10     361.9        7.4973        0.0018       10.3702       10.3720       2.874674       0.02279
   9     398.1        7.5106        0.0020       10.2678       10.2698       2.759142       0.02692
   8     437.6        7.5278        0.0022       10.1390       10.1412       2.613397       0.03116
   7     480.5        7.5500        0.0024        9.9877        9.9901       2.440093       0.03404
   6     533.0        7.5846        0.0026        9.7937        9.7963       2.211657       0.03675
   5     589.8        7.6356        0.0028        9.5752        9.5780       1.942385       0.03997
   4     651.6        7.7198        0.0030        9.2958        9.2988       1.579041       0.04969
   3     718.7        7.8661        0.0033        8.9267        8.9300       1.063936       0.06473
   2     792.3        8.1550        0.0035        8.4542        8.4577       0.302714       0.08730
   1     891.5        0.0127        0.0894        0.0000        0.0894       0.076778       0.01923
   0    1013.0        0.0130        0.0869        0.0000        0.0869       0.073956       0.00020



 Wavenumbers:  4650. -  5150. cm-1, ATM      1
 LEVEL PRESSURE   UPWARD FLUX   DIFDOWN FLUX  DIRDOWN FLUX  DOWNWARD FLUX   NET FLUX    HEATING RATE
          mb          W/m2          W/m2          W/m2        W/m2          W/m2       degree/day
  51    .06700        5.4079        0.0000       10.2033       10.2033       4.795469       0.00000
  50    .07753        5.4079        0.0000       10.2031       10.2031       4.795233       0.18901
  49    .09103        5.4079        0.0000       10.2028       10.2028       4.794938       0.18428
  48    0.1069        5.4079        0.0000       10.2025       10.2025       4.794601       0.17931
  47    0.1255        5.4079        0.0000       10.2021       10.2021       4.794217       0.17426
  46    0.1487        5.4079        0.0000       10.2016       10.2016       4.793736       0.17536
  45    0.1794        5.4079        0.0000       10.2010       10.2010       4.793086       0.17851
  44    0.2165        5.4079        0.0000       10.2002       10.2002       4.792326       0.17277
  43    0.2613        5.4079        0.0000       10.1993       10.1993       4.791441       0.16690
  42    0.3336        5.4079        0.0000       10.1979       10.1979       4.790008       0.16702
  41    0.4307        5.4079        0.0000       10.1960       10.1960       4.788168       0.16003
  40    0.5894        5.4079        0.0000       10.1932       10.1932       4.785294       0.15283
  39     1.339        5.4079        0.0000       10.1816       10.1816       4.773701       0.13051
  38     1.782        5.4079        0.0000       10.1760       10.1760       4.768172       0.10527
  37     2.292        5.4079        0.0000       10.1706       10.1706       4.762714       0.09039
  36     2.964        5.4079        0.0000       10.1646       10.1647       4.756789       0.07438
  35     3.853        5.4079        0.0000       10.1584       10.1584       4.750572       0.05901
  34     5.035        5.4079        0.0000       10.1521       10.1521       4.744231       0.04530
  33     6.613        5.4079        0.0000       10.1456       10.1456       4.737764       0.03457
  32     8.786        5.4079        0.0001       10.1386       10.1386       4.730738       0.02729
  31     11.80        5.4079        0.0001       10.1295       10.1296       4.721668       0.02539
  30     15.07        5.4080        0.0001       10.1196       10.1197       4.711748       0.02561
  29     18.79        5.4080        0.0001       10.1076       10.1077       4.699684       0.02735
  28     23.16        5.4081        0.0002       10.0923       10.0924       4.684299       0.02975
  27     28.12        5.4083        0.0002       10.0731       10.0734       4.665095       0.03265
  26     33.73        5.4084        0.0002       10.0500       10.0503       4.641854       0.03494
  25     40.54        5.4087        0.0003       10.0201       10.0204       4.611742       0.03736
  24     48.69        5.4090        0.0004        9.9820        9.9823       4.573274       0.03981
  23     57.69        5.4095        0.0004        9.9384        9.9389       4.529356       0.04117
  22     68.43        5.4102        0.0005        9.8858        9.8863       4.476099       0.04187
  21     81.20        5.4111        0.0006        9.8234        9.8240       4.412983       0.04171
  20     96.49        5.4123        0.0007        9.7518        9.7525       4.340164       0.04019
  19     114.6        5.4140        0.0008        9.6719        9.6727       4.258735       0.03802
  18     136.5        5.4164        0.0010        9.5858        9.5868       4.170401       0.03397
  17     162.9        5.4197        0.0012        9.4940        9.4952       4.075540       0.03032
  16     196.4        5.4247        0.0014        9.3883        9.3897       3.964969       0.02783
  15     218.7        5.4286        0.0015        9.3229        9.3244       3.895810       0.02626
  14     243.0        5.4337        0.0017        9.2520        9.2537       3.819936       0.02632
  13     269.0        5.4405        0.0019        9.1717        9.1735       3.732989       0.02821
  12     297.5        5.4500        0.0020        9.0763        9.0783       3.628342       0.03104
  11     328.5        5.4623        0.0022        8.9650        8.9672       3.504933       0.03355
  10     361.9        5.4781        0.0024        8.8349        8.8374       3.359232       0.03686
   9     398.1        5.4987        0.0027        8.6820        8.6847       3.185940       0.04037
   8     437.6        5.5256        0.0029        8.5028        8.5057       2.980110       0.04401
   7     480.5        5.5606        0.0031        8.2948        8.2979       2.737351       0.04768
   6     533.0        5.6142        0.0034        8.0209        8.0242       2.410092       0.05265
   5     589.8        5.6891        0.0036        7.7063        7.7099       2.020869       0.05777
   4     651.6        5.8009        0.0039        7.3412        7.3451       1.544180       0.06519
   3     718.7        5.9726        0.0041        6.9387        6.9428       0.970179       0.07214
   2     792.3        6.2546        0.0043        6.5066        6.5109       0.256336       0.08187
   1     891.5        0.0027        0.0534        0.0000        0.0534       0.050749       0.01749
   0    1013.0        0.0028        0.0515        0.0000        0.0515       0.048743       0.00014



 Wavenumbers:  5150. -  6150. cm-1, ATM      1
 LEVEL PRESSURE   UPWARD FLUX   DIFDOWN FLUX  DIRDOWN FLUX  DOWNWARD FLUX   NET FLUX    HEATING RATE
          mb          W/m2          W/m2          W/m2        W/m2          W/m2       degree/day
  51    .06700       12.7316        0.0000       25.5798       25.5798      12.848205       0.00000
  50    .07753       12.7316        0.0000       25.5798       25.5798      12.848165       0.03164
  49    .09103       12.7316        0.0000       25.5797       25.5797      12.848114       0.03212
  48    0.1069       12.7316        0.0000       25.5797       25.5797      12.848052       0.03263
  47    0.1255       12.7316        0.0000       25.5796       25.5796      12.847979       0.03313
  46    0.1487       12.7316        0.0000       25.5795       25.5795      12.847884       0.03490
  45    0.1794       12.7316        0.0000       25.5794       25.5794      12.847748       0.03715
  44    0.2165       12.7316        0.0000       25.5792       25.5792      12.847582       0.03771
  43    0.2613       12.7316        0.0000       25.5790       25.5790      12.847379       0.03829
  42    0.3336       12.7316        0.0000       25.5786       25.5786      12.847032       0.04045
  41    0.4307       12.7316        0.0000       25.5782       25.5782      12.846561       0.04099
  40    0.5894       12.7316        0.0000       25.5774       25.5774      12.845771       0.04201
  39     1.339       12.7316        0.0000       25.5735       25.5736      12.841965       0.04285
  38     1.782       12.7316        0.0001       25.5713       25.5714      12.839748       0.04221
  37     2.292       12.7316        0.0001       25.5688       25.5689      12.837238       0.04157
  36     2.964       12.7316        0.0001       25.5656       25.5657      12.834048       0.04005
  35     3.853       12.7316        0.0001       25.5615       25.5616      12.829991       0.03849
  34     5.035       12.7316        0.0002       25.5562       25.5564      12.824765       0.03733
  33     6.613       12.7317        0.0002       25.5494       25.5496      12.817983       0.03626
  32     8.786       12.7317        0.0003       25.5406       25.5409      12.809188       0.03415
  31     11.80       12.7318        0.0004       25.5287       25.5291      12.797285       0.03332
  30     15.07       12.7319        0.0005       25.5167       25.5172      12.785337       0.03085
  29     18.79       12.7320        0.0006       25.5042       25.5048      12.772834       0.02835
  28     23.16       12.7321        0.0008       25.4907       25.4914      12.759349       0.02608
  27     28.12       12.7323        0.0009       25.4764       25.4774      12.745111       0.02420
  26     33.73       12.7325        0.0011       25.4620       25.4631      12.730648       0.02174
  25     40.54       12.7328        0.0013       25.4463       25.4476      12.714784       0.01968
  24     48.69       12.7332        0.0016       25.4294       25.4310      12.697727       0.01765
  23     57.69       12.7338        0.0019       25.4126       25.4145      12.680723       0.01594
  22     68.43       12.7345        0.0023       25.3944       25.3967      12.662186       0.01457
  21     81.20       12.7354        0.0027       25.3744       25.3771      12.641710       0.01353
  20     96.49       12.7365        0.0032       25.3519       25.3551      12.618626       0.01274
  19     114.6       12.7379        0.0038       25.3262       25.3300      12.592089       0.01239
  18     136.5       12.7395        0.0045       25.2962       25.3007      12.561140       0.01190
  17     162.9       12.7416        0.0053       25.2521       25.2574      12.515801       0.01449
  16     196.4       12.7445        0.0064       25.1593       25.1657      12.421213       0.02381
  15     218.7       12.7466        0.0071       25.0159       25.0230      12.276481       0.05495
  14     243.0       12.7491        0.0078       24.7089       24.7168      11.967647       0.10711
  13     269.0       12.7524        0.0086       24.1619       24.1704      11.418049       0.17829
  12     297.5       12.7568        0.0093       23.4544       23.4637      10.706875       0.21093
  11     328.5       12.7626        0.0100       22.7355       22.7455       9.982909       0.19684
  10     361.9       12.7702        0.0108       21.9224       21.9332       9.162947       0.20746
   9     398.1       12.7806        0.0115       20.9939       21.0054       8.224816       0.21856
   8     437.6       12.7950        0.0122       19.9833       19.9955       7.200495       0.21901
   7     480.5       12.8151        0.0129       18.9483       18.9612       6.146048       0.20709
   6     533.0       12.8495        0.0137       17.7796       17.7933       4.943801       0.19340
   5     589.8       12.9055        0.0145       16.6726       16.6871       3.781549       0.17252
   4     651.6       13.0090        0.0153       15.6343       15.6496       2.640654       0.15602
   3     718.7       13.2011        0.0162       14.7738       14.7900       1.588971       0.13217
   2     792.3       13.5978        0.0172       14.0291       14.0464       0.448583       0.13079
   1     891.5        0.0306        0.1780        0.0000        0.1780       0.147400       0.02563
   0    1013.0        0.0311        0.1750        0.0000        0.1750       0.143886       0.00024



 Wavenumbers:  6150. -  7700. cm-1, ATM      1
 LEVEL PRESSURE   UPWARD FLUX   DIFDOWN FLUX  DIRDOWN FLUX  DOWNWARD FLUX   NET FLUX    HEATING RATE
          mb          W/m2          W/m2          W/m2        W/m2          W/m2       degree/day
  51    .06700       20.6629        0.0000       47.3109       47.3109      26.648000       0.00000
  50    .07753       20.6629        0.0000       47.3108       47.3108      26.647943       0.04553
  49    .09103       20.6629        0.0000       47.3107       47.3107      26.647870       0.04583
  48    0.1069       20.6629        0.0000       47.3106       47.3106      26.647783       0.04614
  47    0.1255       20.6629        0.0000       47.3105       47.3105      26.647681       0.04645
  46    0.1487       20.6629        0.0000       47.3104       47.3104      26.647548       0.04852
  45    0.1794       20.6629        0.0000       47.3102       47.3102      26.647361       0.05127
  44    0.2165       20.6628        0.0000       47.3100       47.3100      26.647134       0.05167
  43    0.2613       20.6628        0.0000       47.3097       47.3097      26.646857       0.05210
  42    0.3336       20.6628        0.0000       47.3092       47.3092      26.646388       0.05471
  41    0.4307       20.6628        0.0001       47.3085       47.3086      26.645753       0.05521
  40    0.5894       20.6628        0.0001       47.3074       47.3075      26.644694       0.05634
  39     1.339       20.6628        0.0002       47.3022       47.3024      26.639601       0.05733
  38     1.782       20.6627        0.0002       47.2991       47.2994      26.636631       0.05655
  37     2.292       20.6627        0.0003       47.2956       47.2960      26.633255       0.05591
  36     2.964       20.6626        0.0004       47.2912       47.2916      26.628937       0.05421
  35     3.853       20.6626        0.0005       47.2855       47.2860      26.623402       0.05253
  34     5.035       20.6625        0.0007       47.2780       47.2787      26.616222       0.05130
  33     6.613       20.6624        0.0009       47.2683       47.2692      26.606834       0.05019
  32     8.786       20.6622        0.0012       47.2556       47.2568      26.594534       0.04777
  31     11.80       20.6620        0.0016       47.2380       47.2396      26.577629       0.04733
  30     15.07       20.6618        0.0020       47.2201       47.2221      26.560341       0.04464
  29     18.79       20.6615        0.0026       47.2008       47.2034      26.541859       0.04190
  28     23.16       20.6612        0.0031       47.1795       47.1827      26.521467       0.03943
  27     28.12       20.6608        0.0038       47.1565       47.1603      26.499470       0.03739
  26     33.73       20.6604        0.0046       47.1324       47.1370      26.476545       0.03447
  25     40.54       20.6600        0.0055       47.1054       47.1109      26.450903       0.03181
  24     48.69       20.6594        0.0066       47.0754       47.0820      26.422643       0.02925
  23     57.69       20.6587        0.0078       47.0449       47.0528      26.394012       0.02684
  22     68.43       20.6580        0.0093       47.0110       47.0202      26.362263       0.02496
  21     81.20       20.6571        0.0110       46.9729       46.9838      26.326753       0.02346
  20     96.49       20.6560        0.0130       46.9294       46.9424      26.286390       0.02228
  19     114.6       20.6548        0.0155       46.8790       46.8945      26.239724       0.02179
  18     136.5       20.6533        0.0184       46.8200       46.8384      26.185053       0.02102
  17     162.9       20.6516        0.0218       46.7361       46.7580      26.106345       0.02516
  16     196.4       20.6496        0.0263       46.5703       46.5966      25.946930       0.04013
  15     218.7       20.6486        0.0292       46.3473       46.3765      25.727893       0.08316
  14     243.0       20.6480        0.0322       45.9299       45.9621      25.314093       0.14352
  13     269.0       20.6485        0.0353       45.1708       45.2060      24.557588       0.24541
  12     297.5       20.6511        0.0383       44.0115       44.0497      23.398632       0.34373
  11     328.5       20.6567        0.0414       42.7242       42.7656      22.108883       0.35068
  10     361.9       20.6667        0.0445       41.3539       41.3984      20.731735       0.34843
   9     398.1       20.6836        0.0476       39.7953       39.8429      19.159263       0.36635
   8     437.6       20.7117        0.0506       37.9948       38.0454      17.333620       0.39033
   7     480.5       20.7563        0.0534       36.0647       36.1182      15.361835       0.38725
   6     533.0       20.8399        0.0566       33.7773       33.8339      12.994002       0.38091
   5     589.8       20.9855        0.0595       31.4082       31.4677      10.482186       0.37284
   4     651.6       21.2681        0.0619       28.8834       28.9453       7.677158       0.38360
   3     718.7       21.8181        0.0641       26.4104       26.4745       4.656405       0.37963
   2     792.3       23.0353        0.0660       24.0056       24.0716       1.036268       0.41519
   1     891.5        0.0595        0.2644        0.0000        0.2644       0.204898       0.07075
   0    1013.0        0.0608        0.2579        0.0000        0.2579       0.197129       0.00054



 Wavenumbers:  7700. -  8050. cm-1, ATM      1
 LEVEL PRESSURE   UPWARD FLUX   DIFDOWN FLUX  DIRDOWN FLUX  DOWNWARD FLUX   NET FLUX    HEATING RATE
          mb          W/m2          W/m2          W/m2        W/m2          W/m2       degree/day
  51    .06700        9.2255        0.0000       11.1810       11.1810       1.955505       0.00000
  50    .07753        9.2255        0.0000       11.1809       11.1809       1.955481       0.01953
  49    .09103        9.2255        0.0000       11.1809       11.1809       1.955450       0.01914
  48    0.1069        9.2255        0.0000       11.1809       11.1809       1.955415       0.01874
  47    0.1255        9.2255        0.0000       11.1809       11.1809       1.955375       0.01834
  46    0.1487        9.2255        0.0000       11.1808       11.1808       1.955324       0.01861
  45    0.1794        9.2255        0.0000       11.1808       11.1808       1.955254       0.01915
  44    0.2165        9.2255        0.0000       11.1807       11.1807       1.955171       0.01878
  43    0.2613        9.2256        0.0000       11.1806       11.1806       1.955074       0.01843
  42    0.3336        9.2256        0.0000       11.1805       11.1805       1.954912       0.01886
  41    0.4307        9.2257        0.0000       11.1803       11.1804       1.954697       0.01865
  40    0.5894        9.2258        0.0000       11.1801       11.1801       1.954347       0.01863
  39     1.339        9.2262        0.0001       11.1788       11.1789       1.952689       0.01867
  38     1.782        9.2265        0.0001       11.1781       11.1782       1.951715       0.01854
  37     2.292        9.2268        0.0001       11.1772       11.1773       1.950587       0.01867
  36     2.964        9.2272        0.0002       11.1761       11.1763       1.949107       0.01858
  35     3.853        9.2277        0.0002       11.1746       11.1748       1.947151       0.01856
  34     5.035        9.2284        0.0003       11.1726       11.1729       1.944553       0.01856
  33     6.613        9.2293        0.0004       11.1700       11.1704       1.941082       0.01856
  32     8.786        9.2305        0.0006       11.1664       11.1669       1.936405       0.01816
  31     11.80        9.2323        0.0007       11.1613       11.1620       1.929716       0.01873
  30     15.07        9.2343        0.0010       11.1558       11.1568       1.922538       0.01853
  29     18.79        9.2364        0.0012       11.1497       11.1509       1.914434       0.01838
  28     23.16        9.2390        0.0015       11.1425       11.1440       1.904975       0.01829
  27     28.12        9.2419        0.0018       11.1343       11.1361       1.894169       0.01837
  26     33.73        9.2452        0.0021       11.1252       11.1273       1.882091       0.01816
  25     40.54        9.2492        0.0026       11.1142       11.1168       1.867520       0.01808
  24     48.69        9.2541        0.0031       11.1010       11.1041       1.849989       0.01814
  23     57.69        9.2595        0.0036       11.0866       11.0902       1.830776       0.01801
  22     68.43        9.2659        0.0043       11.0695       11.0738       1.807956       0.01794
  21     81.20        9.2736        0.0051       11.0494       11.0545       1.780859       0.01791
  20     96.49        9.2829        0.0061       11.0255       11.0316       1.748697       0.01775
  19     114.6        9.2940        0.0072       10.9975       11.0047       1.710687       0.01775
  18     136.5        9.3074        0.0085       10.9648       10.9733       1.665874       0.01723
  17     162.9        9.3236        0.0101       10.9263       10.9364       1.612824       0.01696
  16     196.4        9.3450        0.0122       10.8773       10.8894       1.544493       0.01720
  15     218.7        9.3592        0.0135       10.8455       10.8591       1.499845       0.01695
  14     243.0        9.3750        0.0150       10.8114       10.8265       1.451444       0.01679
  13     269.0        9.3924        0.0166       10.7749       10.7915       1.399050       0.01700
  12     297.5        9.4117        0.0183       10.7357       10.7540       1.342342       0.01682
  11     328.5        9.4330        0.0202       10.6937       10.7139       1.280889       0.01671
  10     361.9        9.4567        0.0222       10.6489       10.6711       1.214346       0.01684
   9     398.1        9.4831        0.0244       10.6008       10.6251       1.142034       0.01685
   8     437.6        9.5126        0.0267       10.5491       10.5757       1.063111       0.01687
   7     480.5        9.5458        0.0291       10.4934       10.5226       0.976769       0.01696
   6     533.0        9.5891        0.0322       10.4243       10.4565       0.867378       0.01760
   5     589.8        9.6396        0.0355       10.3479       10.3834       0.743777       0.01835
   4     651.6        9.7002        0.0390       10.2613       10.3003       0.600095       0.01965
   3     718.7        9.7747        0.0428       10.1618       10.2045       0.429811       0.02140
   2     792.3        9.8696        0.0467       10.0439       10.0906       0.221000       0.02395
   1     891.5        0.1413        0.2527        0.0000        0.2527       0.111460       0.00932
   0    1013.0        0.1440        0.2479        0.0000        0.2479       0.103956       0.00052



 Wavenumbers:  8050. - 12850. cm-1, ATM      1
 LEVEL PRESSURE   UPWARD FLUX   DIFDOWN FLUX  DIRDOWN FLUX  DOWNWARD FLUX   NET FLUX    HEATING RATE
          mb          W/m2          W/m2          W/m2        W/m2          W/m2       degree/day
  51    .06700      121.8384        0.0000      156.5418      156.5418      34.703385       0.00000
  50    .07753      121.8384        0.0000      156.5417      156.5417      34.703385      -0.00000
  49    .09103      121.8383        0.0001      156.5417      156.5417      34.703385       0.00000
  48    0.1069      121.8383        0.0001      156.5416      156.5417      34.703385       0.00000
  47    0.1255      121.8383        0.0002      156.5415      156.5417      34.703385      -0.00000
  46    0.1487      121.8383        0.0003      156.5414      156.5417      34.703385       0.00000
  45    0.1794      121.8383        0.0003      156.5413      156.5417      34.703385       0.00000
  44    0.2165      121.8382        0.0005      156.5412      156.5416      34.703385      -0.00000
  43    0.2613      121.8382        0.0006      156.5410      156.5416      34.703385       0.00000
  42    0.3336      121.8381        0.0008      156.5407      156.5415      34.703385      -0.00000
  41    0.4307      121.8380        0.0011      156.5403      156.5414      34.703385      -0.00000
  40    0.5894      121.8379        0.0016      156.5397      156.5413      34.703385       0.00000
  39     1.339      121.8373        0.0039      156.5367      156.5406      34.703385       0.00000
  38     1.782      121.8369        0.0053      156.5350      156.5403      34.703385      -0.00000
  37     2.292      121.8364        0.0068      156.5330      156.5398      34.703385       0.00000
  36     2.964      121.8358        0.0089      156.5303      156.5392      34.703385       0.00000
  35     3.853      121.8351        0.0116      156.5268      156.5385      34.703385      -0.00000
  34     5.035      121.8341        0.0152      156.5222      156.5374      34.703385       0.00000
  33     6.613      121.8327        0.0201      156.5160      156.5361      34.703385      -0.00000
  32     8.786      121.8308        0.0266      156.5076      156.5342      34.703385       0.00000
  31     11.80      121.8282        0.0359      156.4957      156.5316      34.703385       0.00000
  30     15.07      121.8254        0.0460      156.4828      156.5287      34.703385       0.00000
  29     18.79      121.8221        0.0573      156.4682      156.5255      34.703385      -0.00000
  28     23.16      121.8184        0.0706      156.4512      156.5218      34.703385      -0.00000
  27     28.12      121.8141        0.0858      156.4317      156.5175      34.703385       0.00000
  26     33.73      121.8093        0.1028      156.4099      156.5127      34.703385       0.00000
  25     40.54      121.8034        0.1234      156.3834      156.5068      34.703385       0.00000
  24     48.69      121.7964        0.1483      156.3515      156.4998      34.703385      -0.00000
  23     57.69      121.7887        0.1756      156.3164      156.4920      34.703385       0.00000
  22     68.43      121.7794        0.2082      156.2746      156.4828      34.703385       0.00000
  21     81.20      121.7684        0.2472      156.2246      156.4718      34.703385       0.00000
  20     96.49      121.7552        0.2937      156.1649      156.4586      34.703385      -0.00000
  19     114.6      121.7398        0.3490      156.0879      156.4369      34.697064       0.00295
  18     136.5      121.7216        0.4146      155.9962      156.4108      34.689229       0.00301
  17     162.9      121.6998        0.4930      155.8831      156.3761      34.676253       0.00415
  16     196.4      121.6718        0.5950      155.7199      156.3149      34.643101       0.00834
  15     218.7      121.6540        0.6620      155.5733      156.2353      34.581323       0.02345
  14     243.0      121.6362        0.7349      155.3367      156.0716      34.435354       0.05063
  13     269.0      121.6208        0.8138      154.9514      155.7652      34.144433       0.09437
  12     297.5      121.6114        0.8987      154.3896      155.2884      33.677002       0.13864
  11     328.5      121.6105        0.9904      153.7151      154.7055      33.094998       0.15825
  10     361.9      121.6232        1.0887      152.9087      153.9975      32.374259       0.18235
   9     398.1      121.6582        1.1940      151.8986      153.0926      31.434477       0.21895
   8     437.6      121.7299        1.3061      150.6031      151.9092      30.179333       0.26836
   7     480.5      121.8564        1.4247      149.0014      150.4261      28.569743       0.31612
   6     533.0      122.1063        1.5683      146.7375      148.3059      26.199591       0.38128
   5     589.8      122.5523        1.7190      143.8730      145.5919      23.039646       0.46904
   4     651.6      123.4148        1.8736      140.0955      141.9691      18.554325       0.61338
   3     718.7      125.0319        2.0306      135.5278      137.5584      12.526485       0.75753
   2     792.3      128.2915        2.1860      130.0690      132.2550       3.963472       0.98208
   1     891.5        6.2369        7.4853        0.0000        7.4853       1.248393       0.23104
   0    1013.0        6.3112        7.3884        0.0000        7.3884       1.077229       0.01188



 Wavenumbers: 12850. - 16000. cm-1, ATM      1
 LEVEL PRESSURE   UPWARD FLUX   DIFDOWN FLUX  DIRDOWN FLUX  DOWNWARD FLUX   NET FLUX    HEATING RATE
          mb          W/m2          W/m2          W/m2        W/m2          W/m2       degree/day
  51    .06700       85.0855        0.0000       98.0872       98.0872      13.001754       0.00000
  50    .07753       85.0855        0.0001       98.0864       98.0864      13.000960       0.63656
  49    .09103       85.0855        0.0002       98.0853       98.0855      12.999962       0.62377
  48    0.1069       85.0855        0.0003       98.0841       98.0843      12.998814       0.61077
  47    0.1255       85.0855        0.0004       98.0826       98.0830      12.997495       0.59811
  46    0.1487       85.0856        0.0005       98.0809       98.0814      12.995828       0.60747
  45    0.1794       85.0856        0.0008       98.0784       98.0792      12.993559       0.62295
  44    0.2165       85.0857        0.0010       98.0756       98.0766      12.990887       0.60789
  43    0.2613       85.0859        0.0013       98.0723       98.0736      12.987740       0.59311
  42    0.3336       85.0862        0.0018       98.0670       98.0688      12.982597       0.59970
  41    0.4307       85.0867        0.0024       98.0602       98.0626      12.975933       0.57940
  40    0.5894       85.0876        0.0035       98.0496       98.0530      12.965404       0.55990
  39     1.339       85.0955        0.0084       98.0043       98.0128      12.917237       0.54228
  38     1.782       85.1026        0.0113       97.9793       97.9906      12.888021       0.55622
  37     2.292       85.1130        0.0147       97.9498       97.9645      12.851429       0.60605
  36     2.964       85.1302        0.0191       97.9088       97.9279      12.797677       0.67475
  35     3.853       85.1579        0.0249       97.8503       97.8753      12.717396       0.76188
  34     5.035       85.1994        0.0327       97.7680       97.8007      12.601251       0.82969
  33     6.613       85.2574        0.0430       97.6562       97.6992      12.441833       0.85225
  32     8.786       85.3329        0.0570       97.5107       97.5676      12.234734       0.80430
  31     11.80       85.4314        0.0769       97.3179       97.3947      11.963361       0.75976
  30     15.07       85.5259        0.0982       97.1283       97.2265      11.700608       0.67838
  29     18.79       85.6227        0.1223       96.9300       97.0523      11.429590       0.61448
  28     23.16       85.7243        0.1504       96.7166       96.8670      11.142746       0.55466
  27     28.12       85.8269        0.1826       96.4935       96.6761      10.849224       0.49897
  26     33.73       85.9224        0.2186       96.2731       96.4917      10.569319       0.42084
  25     40.54       86.0154        0.2621       96.0408       96.3028      10.287477       0.34966
  24     48.69       86.1058        0.3145       95.7946       96.1091      10.003272       0.29411
  23     57.69       86.1842        0.3721       95.5573       95.9294       9.745221       0.24188
  22     68.43       86.2549        0.4408       95.3106       95.7514       9.496555       0.19549
  21     81.20       86.3080        0.5227       95.0643       95.5871       9.279106       0.14369
  20     96.49       86.3426        0.6205       94.8153       95.4358       9.093195       0.10261
  19     114.6       86.3801        0.7376       94.5411       95.2786       8.898504       0.09091
  18     136.5       86.4129        0.8764       94.2320       95.1085       8.695551       0.07804
  17     162.9       86.4413        1.0417       93.8753       94.9171       8.475756       0.07026
  16     196.4       86.4553        1.2562       93.4347       94.6908       8.235513       0.06047
  15     218.7       86.4566        1.3970       93.1513       94.5483       8.091641       0.05462
  14     243.0       86.4551        1.5501       92.8439       94.3940       7.938897       0.05298
  13     269.0       86.4511        1.7160       92.5111       94.2271       7.776051       0.05283
  12     297.5       86.4455        1.8953       92.1495       94.0448       7.599221       0.05245
  11     328.5       86.4411        2.0890       91.7554       93.8444       7.403250       0.05328
  10     361.9       86.4395        2.2975       91.3262       93.6238       7.184251       0.05541
   9     398.1       86.4431        2.5219       90.8575       93.3795       6.936352       0.05775
   8     437.6       86.4566        2.7628       90.3418       93.1046       6.647949       0.06166
   7     480.5       86.4848        3.0207       89.7728       92.7935       6.308712       0.06662
   6     533.0       86.5452        3.3377       89.0428       92.3805       5.835330       0.07615
   5     589.8       86.6571        3.6782       88.2038       91.8820       5.224877       0.09061
   4     651.6       86.8715        4.0416       87.1979       91.2396       4.368091       0.11717
   3     718.7       87.2302        4.4267       86.0161       90.4429       3.212631       0.14521
   2     792.3       87.8549        4.8295       84.5970       89.4265       1.571651       0.18820
   1     891.5       17.3216       18.1193        0.0000       18.1193       0.797665       0.06586
   0    1013.0       17.4083       18.0210        0.0000       18.0210       0.612714       0.01284



 Wavenumbers: 16000. - 22650. cm-1, ATM      1
 LEVEL PRESSURE   UPWARD FLUX   DIFDOWN FLUX  DIRDOWN FLUX  DOWNWARD FLUX   NET FLUX    HEATING RATE
          mb          W/m2          W/m2          W/m2        W/m2          W/m2       degree/day
  51    .06700      141.8547        0.0000      156.3892      156.3892      14.534535       0.00000
  50    .07753      141.8547        0.0004      156.3887      156.3891      14.534387       0.11887
  49    .09103      141.8547        0.0009      156.3879      156.3888      14.534171       0.13482
  48    0.1069      141.8547        0.0015      156.3871      156.3885      14.533882       0.15374
  47    0.1255      141.8547        0.0021      156.3861      156.3882      14.533496       0.17525
  46    0.1487      141.8547        0.0030      156.3847      156.3877      14.532926       0.20766
  45    0.1794      141.8549        0.0041      156.3828      156.3869      14.532035       0.24451
  44    0.2165      141.8551        0.0054      156.3805      156.3859      14.530827       0.27480
  43    0.2613      141.8555        0.0070      156.3776      156.3847      14.529188       0.30894
  42    0.3336      141.8562        0.0097      156.3726      156.3823      14.526072       0.36331
  41    0.4307      141.8575        0.0132      156.3657      156.3789      14.521375       0.40840
  40    0.5894      141.8602        0.0189      156.3537      156.3726      14.512417       0.47638
  39     1.339      141.8831        0.0459      156.2834      156.3293      14.446233       0.74511
  38     1.782      141.9043        0.0618      156.2324      156.2942      14.389852       1.07340
  37     2.292      141.9360        0.0802      156.1641      156.2443      14.308240       1.35171
  36     2.964      141.9888        0.1043      156.0605      156.1648      14.176027       1.65967
  35     3.853      142.0740        0.1361      155.9041      156.0402      13.966236       1.99096
  34     5.035      142.2025        0.1784      155.6774      155.8557      13.653241       2.23591
  33     6.613      142.3821        0.2348      155.3656      155.6004      13.218264       2.32539
  32     8.786      142.6160        0.3106      154.9577      155.2683      12.652249       2.19820
  31     11.80      142.9205        0.4190      154.4153      154.8343      11.913729       2.06762
  30     15.07      143.2123        0.5352      153.8804      154.4156      11.203278       1.83425
  29     18.79      143.5103        0.6663      153.3191      153.9854      10.475113       1.65098
  28     23.16      143.8217        0.8191      152.7126      153.5317       9.709977       1.47953
  27     28.12      144.1352        0.9937      152.0755      153.0692       8.933979       1.31914
  26     33.73      144.4247        1.1888      151.4409      152.6298       8.205063       1.09594
  25     40.54      144.7035        1.4244      150.7637      152.1881       7.484611       0.89380
  24     48.69      144.9706        1.7081      150.0338      151.7419       6.771331       0.73813
  23     57.69      145.1974        2.0194      149.3151      151.3345       6.137134       0.59446
  22     68.43      145.3955        2.3897      148.5476      150.9373       5.541774       0.46803
  21     81.20      145.5330        2.8306      147.7517      150.5823       5.049259       0.32545
  20     96.49      145.6054        3.3555      146.9127      150.2681       4.662748       0.21333
  19     114.6      145.6440        3.9769      145.9763      149.9532       4.309186       0.16509
  18     136.5      145.6581        4.7106      144.9088      149.6194       3.961364       0.13375
  17     162.9      145.6460        5.5804      143.6785      149.2589       3.612939       0.11137
  16     196.4      145.5681        6.7026      142.1651      148.8676       3.299554       0.07888
  15     218.7      145.4941        7.4359      141.2033      148.6393       3.145151       0.05862
  14     243.0      145.4033        8.2297      140.1753      148.4051       3.001713       0.04975
  13     269.0      145.2941        9.0861      139.0797      148.1658       2.871629       0.04220
  12     297.5      145.1659       10.0071      137.9141      147.9211       2.755233       0.03452
  11     328.5      145.0228       10.9970      136.6676      147.6646       2.641815       0.03084
  10     361.9      144.8645       12.0568      135.3392      147.3960       2.531471       0.02792
   9     398.1      144.6908       13.1906      133.9235      147.1140       2.423231       0.02522
   8     437.6      144.5027       14.4003      132.4163      146.8165       2.313816       0.02339
   7     480.5      144.3000       15.6881      130.8147      146.5028       2.202814       0.02180
   6     533.0      144.0512       17.2611      128.8599      146.1210       2.069751       0.02141
   5     589.8      143.7884       18.9418      126.7679      145.7097       1.921328       0.02203
   4     651.6      143.5192       20.7319      124.5274      145.2593       1.740100       0.02478
   3     718.7      143.2513       22.6330      122.1285      144.7615       1.510228       0.02889
   2     792.3      143.0043       24.6431      119.5548      144.1979       1.193629       0.03631
   1     891.5       66.5674       67.4793        0.0000       67.4793       0.911886       0.02397
   0    1013.0       66.6455       67.3800        0.0000       67.3800       0.734441       0.01232



 Wavenumbers: 22650. - 29000. cm-1, ATM      1
 LEVEL PRESSURE   UPWARD FLUX   DIFDOWN FLUX  DIRDOWN FLUX  DOWNWARD FLUX   NET FLUX    HEATING RATE
          mb          W/m2          W/m2          W/m2        W/m2          W/m2       degree/day
  51    .06700       58.7610        0.0000       59.0156       59.0156       0.254583       0.00000
  50    .07753       58.7609        0.0005       59.0151       59.0155       0.254583       0.00000
  49    .09103       58.7608        0.0010       59.0144       59.0154       0.254583      -0.00000
  48    0.1069       58.7607        0.0017       59.0136       59.0153       0.254583       0.00000
  47    0.1255       58.7605        0.0025       59.0127       59.0151       0.254583      -0.00000
  46    0.1487       58.7604        0.0035       59.0115       59.0149       0.254583       0.00000
  45    0.1794       58.7601        0.0048       59.0099       59.0147       0.254583       0.00000
  44    0.2165       58.7598        0.0063       59.0080       59.0144       0.254583      -0.00000
  43    0.2613       58.7595        0.0082       59.0058       59.0140       0.254583      -0.00000
  42    0.3336       58.7589        0.0113       59.0022       59.0134       0.254583       0.00000
  41    0.4307       58.7581        0.0154       58.9973       59.0127       0.254583      -0.00000
  40    0.5894       58.7568        0.0220       58.9894       59.0114       0.254583       0.00000
  39     1.339       58.7508        0.0536       58.9518       59.0053       0.254583       0.00000
  38     1.782       58.7472        0.0721       58.9297       59.0018       0.254583      -0.00000
  37     2.292       58.7431        0.0935       58.9042       58.9977       0.254583       0.00000
  36     2.964       58.7377        0.1216       58.8706       58.9923       0.254583      -0.00000
  35     3.853       58.7306        0.1588       58.8264       58.9851       0.254583       0.00000
  34     5.035       58.7211        0.2081       58.7676       58.9757       0.254583       0.00000
  33     6.613       58.7085        0.2740       58.6891       58.9630       0.254583      -0.00000
  32     8.786       58.6915        0.3626       58.5834       58.9460       0.254583       0.00000
  31     11.80       58.6671        0.4893       58.4324       58.9217       0.254583       0.00000
  30     15.07       58.6411        0.6250       58.2706       58.8957       0.254583       0.00000
  29     18.79       58.6117        0.7781       58.0882       58.8663       0.254583       0.00000
  28     23.16       58.5775        0.9564       57.8757       58.8321       0.254583       0.00000
  27     28.12       58.5385        1.1597       57.6333       58.7931       0.254583       0.00000
  26     33.73       58.4950        1.3865       57.3631       58.7496       0.254583      -0.00000
  25     40.54       58.4426        1.6593       57.0379       58.6972       0.254583       0.00000
  24     48.69       58.3798        1.9865       56.6479       58.6344       0.254583       0.00000
  23     57.69       58.3112        2.3437       56.2221       58.5658       0.254583      -0.00000
  22     68.43       58.2301        2.7661       55.7186       58.4847       0.254583       0.00000
  21     81.20       58.1343        3.2650       55.1239       58.3889       0.254583      -0.00000
  20     96.49       58.0214        3.8532       54.4228       58.2760       0.254583       0.00000
  19     114.6       57.8890        4.5426       53.6010       58.1436       0.254583       0.00000
  18     136.5       57.7344        5.3472       52.6418       57.9890       0.254583       0.00000
  17     162.9       57.5536        6.2879       51.5203       57.8082       0.254583      -0.00000
  16     196.4       57.3245        7.4797       50.0994       57.5791       0.254583       0.00000
  15     218.7       57.1773        8.2456       49.1863       57.4318       0.254583      -0.00000
  14     243.0       57.0200        9.0633       48.2113       57.2746       0.254583       0.00000
  13     269.0       56.8528        9.9324       47.1749       57.1073       0.254583       0.00000
  12     297.5       56.6757       10.8521       46.0783       56.9303       0.254583      -0.00000
  11     328.5       56.4887       11.8237       44.9195       56.7432       0.254583       0.00000
  10     361.9       56.2920       12.8447       43.7018       56.5466       0.254583      -0.00000
   9     398.1       56.0857       13.9152       42.4250       56.3403       0.254583       0.00000
   8     437.6       55.8701       15.0331       41.0916       56.1247       0.254583       0.00000
   7     480.5       55.6458       16.1959       39.7045       55.9004       0.254583      -0.00000
   6     533.0       55.3788       17.5791       38.0543       55.6334       0.254583       0.00000
   5     589.8       55.1017       19.0132       36.3431       55.3563       0.254583       0.00000
   4     651.6       54.8159       20.4909       34.5795       55.0705       0.254583       0.00000
   3     718.7       54.5224       22.0067       32.7702       54.7770       0.254583       0.00000
   2     792.3       54.2229       23.5519       30.9256       54.4774       0.254583       0.00000
   1     891.5       35.3320       35.5738        0.0000       35.5738       0.241845       0.00108
   0    1013.0       35.3235       35.5654        0.0000       35.5654       0.241845       0.00000



 Wavenumbers: 29000. - 38000. cm-1, ATM      1
 LEVEL PRESSURE   UPWARD FLUX   DIFDOWN FLUX  DIRDOWN FLUX  DOWNWARD FLUX   NET FLUX    HEATING RATE
          mb          W/m2          W/m2          W/m2        W/m2          W/m2       degree/day
  51    .06700        8.8061        0.0000       20.8114       20.8114      12.005240       0.00000
  50    .07753        8.8059        0.0003       20.8070       20.8074      12.001432       3.05165
  49    .09103        8.8057        0.0007       20.8009       20.8016      11.995895       3.46096
  48    0.1069        8.8055        0.0012       20.7928       20.7939      11.988485       3.94442
  47    0.1255        8.8052        0.0017       20.7820       20.7837      11.978580       4.49048
  46    0.1487        8.8048        0.0024       20.7665       20.7688      11.964016       5.30861
  45    0.1794        8.8044        0.0033       20.7424       20.7457      11.941351       6.22225
  44    0.2165        8.8039        0.0044       20.7103       20.7147      11.910827       6.94364
  43    0.2613        8.8033        0.0056       20.6675       20.6731      11.869831       7.72759
  42    0.3336        8.8024        0.0077       20.5880       20.5957      11.793267       8.92657
  41    0.4307        8.8013        0.0104       20.4722       20.4826      11.681310       9.73440
  40    0.5894        8.7998        0.0147       20.2637       20.2784      11.478618      10.77890
  39     1.339        8.7965        0.0332       19.0984       19.1315      10.335078      12.87418
  38     1.782        8.7970        0.0428       18.4394       18.4821       9.685101      12.37453
  37     2.292        8.7998        0.0530       17.7714       17.8245       9.024680      10.93829
  36     2.964        8.8065        0.0658       17.0421       17.1079       8.301433       9.07893
  35     3.853        8.8195        0.0817       16.2678       16.3496       7.530060       7.32047
  34     5.035        8.8410        0.1019       15.4803       15.5822       6.741275       5.63475
  33     6.613        8.8721        0.1277       14.7157       14.8434       5.971282       4.11638
  32     8.786        8.9134        0.1616       13.9936       14.1551       5.241786       2.83310
  31     11.80        8.9672        0.2087       13.2835       13.4923       4.525080       2.00655
  30     15.07        9.0191        0.2576       12.7394       12.9970       3.977851       1.41284
  29     18.79        9.0728        0.3118       12.2666       12.5784       3.505585       1.07077
  28     23.16        9.1300        0.3735       11.8300       12.2035       3.073527       0.83546
  27     28.12        9.1885        0.4425       11.4279       11.8704       2.681832       0.66586
  26     33.73        9.2428        0.5186       11.0695       11.5881       2.345311       0.50597
  25     40.54        9.2944        0.6095       10.7209       11.3304       2.036063       0.38366
  24     48.69        9.3433        0.7174       10.3742       11.0916       1.748349       0.29774
  23     57.69        9.3837        0.8342       10.0549       10.8891       1.505475       0.22766
  22     68.43        9.4167        0.9713        9.7327       10.7040       1.287312       0.17151
  21     81.20        9.4333        1.1331        9.4134       10.5465       1.113245       0.11502
  20     96.49        9.4315        1.3234        9.0887       10.4121       0.980664       0.07318
  19     114.6        9.4195        1.5432        8.7388       10.2820       0.862581       0.05514
  18     136.5        9.4003        1.7947        8.3549       10.1495       0.749206       0.04360
  17     162.9        9.3743        2.0813        7.9311       10.0125       0.638116       0.03551
  16     196.4        9.3295        2.4365        7.4333        9.8698       0.540253       0.02463
  15     218.7        9.2970        2.6599        7.1295        9.7895       0.492488       0.01813
  14     243.0        9.2613        2.8936        6.8161        9.7096       0.448358       0.01531
  13     269.0        9.2222        3.1366        6.4943        9.6309       0.408708       0.01286
  12     297.5        9.1798        3.3878        6.1657        9.5535       0.373734       0.01037
  11     328.5        9.1356        3.6464        5.8295        9.4758       0.340227       0.00911
  10     361.9        9.0900        3.9097        5.4886        9.3984       0.308337       0.00807
   9     398.1        9.0433        4.1774        5.1440        9.3213       0.278092       0.00705
   8     437.6        8.9958        4.4478        4.7969        9.2447       0.248912       0.00624
   7     480.5        8.9480        4.7188        4.4504        9.1692       0.221189       0.00544
   6     533.0        8.8934        5.0280        4.0563        9.0843       0.190936       0.00487
   5     589.8        8.8398        5.3332        3.6682        9.0014       0.161609       0.00435
   4     651.6        8.7883        5.6306        3.2905        8.9212       0.132880       0.00393
   3     718.7        8.7393        5.9188        2.9252        8.8440       0.104701       0.00354
   2     792.3        8.6936        6.1942        2.5764        8.7707       0.077077       0.00317
   1     891.5        4.7064        4.7602        0.0000        4.7602       0.053761       0.00198
   0    1013.0        4.7101        4.7496        0.0000        4.7496       0.039421       0.00100



 Wavenumbers: 38000. - 50000. cm-1, ATM      1
 LEVEL PRESSURE   UPWARD FLUX   DIFDOWN FLUX  DIRDOWN FLUX  DOWNWARD FLUX   NET FLUX    HEATING RATE
          mb          W/m2          W/m2          W/m2        W/m2          W/m2       degree/day
  51    .06700        0.0061        0.0000        1.2836        1.2836       1.277518       0.00000
  50    .07753        0.0061        0.0001        1.2812        1.2812       1.275183       1.87150
  49    .09103        0.0060        0.0002        1.2777        1.2778       1.271851       2.08247
  48    0.1069        0.0059        0.0002        1.2731        1.2734       1.267473       2.33059
  47    0.1255        0.0058        0.0004        1.2672        1.2675       1.261717       2.60908
  46    0.1487        0.0057        0.0005        1.2586        1.2591       1.253391       3.03499
  45    0.1794        0.0055        0.0007        1.2455        1.2462       1.240623       3.50520
  44    0.2165        0.0054        0.0009        1.2282        1.2291       1.223697       3.85037
  43    0.2613        0.0052        0.0011        1.2054        1.2065       1.201348       4.21261
  42    0.3336        0.0049        0.0015        1.1639        1.1654       1.160524       4.75970
  41    0.4307        0.0045        0.0020        1.1051        1.1070       1.102565       5.03943
  40    0.5894        0.0039        0.0026        1.0039        1.0064       1.002524       5.32007
  39     1.339        0.0022        0.0035        0.5438        0.5473       0.545104       5.14971
  38     1.782        0.0016        0.0032        0.3635        0.3666       0.365006       3.42879
  37     2.292        0.0012        0.0027        0.2356        0.2383       0.237058       2.11916
  36     2.964        0.0009        0.0022        0.1455        0.1477       0.146786       1.13318
  35     3.853        0.0006        0.0017        0.0858        0.0875       0.086906       0.56828
  34     5.035        0.0004        0.0013        0.0488        0.0501       0.049701       0.26578
  33     6.613        0.0003        0.0010        0.0273        0.0282       0.027974       0.11615
  32     8.786        0.0002        0.0007        0.0144        0.0151       0.014928       0.05067
  31     11.80        0.0001        0.0004        0.0065        0.0070       0.006903       0.02247
  30     15.07        0.0000        0.0003        0.0031        0.0034       0.003329       0.00923
  29     18.79        0.0000        0.0002        0.0014        0.0016       0.001583       0.00396
  28     23.16        0.0000        0.0001        0.0006        0.0007       0.000720       0.00167
  27     28.12        0.0000        0.0001        0.0003        0.0003       0.000317       0.00069
  26     33.73        0.0000        0.0000        0.0001        0.0001       0.000140       0.00027
  25     40.54        0.0000        0.0000        0.0000        0.0001       0.000057       0.00010
  24     48.69        0.0000        0.0000        0.0000        0.0000       0.000021       0.00004
  23     57.69        0.0000        0.0000        0.0000        0.0000       0.000008       0.00001
  22     68.43        0.0000        0.0000        0.0000        0.0000       0.000003       0.00000
  21     81.20        0.0000        0.0000        0.0000        0.0000       0.000001       0.00000
  20     96.49        0.0000        0.0000        0.0000        0.0000       0.000000       0.00000
  19     114.6        0.0000        0.0000        0.0000        0.0000       0.000000       0.00000
  18     136.5        0.0000        0.0000        0.0000        0.0000       0.000000       0.00000
  17     162.9        0.0000        0.0000        0.0000        0.0000       0.000000       0.00000
  16     196.4        0.0000        0.0000        0.0000        0.0000       0.000000       0.00000
  15     218.7        0.0000        0.0000        0.0000        0.0000       0.000000       0.00000
  14     243.0        0.0000        0.0000        0.0000        0.0000       0.000000       0.00000
  13     269.0        0.0000        0.0000        0.0000        0.0000       0.000000       0.00000
  12     297.5        0.0000        0.0000        0.0000        0.0000       0.000000       0.00000
  11     328.5        0.0000        0.0000        0.0000        0.0000       0.000000       0.00000
  10     361.9        0.0000        0.0000        0.0000        0.0000       0.000000       0.00000
   9     398.1        0.0000        0.0000        0.0000        0.0000       0.000000       0.00000
   8     437.6        0.0000        0.0000        0.0000        0.0000       0.000000       0.00000
   7     480.5        0.0000        0.0000        0.0000        0.0000       0.000000       0.00000
   6     533.0        0.0000        0.0000        0.0000        0.0000       0.000000       0.00000
   5     589.8        0.0000        0.0000        0.0000        0.0000       0.000000       0.00000
   4     651.6        0.0000        0.0000        0.0000        0.0000       0.000000       0.00000
   3     718.7        0.0000        0.0000        0.0000        0.0000       0.000000       0.00000
   2     792.3        0.0000        0.0000        0.0000        0.0000       0.000000       0.00000
   1     891.5        0.0000        0.0000        0.0000        0.0000       0.000000       0.00000
   0    1013.0        0.0000        0.0000        0.0000        0.0000       0.000000       0.00000



 Wavenumbers:   820. -  2600. cm-1, ATM      1
 LEVEL PRESSURE   UPWARD FLUX   DIFDOWN FLUX  DIRDOWN FLUX  DOWNWARD FLUX   NET FLUX    HEATING RATE
          mb          W/m2          W/m2          W/m2        W/m2          W/m2       degree/day
  51    .06700        1.8373        0.0000        6.0047        6.0047       4.167310       0.00000
  50    .07753        1.8373        0.0000        6.0008        6.0008       4.163457       3.08827
  49    .09103        1.8373        0.0000        5.9999        5.9999       4.162571       0.55363
  48    0.1069        1.8373        0.0000        5.9989        5.9989       4.161582       0.52658
  47    0.1255        1.8373        0.0000        5.9978        5.9978       4.160464       0.50655
  46    0.1487        1.8373        0.0000        5.9964        5.9964       4.159107       0.49463
  45    0.1794        1.8373        0.0000        5.9947        5.9947       4.157388       0.47206
  44    0.2165        1.8373        0.0000        5.9929        5.9929       4.155545       0.41917
  43    0.2613        1.8373        0.0000        5.9909        5.9909       4.153585       0.36940
  42    0.3336        1.8373        0.0000        5.9880        5.9880       4.150707       0.33563
  41    0.4307        1.8373        0.0000        5.9846        5.9846       4.147237       0.30172
  40    0.5894        1.8373        0.0000        5.9791        5.9791       4.141730       0.29284
  39     1.339        1.8374        0.0000        5.9536        5.9536       4.116236       0.28702
  38     1.782        1.8374        0.0000        5.9395        5.9395       4.102093       0.26925
  37     2.292        1.8374        0.0000        5.9237        5.9237       4.086337       0.26096
  36     2.964        1.8374        0.0000        5.9039        5.9039       4.066557       0.24830
  35     3.853        1.8374        0.0000        5.8793        5.8793       4.041893       0.23407
  34     5.035        1.8374        0.0000        5.8487        5.8487       4.011319       0.21841
  33     6.613        1.8374        0.0000        5.8108        5.8108       3.973341       0.20304
  32     8.786        1.8374        0.0000        5.7631        5.7631       3.925698       0.18503
  31     11.80        1.8375        0.0000        5.7039        5.7039       3.866412       0.16598
  30     15.07        1.8375        0.0000        5.6539        5.6539       3.816342       0.12927
  29     18.79        1.8376        0.0000        5.6127        5.6127       3.775171       0.09335
  28     23.16        1.8376        0.0000        5.5794        5.5794       3.741753       0.06462
  27     28.12        1.8377        0.0000        5.5518        5.5518       3.714136       0.04695
  26     33.73        1.8377        0.0000        5.5268        5.5268       3.689026       0.03775
  25     40.54        1.8378        0.0000        5.4993        5.4993       3.661513       0.03413
  24     48.69        1.8379        0.0000        5.4678        5.4678       3.629886       0.03273
  23     57.69        1.8380        0.0000        5.4340        5.4340       3.596002       0.03176
  22     68.43        1.8381        0.0000        5.3947        5.3948       3.556610       0.03097
  21     81.20        1.8383        0.0000        5.3497        5.3497       3.511432       0.02985
  20     96.49        1.8385        0.0000        5.2982        5.2982       3.459738       0.02853
  19     114.6        1.8387        0.0000        5.2389        5.2389       3.400193       0.02780
  18     136.5        1.8390        0.0000        5.1716        5.1717       3.332655       0.02597
  17     162.9        1.8394        0.0000        5.0890        5.0891       3.249622       0.02654
  16     196.4        1.8402        0.0000        4.9668        4.9668       3.126683       0.03095
  15     218.7        1.8409        0.0000        4.8585        4.8585       3.017626       0.04140
  14     243.0        1.8420        0.0000        4.7078        4.7079       2.865889       0.05263
  13     269.0        1.8436        0.0000        4.5343        4.5343       2.690651       0.05685
  12     297.5        1.8463        0.0000        4.3419        4.3420       2.495679       0.05783
  11     328.5        1.8498        0.0000        4.1281        4.1281       2.278307       0.05910
  10     361.9        1.8546        0.0000        3.8786        3.8787       2.024128       0.06431
   9     398.1        1.8606        0.0000        3.6159        3.6160       1.755307       0.06263
   8     437.6        1.8686        0.0000        3.3759        3.3759       1.507344       0.05302
   7     480.5        1.8782        0.0000        3.1957        3.1958       1.317545       0.03728
   6     533.0        1.8930        0.0001        3.0467        3.0467       1.153725       0.02635
   5     589.8        1.9148        0.0001        2.9023        2.9023       0.987537       0.02467
   4     651.6        1.9528        0.0001        2.7183        2.7184       0.765572       0.03035
   3     718.7        2.0195        0.0001        2.5058        2.5059       0.486367       0.03509
   2     792.3        2.1526        0.0001        2.2756        2.2757       0.123063       0.04167
   1     891.5        0.0000        0.0085        0.0000        0.0085       0.008497       0.00975
   0    1013.0        0.0001        0.0073        0.0000        0.0073       0.007268       0.00009

  Modules and versions used in this calculation:

       rrtmg_sw.1col.f90:  $Revision$                    rrtmg_sw_init.f90:  $Revision$        
     rrtmgsw_cldprop.f90:  $Revision$                  rrtmgsw_cldprmc.f90:  NOT USED          
     rrtmg_sw_reftra.f90:  $Revision$                  rrtmg_sw_spcvrt.f90:  NOT USED          
     rrtmg_sw_spcvmc.f90:  NOT USED                    rrtmgsw_setcoef.f90:  NOT USED          
     rrtmg_sw_taumol.f90:  $Revision$                  rrtmg_sw_vrtqdr.f90:  NOT USED          
                rrtatm.f:  NOT USED                             util_xxx.f:  NOT USED          
                 extra.f:  NOT USED                       rrtmg_sw_k_g.f90:  $Revision$        

