

 Wavenumbers:   820. - 50000. cm-1, ATM      1
 LEVEL PRESSURE   UPWARD FLUX   DIFDOWN FLUX  DIRDOWN FLUX  DOWNWARD FLUX   NET FLUX    HEATING RATE
          mb          W/m2          W/m2          W/m2        W/m2          W/m2       degree/day
  51    .06700      407.3015        0.0000      617.8126      617.8126     210.511034       0.00000
  50    .07753      407.3012        0.0014      617.7947      617.7961     210.494894      12.93633
  49    .09103      407.3007        0.0030      617.7778      617.7808     210.480084       9.25631
  48    0.1069      407.3002        0.0050      617.7581      617.7631     210.462823       9.18821
  47    0.1255      407.2997        0.0072      617.7340      617.7412     210.441479       9.67654
  46    0.1487      407.2991        0.0101      617.7009      617.7109     210.411793      10.82064
  45    0.1794      407.2984        0.0139      617.6521      617.6660     210.367563      12.14237
  44    0.2165      407.2977        0.0185      617.5895      617.6079     210.310242      13.03956
  43    0.2613      407.2970        0.0238      617.5089      617.5327     210.235729      14.04534
  42    0.3336      407.2961        0.0327      617.3641      617.3968     210.100643      15.74964
  41    0.4307      407.2954        0.0443      617.1591      617.2034     209.908019      16.74827
  40    0.5894      407.2952        0.0631      616.8005      616.8636     209.568325      18.06451
  39     1.339      407.3126        0.1480      614.9443      615.0923     207.779678      20.13691
  38     1.782      407.3355        0.1958      613.9670      614.1629     206.827386      18.13011
  37     2.292      407.3734        0.2502      613.0059      613.2561     205.882725      15.64605
  36     2.964      407.4404        0.3209      611.9577      612.2786     204.838166      13.11237
  35     3.853      407.5530        0.4136      610.8024      611.2160     203.663016      11.15238
  34     5.035      407.7263        0.5360      609.5327      610.0687     202.342424       9.43376
  33     6.613      407.9703        0.6984      608.1464      608.8448     200.874510       7.84747
  32     8.786      408.2882        0.9162      606.6250      607.5413     199.253107       6.29694
  31     11.80      408.6997        1.2264      604.8486      606.0751     197.375355       5.25711
  30     15.07      409.0914        1.5575      603.2440      604.8014     195.710054       4.29948
  29     18.79      409.4888        1.9299      601.6511      603.5810     194.092209       3.66815
  28     23.16      409.9013        2.3626      599.9927      602.3553     192.454033       3.16770
  27     28.12      410.3124        2.8552      598.2881      601.1433     190.830848       2.75931
  26     33.73      410.6839        3.4044      596.5951      599.9995     189.315574       2.27825
  25     40.54      411.0294        4.0655      594.7727      598.8383     187.808828       1.86929
  24     48.69      411.3459        4.8589      592.7865      597.6454     186.299490       1.56193
  23     57.69      411.5965        5.7262      590.7959      596.5221     184.925575       1.28784
  22     68.43      411.7896        6.7536      588.6191      595.3727     183.583140       1.05533
  21     81.20      411.8733        7.9718      586.2690      594.2408     182.367530       0.80326
  20     96.49      411.8372        9.4142      583.6961      593.1103     181.273063       0.60407
  19     114.6      411.7414       11.1112      580.7708      591.8820     180.140558       0.52880
  18     136.5      411.5828       13.0983      577.4359      590.5342     178.951397       0.45726
  17     162.9      411.3553       15.4304      573.5624      588.9928     177.637543       0.41996
  16     196.4      410.9715       18.4046      568.5907      586.9953     176.023803       0.40620
  15     218.7      410.6898       20.3276      565.0572      585.3848     174.694947       0.50452
  14     243.0      410.3740       22.3902      560.7495      583.1398     172.765728       0.66912
  13     269.0      410.0237       24.5940      555.3947      579.9887     169.964912       0.90857
  12     297.5      409.6417       26.9394      548.9964      575.9358     166.294085       1.08873
  11     328.5      409.2365       29.4332      542.0895      571.5227     162.286157       1.08974
  10     361.9      408.8129       32.0713      534.6242      566.6956     157.882722       1.11411
   9     398.1      408.3765       34.8586      526.4204      561.2791     152.902512       1.16028
   8     437.6      407.9408       37.7937      517.3907      555.1844     147.243520       1.20993
   7     480.5      407.5187       40.8746      507.7216      548.5962     141.077494       1.21098
   6     533.0      407.0824       44.5791      495.9006      540.4797     133.397371       1.23549
   5     589.8      406.7612       48.4669      483.0788      531.5457     124.784503       1.27843
   4     651.6      406.7160       52.5255      468.6907      521.2162     114.500171       1.40641
   3     718.7      407.1475       56.7468      453.2257      509.9726     102.825087       1.46723
   2     792.3      408.5617       61.1091      436.4928      497.6020      89.040237       1.58097
   1     891.5      360.9839      218.3849      213.7684      432.1533      71.169422       1.52072
   0    1013.0      366.3338      216.9148      200.5882      417.5030      51.169126       1.38872



 Wavenumbers:  2600. -  3250. cm-1, ATM      1
 LEVEL PRESSURE   UPWARD FLUX   DIFDOWN FLUX  DIRDOWN FLUX  DOWNWARD FLUX   NET FLUX    HEATING RATE
          mb          W/m2          W/m2          W/m2        W/m2          W/m2       degree/day
  51    .06700        0.5679        0.0000        5.4450        5.4450       4.877152       0.00000
  50    .07753        0.5679        0.0000        5.4450        5.4450       4.877144       0.00640
  49    .09103        0.5679        0.0000        5.4450        5.4450       4.877134       0.00627
  48    0.1069        0.5679        0.0000        5.4450        5.4450       4.877123       0.00613
  47    0.1255        0.5679        0.0000        5.4450        5.4450       4.877110       0.00599
  46    0.1487        0.5679        0.0000        5.4450        5.4450       4.877093       0.00608
  45    0.1794        0.5679        0.0000        5.4450        5.4450       4.877070       0.00625
  44    0.2165        0.5679        0.0000        5.4449        5.4449       4.877043       0.00612
  43    0.2613        0.5679        0.0000        5.4449        5.4449       4.877011       0.00600
  42    0.3336        0.5679        0.0000        5.4448        5.4448       4.876959       0.00617
  41    0.4307        0.5679        0.0000        5.4448        5.4448       4.876887       0.00620
  40    0.5894        0.5679        0.0000        5.4446        5.4446       4.876768       0.00637
  39     1.339        0.5679        0.0000        5.4439        5.4439       4.876060       0.00797
  38     1.782        0.5679        0.0000        5.4434        5.4434       4.875517       0.01034
  37     2.292        0.5679        0.0000        5.4427        5.4427       4.874801       0.01186
  36     2.964        0.5679        0.0000        5.4416        5.4416       4.873762       0.01304
  35     3.853        0.5679        0.0000        5.4402        5.4402       4.872285       0.01402
  34     5.035        0.5679        0.0000        5.4381        5.4381       4.870230       0.01468
  33     6.613        0.5679        0.0000        5.4353        5.4353       4.867448       0.01487
  32     8.786        0.5679        0.0000        5.4317        5.4317       4.863816       0.01411
  31     11.80        0.5679        0.0000        5.4269        5.4269       4.859036       0.01338
  30     15.07        0.5679        0.0000        5.4224        5.4224       4.854509       0.01169
  29     18.79        0.5679        0.0000        5.4180        5.4180       4.850096       0.01000
  28     23.16        0.5679        0.0000        5.4135        5.4135       4.845609       0.00868
  27     28.12        0.5679        0.0000        5.4088        5.4088       4.840960       0.00790
  26     33.73        0.5679        0.0000        5.4036        5.4036       4.835717       0.00788
  25     40.54        0.5679        0.0000        5.3966        5.3967       4.828772       0.00862
  24     48.69        0.5679        0.0000        5.3872        5.3872       4.819290       0.00981
  23     57.69        0.5679        0.0000        5.3754        5.3754       4.807499       0.01105
  22     68.43        0.5679        0.0000        5.3599        5.3599       4.792000       0.01218
  21     81.20        0.5679        0.0000        5.3401        5.3401       4.772152       0.01312
  20     96.49        0.5680        0.0000        5.3155        5.3155       4.747563       0.01357
  19     114.6        0.5680        0.0000        5.2853        5.2853       4.717336       0.01411
  18     136.5        0.5681        0.0001        5.2504        5.2505       4.682385       0.01344
  17     162.9        0.5682        0.0001        5.2111        5.2111       4.642978       0.01260
  16     196.4        0.5683        0.0001        5.1640        5.1641       4.595780       0.01188
  15     218.7        0.5685        0.0001        5.1331        5.1332       4.564699       0.01180
  14     243.0        0.5688        0.0001        5.0962        5.0963       4.527544       0.01289
  13     269.0        0.5692        0.0001        5.0511        5.0512       4.482007       0.01477
  12     297.5        0.5698        0.0001        4.9956        4.9957       4.425886       0.01664
  11     328.5        0.5707        0.0001        4.9304        4.9305       4.359763       0.01798
  10     361.9        0.5720        0.0001        4.8511        4.8512       4.279260       0.02037
   9     398.1        0.5737        0.0001        4.7507        4.7508       4.177138       0.02379
   8     437.6        0.5761        0.0002        4.6220        4.6222       4.046112       0.02801
   7     480.5        0.5794        0.0002        4.4625        4.4626       3.883245       0.03199
   6     533.0        0.5848        0.0002        4.2460        4.2462       3.661400       0.03569
   5     589.8        0.5931        0.0002        3.9954        3.9956       3.402492       0.03843
   4     651.6        0.6068        0.0002        3.7089        3.7090       3.102248       0.04106
   3     718.7        0.6295        0.0002        3.4018        3.4020       2.772517       0.04144
   2     792.3        0.6708        0.0002        3.0564        3.0566       2.385791       0.04435
   1     891.5        0.0191        0.6158        1.3336        1.9494       1.930355       0.03876
   0    1013.0        0.0221        0.5054        1.0764        1.5818       1.559743       0.02573



 Wavenumbers:  3250. -  4000. cm-1, ATM      1
 LEVEL PRESSURE   UPWARD FLUX   DIFDOWN FLUX  DIRDOWN FLUX  DOWNWARD FLUX   NET FLUX    HEATING RATE
          mb          W/m2          W/m2          W/m2        W/m2          W/m2       degree/day
  51    .06700        0.0139        0.0000        9.1795        9.1795       9.165638       0.00000
  50    .07753        0.0139        0.0000        9.1747        9.1747       9.160795       3.88148
  49    .09103        0.0139        0.0000        9.1713        9.1713       9.157408       2.11747
  48    0.1069        0.0139        0.0000        9.1688        9.1688       9.154883       1.34402
  47    0.1255        0.0139        0.0000        9.1665        9.1665       9.152623       1.02422
  46    0.1487        0.0139        0.0000        9.1641        9.1641       9.150182       0.88991
  45    0.1794        0.0139        0.0000        9.1612        9.1612       9.147304       0.79008
  44    0.2165        0.0139        0.0000        9.1583        9.1583       9.144384       0.66430
  43    0.2613        0.0139        0.0000        9.1553        9.1553       9.141411       0.56041
  42    0.3336        0.0139        0.0000        9.1511        9.1511       9.137232       0.48723
  41    0.4307        0.0139        0.0000        9.1464        9.1464       9.132464       0.41459
  40    0.5894        0.0139        0.0000        9.1393        9.1394       9.125458       0.37255
  39     1.339        0.0139        0.0000        9.1127        9.1127       9.098844       0.29962
  38     1.782        0.0139        0.0000        9.1011        9.1011       9.087256       0.22062
  37     2.292        0.0139        0.0000        9.0901        9.0901       9.076189       0.18329
  36     2.964        0.0139        0.0000        9.0776        9.0776       9.063760       0.15603
  35     3.853        0.0139        0.0000        9.0629        9.0629       9.048969       0.14036
  34     5.035        0.0139        0.0000        9.0441        9.0441       9.030231       0.13386
  33     6.613        0.0139        0.0000        9.0191        9.0191       9.005229       0.13366
  32     8.786        0.0139        0.0000        8.9843        8.9843       8.970445       0.13509
  31     11.80        0.0139        0.0000        8.9327        8.9327       8.918829       0.14451
  30     15.07        0.0139        0.0000        8.8758        8.8759       8.861984       0.14676
  29     18.79        0.0139        0.0000        8.8110        8.8110       8.797157       0.14698
  28     23.16        0.0139        0.0000        8.7365        8.7366       8.722712       0.14395
  27     28.12        0.0139        0.0000        8.6554        8.6555       8.641599       0.13789
  26     33.73        0.0138        0.0000        8.5719        8.5719       8.558099       0.12554
  25     40.54        0.0138        0.0001        8.4812        8.4812       8.467376       0.11255
  24     48.69        0.0138        0.0001        8.3838        8.3839       8.370074       0.10069
  23     57.69        0.0138        0.0001        8.2861        8.2862       8.272339       0.09161
  22     68.43        0.0138        0.0001        8.1751        8.1751       8.161343       0.08726
  21     81.20        0.0138        0.0001        8.0457        8.0458       8.031984       0.08548
  20     96.49        0.0138        0.0001        7.8949        7.8950       7.881281       0.08318
  19     114.6        0.0137        0.0001        7.7162        7.7163       7.702571       0.08344
  18     136.5        0.0137        0.0002        7.5193        7.5194       7.505727       0.07569
  17     162.9        0.0137        0.0002        7.2913        7.2915       7.277836       0.07284
  16     196.4        0.0137        0.0002        6.9660        6.9662       6.952562       0.08188
  15     218.7        0.0136        0.0002        6.6648        6.6650       6.651371       0.11435
  14     243.0        0.0136        0.0002        6.2619        6.2622       6.248571       0.13970
  13     269.0        0.0136        0.0003        5.7576        5.7579       5.744258       0.16360
  12     297.5        0.0136        0.0003        5.1719        5.1722       5.158538       0.17372
  11     328.5        0.0137        0.0002        4.5757        4.5760       4.562328       0.16211
  10     361.9        0.0137        0.0002        3.9995        3.9998       3.986068       0.14580
   9     398.1        0.0138        0.0002        3.4655        3.4657       3.451873       0.12446
   8     437.6        0.0141        0.0002        2.9740        2.9743       2.960195       0.10512
   7     480.5        0.0144        0.0002        2.5307        2.5309       2.516449       0.08715
   6     533.0        0.0151        0.0002        2.0614        2.0616       2.046433       0.07561
   5     589.8        0.0164        0.0002        1.6150        1.6151       1.598688       0.06646
   4     651.6        0.0192        0.0001        1.1565        1.1566       1.137395       0.06308
   3     718.7        0.0253        0.0001        0.7390        0.7391       0.713841       0.05323
   2     792.3        0.0414        0.0001        0.3985        0.3985       0.357111       0.04091
   1     891.5        0.0000        0.0275        0.0589        0.0863       0.086272       0.02305
   0    1013.0        0.0003        0.0028        0.0048        0.0077       0.007370       0.00548



 Wavenumbers:  4000. -  4650. cm-1, ATM      1
 LEVEL PRESSURE   UPWARD FLUX   DIFDOWN FLUX  DIRDOWN FLUX  DOWNWARD FLUX   NET FLUX    HEATING RATE
          mb          W/m2          W/m2          W/m2        W/m2          W/m2       degree/day
  51    .06700        2.5032        0.0000       10.7795       10.7795       8.276370       0.00000
  50    .07753        2.5032        0.0000       10.7795       10.7795       8.276369       0.00080
  49    .09103        2.5032        0.0000       10.7795       10.7795       8.276367       0.00078
  48    0.1069        2.5032        0.0000       10.7795       10.7795       8.276366       0.00076
  47    0.1255        2.5032        0.0000       10.7795       10.7795       8.276364       0.00075
  46    0.1487        2.5032        0.0000       10.7795       10.7795       8.276362       0.00076
  45    0.1794        2.5032        0.0000       10.7795       10.7795       8.276359       0.00078
  44    0.2165        2.5032        0.0000       10.7795       10.7795       8.276356       0.00076
  43    0.2613        2.5032        0.0000       10.7795       10.7795       8.276352       0.00075
  42    0.3336        2.5032        0.0000       10.7795       10.7795       8.276345       0.00077
  41    0.4307        2.5032        0.0000       10.7795       10.7795       8.276336       0.00077
  40    0.5894        2.5032        0.0000       10.7795       10.7795       8.276321       0.00080
  39     1.339        2.5032        0.0000       10.7794       10.7794       8.276232       0.00101
  38     1.782        2.5032        0.0000       10.7793       10.7793       8.276162       0.00133
  37     2.292        2.5032        0.0000       10.7792       10.7792       8.276068       0.00156
  36     2.964        2.5032        0.0000       10.7791       10.7791       8.275928       0.00176
  35     3.853        2.5032        0.0000       10.7789       10.7789       8.275720       0.00197
  34     5.035        2.5032        0.0000       10.7786       10.7786       8.275413       0.00219
  33     6.613        2.5032        0.0000       10.7781       10.7781       8.274961       0.00241
  32     8.786        2.5031        0.0000       10.7774       10.7774       8.274294       0.00259
  31     11.80        2.5031        0.0000       10.7763       10.7764       8.273247       0.00293
  30     15.07        2.5031        0.0001       10.7751       10.7752       8.272018       0.00317
  29     18.79        2.5031        0.0001       10.7736       10.7737       8.270533       0.00337
  28     23.16        2.5031        0.0001       10.7717       10.7718       8.268689       0.00357
  27     28.12        2.5031        0.0001       10.7695       10.7696       8.266456       0.00379
  26     33.73        2.5031        0.0001       10.7667       10.7668       8.263705       0.00414
  25     40.54        2.5031        0.0002       10.7629       10.7631       8.259973       0.00463
  24     48.69        2.5031        0.0002       10.7579       10.7581       8.255002       0.00514
  23     57.69        2.5031        0.0002       10.7520       10.7522       8.249112       0.00552
  22     68.43        2.5031        0.0003       10.7446       10.7449       8.241732       0.00580
  21     81.20        2.5032        0.0003       10.7355       10.7358       8.232650       0.00600
  20     96.49        2.5033        0.0004       10.7245       10.7249       8.221606       0.00610
  19     114.6        2.5034        0.0005       10.7107       10.7112       8.207806       0.00644
  18     136.5        2.5035        0.0006       10.6942       10.6947       8.191195       0.00639
  17     162.9        2.5038        0.0007       10.6740       10.6747       8.170854       0.00650
  16     196.4        2.5043        0.0008       10.6464       10.6471       8.142844       0.00705
  15     218.7        2.5048        0.0009       10.6255       10.6263       8.121574       0.00808
  14     243.0        2.5054        0.0010       10.5980       10.5990       8.093576       0.00971
  13     269.0        2.5065        0.0011       10.5611       10.5622       8.055673       0.01230
  12     297.5        2.5080        0.0012       10.5119       10.5131       8.005080       0.01501
  11     328.5        2.5102        0.0013       10.4499       10.4512       7.940973       0.01743
  10     361.9        2.5130        0.0014       10.3702       10.3716       7.858557       0.02085
   9     398.1        2.5166        0.0016       10.2678       10.2693       7.752710       0.02466
   8     437.6        2.5212        0.0017       10.1390       10.1407       7.619494       0.02848
   7     480.5        2.5270        0.0018        9.9877        9.9895       7.462515       0.03083
   6     533.0        2.5360        0.0020        9.7937        9.7957       7.259722       0.03262
   5     589.8        2.5488        0.0022        9.5752        9.5773       7.028503       0.03432
   4     651.6        2.5694        0.0023        9.2958        9.2981       6.728730       0.04099
   3     718.7        2.6036        0.0025        8.9267        8.9292       6.325647       0.05066
   2     792.3        2.6664        0.0026        8.4542        8.4569       5.790445       0.06138
   1     891.5        0.9028        2.0105        4.0252        6.0357       5.132878       0.05596
   0    1013.0        0.9621        1.8447        3.6543        5.4990       4.536981       0.04138



 Wavenumbers:  4650. -  5150. cm-1, ATM      1
 LEVEL PRESSURE   UPWARD FLUX   DIFDOWN FLUX  DIRDOWN FLUX  DOWNWARD FLUX   NET FLUX    HEATING RATE
          mb          W/m2          W/m2          W/m2        W/m2          W/m2       degree/day
  51    .06700        1.4831        0.0000       10.2033       10.2033       8.720255       0.00000
  50    .07753        1.4831        0.0000       10.2031       10.2031       8.720019       0.18901
  49    .09103        1.4831        0.0000       10.2028       10.2028       8.719724       0.18428
  48    0.1069        1.4831        0.0000       10.2025       10.2025       8.719387       0.17931
  47    0.1255        1.4831        0.0000       10.2021       10.2021       8.719003       0.17426
  46    0.1487        1.4831        0.0000       10.2016       10.2016       8.718522       0.17536
  45    0.1794        1.4831        0.0000       10.2010       10.2010       8.717871       0.17850
  44    0.2165        1.4831        0.0000       10.2002       10.2002       8.717112       0.17277
  43    0.2613        1.4831        0.0000       10.1993       10.1993       8.716226       0.16690
  42    0.3336        1.4831        0.0000       10.1979       10.1979       8.714794       0.16702
  41    0.4307        1.4831        0.0000       10.1960       10.1960       8.712954       0.16002
  40    0.5894        1.4831        0.0000       10.1932       10.1932       8.710080       0.15283
  39     1.339        1.4831        0.0000       10.1816       10.1816       8.698488       0.13050
  38     1.782        1.4831        0.0000       10.1760       10.1760       8.692960       0.10526
  37     2.292        1.4831        0.0000       10.1706       10.1706       8.687503       0.09037
  36     2.964        1.4831        0.0000       10.1646       10.1647       8.681580       0.07435
  35     3.853        1.4831        0.0000       10.1584       10.1584       8.675366       0.05897
  34     5.035        1.4831        0.0000       10.1521       10.1521       8.669031       0.04526
  33     6.613        1.4831        0.0000       10.1456       10.1456       8.662575       0.03452
  32     8.786        1.4831        0.0001       10.1386       10.1386       8.655565       0.02722
  31     11.80        1.4831        0.0001       10.1295       10.1296       8.646526       0.02531
  30     15.07        1.4830        0.0001       10.1196       10.1197       8.636649       0.02550
  29     18.79        1.4830        0.0001       10.1076       10.1077       8.624643       0.02722
  28     23.16        1.4831        0.0001       10.0923       10.0924       8.609341       0.02959
  27     28.12        1.4831        0.0002       10.0731       10.0733       8.590249       0.03246
  26     33.73        1.4831        0.0002       10.0500       10.0502       8.567157       0.03472
  25     40.54        1.4831        0.0002       10.0201       10.0204       8.537255       0.03710
  24     48.69        1.4832        0.0003        9.9820        9.9822       8.499085       0.03950
  23     57.69        1.4832        0.0003        9.9384        9.9388       8.455547       0.04081
  22     68.43        1.4833        0.0004        9.8858        9.8862       8.402813       0.04146
  21     81.20        1.4835        0.0005        9.8234        9.8239       8.340418       0.04123
  20     96.49        1.4837        0.0006        9.7518        9.7523       8.268592       0.03964
  19     114.6        1.4841        0.0007        9.6719        9.6726       8.188523       0.03739
  18     136.5        1.4845        0.0008        9.5858        9.5866       8.102055       0.03325
  17     162.9        1.4852        0.0009        9.4940        9.4950       8.009776       0.02950
  16     196.4        1.4862        0.0011        9.3883        9.3894       7.903146       0.02684
  15     218.7        1.4871        0.0012        9.3229        9.3241       7.837068       0.02509
  14     243.0        1.4882        0.0013        9.2520        9.2533       7.765151       0.02494
  13     269.0        1.4897        0.0015        9.1717        9.1731       7.683471       0.02650
  12     297.5        1.4918        0.0016        9.0763        9.0779       7.586110       0.02888
  11     328.5        1.4946        0.0018        8.9650        8.9667       7.472163       0.03098
  10     361.9        1.4982        0.0019        8.8349        8.8368       7.338650       0.03378
   9     398.1        1.5029        0.0021        8.6820        8.6841       7.181190       0.03668
   8     437.6        1.5091        0.0022        8.5028        8.5051       6.995971       0.03960
   7     480.5        1.5171        0.0024        8.2948        8.2972       6.780097       0.04240
   6     533.0        1.5295        0.0026        8.0209        8.0235       6.494032       0.04602
   5     589.8        1.5467        0.0028        7.7063        7.7091       6.162459       0.04922
   4     651.6        1.5722        0.0029        7.3412        7.3442       5.772007       0.05340
   3     718.7        1.6108        0.0031        6.9387        6.9418       5.330938       0.05543
   2     792.3        1.6724        0.0032        6.5066        6.5098       4.837369       0.05661
   1     891.5        0.2366        1.4504        3.0659        4.5163       4.279704       0.04745
   0    1013.0        0.2563        1.3093        2.7387        4.0480       3.791701       0.03388



 Wavenumbers:  5150. -  6150. cm-1, ATM      1
 LEVEL PRESSURE   UPWARD FLUX   DIFDOWN FLUX  DIRDOWN FLUX  DOWNWARD FLUX   NET FLUX    HEATING RATE
          mb          W/m2          W/m2          W/m2        W/m2          W/m2       degree/day
  51    .06700        4.6006        0.0000       25.5798       25.5798      20.979188       0.00000
  50    .07753        4.6006        0.0000       25.5798       25.5798      20.979149       0.03158
  49    .09103        4.6006        0.0000       25.5797       25.5797      20.979098       0.03207
  48    0.1069        4.6006        0.0000       25.5797       25.5797      20.979036       0.03257
  47    0.1255        4.6006        0.0000       25.5796       25.5796      20.978963       0.03307
  46    0.1487        4.6006        0.0000       25.5795       25.5795      20.978868       0.03485
  45    0.1794        4.6006        0.0000       25.5794       25.5794      20.978733       0.03709
  44    0.2165        4.6006        0.0000       25.5792       25.5792      20.978567       0.03765
  43    0.2613        4.6006        0.0000       25.5790       25.5790      20.978364       0.03823
  42    0.3336        4.6006        0.0000       25.5786       25.5786      20.978018       0.04039
  41    0.4307        4.6006        0.0000       25.5782       25.5782      20.977547       0.04094
  40    0.5894        4.6006        0.0000       25.5774       25.5774      20.976758       0.04194
  39     1.339        4.6006        0.0000       25.5735       25.5736      20.972959       0.04277
  38     1.782        4.6006        0.0000       25.5713       25.5713      20.970747       0.04211
  37     2.292        4.6006        0.0001       25.5688       25.5688      20.968244       0.04145
  36     2.964        4.6006        0.0001       25.5656       25.5656      20.965065       0.03991
  35     3.853        4.6006        0.0001       25.5615       25.5616      20.961025       0.03834
  34     5.035        4.6006        0.0001       25.5562       25.5564      20.955822       0.03716
  33     6.613        4.6005        0.0002       25.5494       25.5496      20.949074       0.03608
  32     8.786        4.6005        0.0002       25.5406       25.5408      20.940331       0.03396
  31     11.80        4.6005        0.0003       25.5287       25.5290      20.928508       0.03310
  30     15.07        4.6005        0.0004       25.5167       25.5171      20.916655       0.03060
  29     18.79        4.6004        0.0005       25.5042       25.5047      20.904267       0.02809
  28     23.16        4.6004        0.0006       25.4907       25.4913      20.890925       0.02580
  27     28.12        4.6004        0.0008       25.4764       25.4772      20.876862       0.02391
  26     33.73        4.6003        0.0009       25.4620       25.4630      20.862617       0.02142
  25     40.54        4.6003        0.0011       25.4463       25.4474      20.847050       0.01931
  24     48.69        4.6003        0.0013       25.4294       25.4307      20.830394       0.01724
  23     57.69        4.6003        0.0016       25.4126       25.4142      20.813870       0.01549
  22     68.43        4.6004        0.0019       25.3944       25.3963      20.795943       0.01409
  21     81.20        4.6004        0.0022       25.3744       25.3767      20.776229       0.01303
  20     96.49        4.6005        0.0027       25.3519       25.3546      20.754086       0.01222
  19     114.6        4.6006        0.0032       25.3262       25.3293      20.728704       0.01185
  18     136.5        4.6008        0.0038       25.2962       25.3000      20.699168       0.01136
  17     162.9        4.6010        0.0045       25.2521       25.2566      20.655570       0.01394
  16     196.4        4.6013        0.0054       25.1593       25.1647      20.563356       0.02321
  15     218.7        4.6016        0.0060       25.0159       25.0219      20.420310       0.05431
  14     243.0        4.6019        0.0065       24.7089       24.7155      20.113523       0.10640
  13     269.0        4.6025        0.0071       24.1619       24.1690      19.566501       0.17745
  12     297.5        4.6033        0.0077       23.4544       23.4621      18.858770       0.20991
  11     328.5        4.6044        0.0083       22.7355       22.7437      18.139272       0.19563
  10     361.9        4.6060        0.0088       21.9224       21.9312      17.325196       0.20597
   9     398.1        4.6083        0.0094       20.9939       21.0033      16.394981       0.21672
   8     437.6        4.6115        0.0099       19.9833       19.9932      15.381693       0.21665
   7     480.5        4.6160        0.0103       18.9483       18.9586      14.342617       0.20407
   6     533.0        4.6238        0.0108       17.7796       17.7904      13.166672       0.18917
   5     589.8        4.6365        0.0114       16.6726       16.6839      12.047471       0.16613
   4     651.6        4.6598        0.0119       15.6343       15.6462      10.986383       0.14511
   3     718.7        4.7025        0.0125       14.7738       14.7863      10.083768       0.11343
   2     792.3        4.7868        0.0132       14.0291       14.0423       9.255464       0.09500
   1     891.5        1.8914        3.4542        6.7559       10.2101       8.318683       0.07972
   0    1013.0        1.9747        3.2145        6.2170        9.4314       7.456721       0.05985



 Wavenumbers:  6150. -  7700. cm-1, ATM      1
 LEVEL PRESSURE   UPWARD FLUX   DIFDOWN FLUX  DIRDOWN FLUX  DOWNWARD FLUX   NET FLUX    HEATING RATE
          mb          W/m2          W/m2          W/m2        W/m2          W/m2       degree/day
  51    .06700        7.4707        0.0000       47.3109       47.3109      39.840141       0.00000
  50    .07753        7.4707        0.0000       47.3108       47.3108      39.840084       0.04553
  49    .09103        7.4707        0.0000       47.3107       47.3107      39.840011       0.04583
  48    0.1069        7.4707        0.0000       47.3106       47.3106      39.839924       0.04614
  47    0.1255        7.4707        0.0000       47.3105       47.3105      39.839822       0.04645
  46    0.1487        7.4707        0.0000       47.3104       47.3104      39.839689       0.04852
  45    0.1794        7.4707        0.0000       47.3102       47.3102      39.839502       0.05127
  44    0.2165        7.4707        0.0000       47.3100       47.3100      39.839275       0.05167
  43    0.2613        7.4707        0.0000       47.3097       47.3097      39.838999       0.05210
  42    0.3336        7.4707        0.0000       47.3092       47.3092      39.838529       0.05471
  41    0.4307        7.4707        0.0000       47.3085       47.3086      39.837894       0.05521
  40    0.5894        7.4707        0.0001       47.3074       47.3075      39.836835       0.05633
  39     1.339        7.4706        0.0001       47.3022       47.3023      39.831743       0.05733
  38     1.782        7.4706        0.0002       47.2991       47.2993      39.828773       0.05655
  37     2.292        7.4705        0.0003       47.2956       47.2959      39.825397       0.05591
  36     2.964        7.4704        0.0003       47.2912       47.2915      39.821079       0.05421
  35     3.853        7.4704        0.0004       47.2855       47.2859      39.815544       0.05252
  34     5.035        7.4703        0.0006       47.2780       47.2786      39.808364       0.05129
  33     6.613        7.4701        0.0008       47.2683       47.2691      39.798976       0.05019
  32     8.786        7.4699        0.0010       47.2556       47.2566      39.786677       0.04777
  31     11.80        7.4696        0.0014       47.2380       47.2394      39.769774       0.04732
  30     15.07        7.4693        0.0017       47.2201       47.2218      39.752487       0.04463
  29     18.79        7.4690        0.0022       47.2008       47.2030      39.734008       0.04190
  28     23.16        7.4686        0.0027       47.1795       47.1822      39.713618       0.03943
  27     28.12        7.4681        0.0033       47.1565       47.1597      39.691625       0.03739
  26     33.73        7.4676        0.0039       47.1324       47.1363      39.668705       0.03446
  25     40.54        7.4670        0.0047       47.1054       47.1101      39.643071       0.03180
  24     48.69        7.4662        0.0056       47.0754       47.0811      39.614820       0.02924
  23     57.69        7.4654        0.0067       47.0449       47.0516      39.586201       0.02683
  22     68.43        7.4644        0.0079       47.0110       47.0189      39.554469       0.02495
  21     81.20        7.4632        0.0094       46.9729       46.9822      39.518981       0.02345
  20     96.49        7.4618        0.0111       46.9294       46.9405      39.478648       0.02226
  19     114.6        7.4602        0.0132       46.8790       46.8922      39.432028       0.02177
  18     136.5        7.4582        0.0157       46.8200       46.8356      39.377424       0.02100
  17     162.9        7.4559        0.0186       46.7361       46.7547      39.298838       0.02512
  16     196.4        7.4529        0.0224       46.5703       46.5927      39.139731       0.04005
  15     218.7        7.4511        0.0248       46.3473       46.3721      38.921085       0.08301
  14     243.0        7.4492        0.0274       45.9299       45.9573      38.508080       0.14324
  13     269.0        7.4474        0.0299       45.1708       45.2007      37.753258       0.24486
  12     297.5        7.4462        0.0324       44.0115       44.0438      36.597689       0.34273
  11     328.5        7.4455        0.0348       42.7242       42.7591      35.313611       0.34914
  10     361.9        7.4457        0.0373       41.3539       41.3913      33.945567       0.34613
   9     398.1        7.4475        0.0397       39.7953       39.8350      32.387541       0.36299
   8     437.6        7.4517        0.0419       37.9948       38.0367      30.585006       0.38539
   7     480.5        7.4596        0.0440       36.0647       36.1087      28.649112       0.38020
   6     533.0        7.4758        0.0461       33.7773       33.8234      26.347599       0.37024
   5     589.8        7.5056        0.0479       31.4082       31.4561      23.950489       0.35581
   4     651.6        7.5649        0.0493       28.8834       28.9327      21.367736       0.35320
   3     718.7        7.6785        0.0504       26.4104       26.4607      18.782193       0.32493
   2     792.3        7.9139        0.0511       24.0056       24.0567      16.142841       0.30270
   1     891.5        3.2126        5.6473       10.9651       16.6124      13.399827       0.23342
   0    1013.0        3.4561        5.0389        9.6121       14.6510      11.194898       0.15310



 Wavenumbers:  7700. -  8050. cm-1, ATM      1
 LEVEL PRESSURE   UPWARD FLUX   DIFDOWN FLUX  DIRDOWN FLUX  DOWNWARD FLUX   NET FLUX    HEATING RATE
          mb          W/m2          W/m2          W/m2        W/m2          W/m2       degree/day
  51    .06700        6.0059        0.0000       11.1810       11.1810       5.175059       0.00000
  50    .07753        6.0059        0.0000       11.1809       11.1809       5.175038       0.01747
  49    .09103        6.0059        0.0000       11.1809       11.1809       5.175010       0.01712
  48    0.1069        6.0059        0.0000       11.1809       11.1809       5.174979       0.01676
  47    0.1255        6.0059        0.0000       11.1809       11.1809       5.174943       0.01640
  46    0.1487        6.0059        0.0000       11.1808       11.1808       5.174897       0.01664
  45    0.1794        6.0059        0.0000       11.1808       11.1808       5.174835       0.01712
  44    0.2165        6.0060        0.0000       11.1807       11.1807       5.174761       0.01680
  43    0.2613        6.0060        0.0000       11.1806       11.1806       5.174673       0.01648
  42    0.3336        6.0060        0.0000       11.1805       11.1805       5.174529       0.01687
  41    0.4307        6.0060        0.0000       11.1803       11.1804       5.174337       0.01668
  40    0.5894        6.0061        0.0000       11.1801       11.1801       5.174023       0.01666
  39     1.339        6.0063        0.0001       11.1788       11.1789       5.172541       0.01669
  38     1.782        6.0065        0.0001       11.1781       11.1782       5.171670       0.01658
  37     2.292        6.0067        0.0001       11.1772       11.1773       5.170662       0.01669
  36     2.964        6.0069        0.0002       11.1761       11.1762       5.169339       0.01661
  35     3.853        6.0072        0.0002       11.1746       11.1748       5.167590       0.01659
  34     5.035        6.0076        0.0003       11.1726       11.1729       5.165268       0.01659
  33     6.613        6.0082        0.0004       11.1700       11.1703       5.162166       0.01658
  32     8.786        6.0089        0.0005       11.1664       11.1669       5.157988       0.01623
  31     11.80        6.0099        0.0007       11.1613       11.1619       5.152014       0.01672
  30     15.07        6.0111        0.0008       11.1558       11.1567       5.145606       0.01655
  29     18.79        6.0123        0.0010       11.1497       11.1507       5.138374       0.01640
  28     23.16        6.0138        0.0013       11.1425       11.1438       5.129938       0.01631
  27     28.12        6.0156        0.0016       11.1343       11.1359       5.120306       0.01637
  26     33.73        6.0175        0.0019       11.1252       11.1271       5.109547       0.01618
  25     40.54        6.0199        0.0022       11.1142       11.1164       5.096579       0.01609
  24     48.69        6.0227        0.0027       11.1010       11.1037       5.080991       0.01613
  23     57.69        6.0258        0.0032       11.0866       11.0898       5.063926       0.01600
  22     68.43        6.0296        0.0038       11.0695       11.0733       5.043682       0.01591
  21     81.20        6.0341        0.0045       11.0494       11.0538       5.019681       0.01586
  20     96.49        6.0396        0.0053       11.0255       11.0308       4.991245       0.01569
  19     114.6        6.0461        0.0063       10.9975       11.0038       4.957711       0.01566
  18     136.5        6.0539        0.0074       10.9648       10.9722       4.918276       0.01516
  17     162.9        6.0634        0.0088       10.9263       10.9351       4.871734       0.01488
  16     196.4        6.0759        0.0106       10.8773       10.8879       4.812015       0.01503
  15     218.7        6.0842        0.0118       10.8455       10.8574       4.773133       0.01476
  14     243.0        6.0934        0.0131       10.8114       10.8245       4.731107       0.01458
  13     269.0        6.1036        0.0145       10.7749       10.7894       4.685761       0.01471
  12     297.5        6.1148        0.0160       10.7357       10.7517       4.636854       0.01451
  11     328.5        6.1273        0.0176       10.6937       10.7113       4.584055       0.01436
  10     361.9        6.1411        0.0193       10.6489       10.6682       4.527117       0.01441
   9     398.1        6.1564        0.0212       10.6008       10.6219       4.465515       0.01435
   8     437.6        6.1737        0.0232       10.5491       10.5723       4.398594       0.01431
   7     480.5        6.1930        0.0253       10.4934       10.5188       4.325745       0.01431
   6     533.0        6.2183        0.0280       10.4243       10.4523       4.233979       0.01476
   5     589.8        6.2477        0.0308       10.3479       10.3787       4.130962       0.01529
   4     651.6        6.2831        0.0338       10.2613       10.2952       4.012073       0.01626
   3     718.7        6.3265        0.0371       10.1618       10.1988       3.872349       0.01756
   2     792.3        6.3815        0.0405       10.0439       10.0844       3.702828       0.01944
   1     891.5        4.8881        3.2617        5.0926        8.3543       3.466204       0.02014
   0    1013.0        4.9932        3.1929        4.9623        8.1552       3.161917       0.02113



 Wavenumbers:  8050. - 12850. cm-1, ATM      1
 LEVEL PRESSURE   UPWARD FLUX   DIFDOWN FLUX  DIRDOWN FLUX  DOWNWARD FLUX   NET FLUX    HEATING RATE
          mb          W/m2          W/m2          W/m2        W/m2          W/m2       degree/day
  51    .06700       96.1982        0.0000      156.5418      156.5418      60.343587       0.00000
  50    .07753       96.1982        0.0000      156.5417      156.5417      60.343587      -0.00000
  49    .09103       96.1981        0.0001      156.5417      156.5417      60.343587       0.00000
  48    0.1069       96.1981        0.0001      156.5416      156.5417      60.343587      -0.00000
  47    0.1255       96.1981        0.0002      156.5415      156.5417      60.343587       0.00000
  46    0.1487       96.1981        0.0002      156.5414      156.5417      60.343587      -0.00000
  45    0.1794       96.1980        0.0003      156.5413      156.5416      60.343587       0.00000
  44    0.2165       96.1980        0.0004      156.5412      156.5416      60.343587      -0.00000
  43    0.2613       96.1980        0.0006      156.5410      156.5415      60.343587      -0.00000
  42    0.3336       96.1979        0.0008      156.5407      156.5415      60.343587       0.00000
  41    0.4307       96.1978        0.0010      156.5403      156.5414      60.343587      -0.00000
  40    0.5894       96.1976        0.0015      156.5397      156.5412      60.343587       0.00000
  39     1.339       96.1968        0.0036      156.5367      156.5404      60.343587      -0.00000
  38     1.782       96.1963        0.0049      156.5350      156.5399      60.343587       0.00000
  37     2.292       96.1957        0.0064      156.5330      156.5393      60.343587      -0.00000
  36     2.964       96.1950        0.0083      156.5303      156.5386      60.343587       0.00000
  35     3.853       96.1941        0.0108      156.5268      156.5376      60.343587      -0.00000
  34     5.035       96.1928        0.0142      156.5222      156.5364      60.343587       0.00000
  33     6.613       96.1911        0.0187      156.5160      156.5347      60.343587      -0.00000
  32     8.786       96.1888        0.0247      156.5076      156.5324      60.343587      -0.00000
  31     11.80       96.1855        0.0334      156.4957      156.5291      60.343587      -0.00000
  30     15.07       96.1819        0.0427      156.4828      156.5255      60.343587       0.00000
  29     18.79       96.1779        0.0533      156.4682      156.5215      60.343587      -0.00000
  28     23.16       96.1732        0.0656      156.4512      156.5168      60.343587       0.00000
  27     28.12       96.1678        0.0797      156.4317      156.5114      60.343587      -0.00000
  26     33.73       96.1618        0.0956      156.4099      156.5054      60.343587       0.00000
  25     40.54       96.1545        0.1147      156.3834      156.4981      60.343587       0.00000
  24     48.69       96.1458        0.1378      156.3515      156.4893      60.343587      -0.00000
  23     57.69       96.1361        0.1632      156.3164      156.4797      60.343587      -0.00000
  22     68.43       96.1245        0.1936      156.2746      156.4681      60.343587       0.00000
  21     81.20       96.1108        0.2298      156.2246      156.4544      60.343587       0.00000
  20     96.49       96.0943        0.2730      156.1649      156.4379      60.343587       0.00000
  19     114.6       96.0750        0.3244      156.0879      156.4123      60.337362       0.00291
  18     136.5       96.0519        0.3854      155.9962      156.3816      60.329641       0.00297
  17     162.9       96.0245        0.4583      155.8831      156.3413      60.316829       0.00410
  16     196.4       95.9889        0.5530      155.7199      156.2729      60.284001       0.00826
  15     218.7       95.9658        0.6153      155.5733      156.1886      60.222817       0.02323
  14     243.0       95.9413        0.6830      155.3367      156.0197      60.078447       0.05007
  13     269.0       95.9162        0.7563      154.9514      155.7077      59.791499       0.09308
  12     297.5       95.8921        0.8351      154.3896      155.2247      59.332622       0.13610
  11     328.5       95.8700        0.9201      153.7151      154.6352      58.765280       0.15426
  10     361.9       95.8518        1.0114      152.9087      153.9201      58.068343       0.17633
   9     398.1       95.8410        1.1090      151.8986      153.0076      57.166606       0.21008
   8     437.6       95.8435        1.2128      150.6031      151.8160      55.972490       0.25531
   7     480.5       95.8664        1.3226      149.0014      150.3240      54.457691       0.29750
   6     533.0       95.9326        1.4555      146.7375      148.1930      52.260413       0.35347
   5     589.8       96.0745        1.5947      143.8730      145.4677      49.393241       0.42558
   4     651.6       96.3760        1.7376      140.0955      141.8331      45.457150       0.53827
   3     718.7       96.9537        1.8828      135.5278      137.4106      40.456917       0.62839
   2     792.3       98.0826        2.0269      130.0690      132.0959      34.013257       0.73902
   1     891.5       83.9327       45.8706       63.0713      108.9418      25.009154       0.76621
   0    1013.0       87.7291       43.5036       58.3323      101.8359      14.106859       0.75700



 Wavenumbers: 12850. - 16000. cm-1, ATM      1
 LEVEL PRESSURE   UPWARD FLUX   DIFDOWN FLUX  DIRDOWN FLUX  DOWNWARD FLUX   NET FLUX    HEATING RATE
          mb          W/m2          W/m2          W/m2        W/m2          W/m2       degree/day
  51    .06700       80.0056        0.0000       98.0872       98.0872      18.081616       0.00000
  50    .07753       80.0056        0.0001       98.0864       98.0864      18.080824       0.63474
  49    .09103       80.0056        0.0002       98.0853       98.0855      18.079829       0.62170
  48    0.1069       80.0056        0.0003       98.0841       98.0843      18.078686       0.60841
  47    0.1255       80.0056        0.0004       98.0826       98.0830      18.077373       0.59543
  46    0.1487       80.0057        0.0005       98.0809       98.0814      18.075715       0.60429
  45    0.1794       80.0057        0.0007       98.0784       98.0792      18.073460       0.61920
  44    0.2165       80.0058        0.0010       98.0756       98.0766      18.070806       0.60367
  43    0.2613       80.0059        0.0013       98.0723       98.0736      18.067684       0.58837
  42    0.3336       80.0062        0.0017       98.0670       98.0687      18.062589       0.59413
  41    0.4307       80.0065        0.0023       98.0602       98.0625      18.055997       0.57313
  40    0.5894       80.0073        0.0034       98.0496       98.0530      18.045606       0.55259
  39     1.339       80.0141        0.0082       98.0043       98.0125      17.998454       0.53084
  38     1.782       80.0202        0.0110       97.9793       97.9903      17.970104       0.53974
  37     2.292       80.0293        0.0143       97.9498       97.9641      17.934765       0.58531
  36     2.964       80.0444        0.0186       97.9088       97.9274      17.883043       0.64927
  35     3.853       80.0686        0.0243       97.8503       97.8746      17.805986       0.73128
  34     5.035       80.1052        0.0318       97.7680       97.7998      17.694659       0.79527
  33     6.613       80.1561        0.0419       97.6562       97.6981      17.541952       0.81637
  32     8.786       80.2225        0.0554       97.5107       97.5661      17.343612       0.77028
  31     11.80       80.3090        0.0748       97.3179       97.3927      17.083714       0.72763
  30     15.07       80.3919        0.0956       97.1283       97.2239      16.832051       0.64975
  29     18.79       80.4766        0.1191       96.9300       97.0491      16.572454       0.58859
  28     23.16       80.5653        0.1464       96.7166       96.8630      16.297675       0.53133
  27     28.12       80.6548        0.1777       96.4935       96.6712      16.016456       0.47805
  26     33.73       80.7377        0.2127       96.2731       96.4858      15.748182       0.40336
  25     40.54       80.8179        0.2551       96.0408       96.2958      15.477922       0.33529
  24     48.69       80.8953        0.3061       95.7946       96.1006      15.205313       0.28211
  23     57.69       80.9616        0.3621       95.5573       95.9194      14.957762       0.23204
  22     68.43       81.0203        0.4289       95.3106       95.7395      14.719219       0.18753
  21     81.20       81.0624        0.5086       95.0643       95.5729      14.510550       0.13789
  20     96.49       81.0868        0.6036       94.8153       95.4189      14.332125       0.09848
  19     114.6       81.1166        0.7177       94.5411       95.2588      14.142149       0.08871
  18     136.5       81.1404        0.8529       94.2320       95.0850      13.944606       0.07596
  17     162.9       81.1580        1.0139       93.8753       94.8893      13.731291       0.06818
  16     196.4       81.1582        1.2228       93.4347       94.6574      13.499243       0.05841
  15     218.7       81.1502        1.3599       93.1513       94.5112      13.360969       0.05250
  14     243.0       81.1381        1.5090       92.8439       94.3529      13.214801       0.05070
  13     269.0       81.1218        1.6706       92.5111       94.1817      13.059834       0.05027
  12     297.5       81.1019        1.8452       92.1495       93.9946      12.892744       0.04956
  11     328.5       81.0803        2.0338       91.7554       93.7892      12.708900       0.04999
  10     361.9       81.0580        2.2370       91.3262       93.5632      12.505162       0.05155
   9     398.1       81.0364        2.4556       90.8575       93.3131      12.276717       0.05322
   8     437.6       81.0183        2.6902       90.3418       93.0320      12.013700       0.05623
   7     480.5       81.0067        2.9416       89.7728       92.7144      11.707760       0.06009
   6     533.0       81.0075        3.2508       89.0428       92.2937      11.286155       0.06782
   5     589.8       81.0369        3.5832       88.2038       91.7871      10.750167       0.07956
   4     651.6       81.1270        3.9386       87.1979       91.1365      10.009518       0.10129
   3     718.7       81.3004        4.3152       86.0161       90.3314       9.031047       0.12297
   2     792.3       81.6273        4.7094       84.5970       89.3065       7.679159       0.15505
   1     891.5       74.3914       37.3347       42.5754       79.9101       5.518686       0.18385
   0    1013.0       75.6467       36.9683       41.1196       78.0879       2.441167       0.21369



 Wavenumbers: 16000. - 22650. cm-1, ATM      1
 LEVEL PRESSURE   UPWARD FLUX   DIFDOWN FLUX  DIRDOWN FLUX  DOWNWARD FLUX   NET FLUX    HEATING RATE
          mb          W/m2          W/m2          W/m2        W/m2          W/m2       degree/day
  51    .06700      140.5580        0.0000      156.3892      156.3892      15.831215       0.00000
  50    .07753      140.5580        0.0004      156.3887      156.3891      15.831067       0.11806
  49    .09103      140.5580        0.0009      156.3879      156.3888      15.830853       0.13391
  48    0.1069      140.5580        0.0015      156.3871      156.3885      15.830566       0.15270
  47    0.1255      140.5580        0.0021      156.3861      156.3882      15.830182       0.17406
  46    0.1487      140.5581        0.0030      156.3847      156.3877      15.829616       0.20625
  45    0.1794      140.5582        0.0041      156.3828      156.3869      15.828732       0.24285
  44    0.2165      140.5584        0.0054      156.3805      156.3859      15.827532       0.27293
  43    0.2613      140.5587        0.0070      156.3776      156.3846      15.825904       0.30684
  42    0.3336      140.5595        0.0096      156.3726      156.3823      15.822809       0.36084
  41    0.4307      140.5607        0.0131      156.3657      156.3788      15.818144       0.40563
  40    0.5894      140.5633        0.0188      156.3537      156.3725      15.809247       0.47314
  39     1.339      140.5857        0.0458      156.2834      156.3292      15.743513       0.74004
  38     1.782      140.6065        0.0616      156.2324      156.2940      15.687516       1.06610
  37     2.292      140.6376        0.0799      156.1641      156.2440      15.606459       1.34251
  36     2.964      140.6893        0.1040      156.0605      156.1645      15.475148       1.64836
  35     3.853      140.7730        0.1357      155.9041      156.0398      15.266788       1.97737
  34     5.035      140.8993        0.1779      155.6774      155.8552      14.955934       2.22062
  33     6.613      141.0758        0.2341      155.3656      155.5997      14.523939       2.30944
  32     8.786      141.3056        0.3098      154.9577      155.2674      13.961822       2.18306
  31     11.80      141.6047        0.4178      154.4153      154.8331      13.228413       2.05331
  30     15.07      141.8912        0.5337      153.8804      154.4141      12.522907       1.82148
  29     18.79      142.1836        0.6644      153.3191      153.9835      11.799840       1.63942
  28     23.16      142.4893        0.8168      152.7126      153.5294      11.040093       1.46910
  27     28.12      142.7968        0.9909      152.0755      153.0664      10.269595       1.30979
  26     33.73      143.0805        1.1854      151.4409      152.6264       9.545878       1.08813
  25     40.54      143.3534        1.4203      150.7637      152.1840       8.830596       0.88739
  24     48.69      143.6146        1.7032      150.0338      151.7370       8.122468       0.73280
  23     57.69      143.8358        2.0135      149.3151      151.3287       7.492881       0.59014
  22     68.43      144.0285        2.3827      148.5476      150.9303       6.901874       0.46461
  21     81.20      144.1610        2.8223      147.7517      150.5740       6.412982       0.32305
  20     96.49      144.2289        3.3456      146.9127      150.2582       6.029330       0.21175
  19     114.6      144.2634        3.9651      145.9763      149.9414       5.678028       0.16403
  18     136.5      144.2730        4.6966      144.9088      149.6054       5.332443       0.13289
  17     162.9      144.2559        5.5636      143.6785      149.2422       4.986272       0.11065
  16     196.4      144.1724        6.6823      142.1651      148.8474       4.674931       0.07837
  15     218.7      144.0952        7.4134      141.2033      148.6167       4.521553       0.05823
  14     243.0      144.0008        8.2046      140.1753      148.3799       4.379100       0.04941
  13     269.0      143.8879        9.0582      139.0797      148.1379       4.249990       0.04188
  12     297.5      143.7556        9.9761      137.9141      147.8902       4.134603       0.03422
  11     328.5      143.6081       10.9628      136.6676      147.6304       4.022321       0.03053
  10     361.9      143.4450       12.0191      135.3392      147.3583       3.913287       0.02759
   9     398.1      143.2659       13.1491      133.9235      147.0726       3.806613       0.02485
   8     437.6      143.0718       14.3547      132.4163      146.7709       3.699169       0.02297
   7     480.5      142.8621       15.6381      130.8147      146.4528       3.590668       0.02131
   6     533.0      142.6041       17.2056      128.8599      146.0655       3.461388       0.02080
   5     589.8      142.3300       18.8804      126.7679      145.6483       3.318322       0.02124
   4     651.6      142.0461       20.6641      124.5274      145.1915       3.145459       0.02364
   3     718.7      141.7585       22.5585      122.1285      144.6869       2.928413       0.02728
   2     792.3      141.4841       24.5613      119.5548      144.1162       2.632068       0.03399
   1     891.5      131.6829       73.8667       59.9347      133.8015       2.118595       0.04369
   0    1013.0      131.7141       75.3032       57.7573      133.0605       1.346396       0.05362



 Wavenumbers: 22650. - 29000. cm-1, ATM      1
 LEVEL PRESSURE   UPWARD FLUX   DIFDOWN FLUX  DIRDOWN FLUX  DOWNWARD FLUX   NET FLUX    HEATING RATE
          mb          W/m2          W/m2          W/m2        W/m2          W/m2       degree/day
  51    .06700       58.6810        0.0000       59.0156       59.0156       0.334641       0.00000
  50    .07753       58.6809        0.0005       59.0151       59.0155       0.334641       0.00000
  49    .09103       58.6808        0.0010       59.0144       59.0154       0.334641      -0.00000
  48    0.1069       58.6806        0.0017       59.0136       59.0153       0.334641       0.00000
  47    0.1255       58.6805        0.0025       59.0127       59.0151       0.334641      -0.00000
  46    0.1487       58.6803        0.0035       59.0115       59.0149       0.334641       0.00000
  45    0.1794       58.6800        0.0048       59.0099       59.0147       0.334641      -0.00000
  44    0.2165       58.6797        0.0063       59.0080       59.0144       0.334641       0.00000
  43    0.2613       58.6794        0.0082       59.0058       59.0140       0.334641      -0.00000
  42    0.3336       58.6788        0.0113       59.0022       59.0134       0.334641       0.00000
  41    0.4307       58.6780        0.0154       58.9973       59.0127       0.334641      -0.00000
  40    0.5894       58.6767        0.0220       58.9894       59.0114       0.334641       0.00000
  39     1.339       58.6707        0.0535       58.9518       59.0053       0.334641       0.00000
  38     1.782       58.6671        0.0720       58.9297       59.0017       0.334641       0.00000
  37     2.292       58.6630        0.0934       58.9042       58.9976       0.334641      -0.00000
  36     2.964       58.6576        0.1216       58.8706       58.9922       0.334641       0.00000
  35     3.853       58.6504        0.1587       58.8264       58.9851       0.334641      -0.00000
  34     5.035       58.6409        0.2080       58.7676       58.9756       0.334641       0.00000
  33     6.613       58.6283        0.2738       58.6891       58.9629       0.334641      -0.00000
  32     8.786       58.6112        0.3624       58.5834       58.9458       0.334641       0.00000
  31     11.80       58.5868        0.4890       58.4324       58.9215       0.334641      -0.00000
  30     15.07       58.5607        0.6247       58.2706       58.8953       0.334641       0.00000
  29     18.79       58.5312        0.7776       58.0882       58.8659       0.334641      -0.00000
  28     23.16       58.4969        0.9559       57.8757       58.8316       0.334641       0.00000
  27     28.12       58.4578        1.1591       57.6333       58.7924       0.334641       0.00000
  26     33.73       58.4141        1.3857       57.3631       58.7488       0.334641       0.00000
  25     40.54       58.3616        1.6584       57.0379       58.6963       0.334641      -0.00000
  24     48.69       58.2986        1.9854       56.6479       58.6333       0.334641       0.00000
  23     57.69       58.2298        2.3424       56.2221       58.5645       0.334641      -0.00000
  22     68.43       58.1485        2.7646       55.7186       58.4831       0.334641      -0.00000
  21     81.20       58.0524        3.2631       55.1239       58.3871       0.334641       0.00000
  20     96.49       57.9391        3.8510       54.4228       58.2738       0.334641       0.00000
  19     114.6       57.8063        4.5399       53.6010       58.1409       0.334641      -0.00000
  18     136.5       57.6512        5.3441       52.6418       57.9858       0.334641      -0.00000
  17     162.9       57.4698        6.2841       51.5203       57.8045       0.334641       0.00000
  16     196.4       57.2400        7.4752       50.0994       57.5746       0.334641       0.00000
  15     218.7       57.0922        8.2406       49.1863       57.4268       0.334641       0.00000
  14     243.0       56.9343        9.0577       48.2113       57.2690       0.334641      -0.00000
  13     269.0       56.7665        9.9262       47.1749       57.1012       0.334641      -0.00000
  12     297.5       56.5889       10.8452       46.0783       56.9235       0.334641       0.00000
  11     328.5       56.4011       11.8162       44.9195       56.7357       0.334641      -0.00000
  10     361.9       56.2036       12.8364       43.7018       56.5383       0.334641       0.00000
   9     398.1       55.9965       13.9061       42.4250       56.3311       0.334641       0.00000
   8     437.6       55.7801       15.0231       41.0916       56.1147       0.334641      -0.00000
   7     480.5       55.5547       16.1849       39.7045       55.8894       0.334641       0.00000
   6     533.0       55.2865       17.5669       38.0543       55.6211       0.334641      -0.00000
   5     589.8       55.0081       18.9997       36.3431       55.3427       0.334641      -0.00000
   4     651.6       54.7209       20.4760       34.5795       55.0555       0.334641       0.00000
   3     718.7       54.4259       21.9903       32.7702       54.7605       0.334641       0.00000
   2     792.3       54.1247       23.5337       30.9256       54.4593       0.334641       0.00000
   1     891.5       51.4610       37.0378       14.7578       51.7956       0.334577       0.00001
   0    1013.0       51.2342       38.1595       13.4093       51.5688       0.334577       0.00000



 Wavenumbers: 29000. - 38000. cm-1, ATM      1
 LEVEL PRESSURE   UPWARD FLUX   DIFDOWN FLUX  DIRDOWN FLUX  DOWNWARD FLUX   NET FLUX    HEATING RATE
          mb          W/m2          W/m2          W/m2        W/m2          W/m2       degree/day
  51    .06700        8.7685        0.0000       20.8114       20.8114      12.042859       0.00000
  50    .07753        8.7683        0.0003       20.8070       20.8074      12.039051       3.05155
  49    .09103        8.7681        0.0007       20.8009       20.8016      12.033514       3.46085
  48    0.1069        8.7678        0.0012       20.7928       20.7939      12.026104       3.94429
  47    0.1255        8.7675        0.0017       20.7820       20.7837      12.016200       4.49034
  46    0.1487        8.7672        0.0024       20.7665       20.7688      12.001636       5.30844
  45    0.1794        8.7667        0.0033       20.7424       20.7457      11.978972       6.22204
  44    0.2165        8.7662        0.0044       20.7103       20.7147      11.948449       6.94341
  43    0.2613        8.7656        0.0056       20.6675       20.6731      11.907454       7.72733
  42    0.3336        8.7648        0.0077       20.5880       20.5957      11.830893       8.92626
  41    0.4307        8.7637        0.0104       20.4722       20.4826      11.718940       9.73403
  40    0.5894        8.7621        0.0147       20.2637       20.2784      11.516256      10.77848
  39     1.339        8.7587        0.0331       19.0984       19.1315      10.372777      12.87350
  38     1.782        8.7592        0.0427       18.4394       18.4821       9.722852      12.37354
  37     2.292        8.7619        0.0530       17.7714       17.8244       9.062505      10.93707
  36     2.964        8.7685        0.0657       17.0421       17.1078       8.339377       9.07744
  35     3.853        8.7813        0.0816       16.2678       16.3495       7.568193       7.31868
  34     5.035        8.8024        0.1018       15.4803       15.5821       6.779690       5.63273
  33     6.613        8.8332        0.1276       14.7157       14.8433       6.010096       4.11425
  32     8.786        8.8738        0.1614       13.9936       14.1549       5.281133       2.83103
  31     11.80        8.9268        0.2084       13.2835       13.4920       4.565152       2.00452
  30     15.07        8.9780        0.2573       12.7394       12.9966       4.018659       1.41094
  29     18.79        9.0308        0.3114       12.2666       12.5780       3.547192       1.06896
  28     23.16        9.0869        0.3729       11.8300       12.2029       3.116028       0.83373
  27     28.12        9.1444        0.4418       11.4279       11.8697       2.725306       0.66420
  26     33.73        9.1975        0.5178       11.0695       11.5873       2.389770       0.50449
  25     40.54        9.2479        0.6086       10.7209       11.3294       2.081569       0.38236
  24     48.69        9.2954        0.7162       10.3742       11.0904       1.794975       0.29658
  23     57.69        9.3345        0.8328       10.0549       10.8877       1.553178       0.22665
  22     68.43        9.3662        0.9695        9.7327       10.7023       1.336102       0.17065
  21     81.20        9.3814        1.1310        9.4134       10.5444       1.163001       0.11438
  20     96.49        9.3783        1.3208        9.0887       10.4095       1.031227       0.07273
  19     114.6        9.3649        1.5401        8.7388       10.2789       0.913927       0.05477
  18     136.5        9.3443        1.7908        8.3549       10.1457       0.801372       0.04328
  17     162.9        9.3166        2.0766        7.9311       10.0078       0.691164       0.03523
  16     196.4        9.2698        2.4307        7.4333        9.8640       0.594155       0.02442
  15     218.7        9.2361        2.6534        7.1295        9.7829       0.546840       0.01796
  14     243.0        9.1991        2.8862        6.8161        9.7023       0.503148       0.01515
  13     269.0        9.1587        3.1283        6.4943        9.6226       0.463914       0.01273
  12     297.5        9.1150        3.3785        6.1657        9.5443       0.429328       0.01026
  11     328.5        9.0693        3.6360        5.8295        9.4655       0.396213       0.00900
  10     361.9        9.0221        3.8982        5.4886        9.3869       0.364717       0.00797
   9     398.1        8.9737        4.1646        5.1440        9.3085       0.334869       0.00695
   8     437.6        8.9244        4.4336        4.7969        9.2305       0.306093       0.00615
   7     480.5        8.8747        4.7031        4.4504        9.1534       0.278777       0.00536
   6     533.0        8.8177        5.0104        4.0563        9.0667       0.248997       0.00479
   5     589.8        8.7615        5.3135        3.6682        8.9817       0.220162       0.00428
   4     651.6        8.7072        5.6086        3.2905        8.8991       0.191949       0.00386
   3     718.7        8.6551        5.8942        2.9252        8.8194       0.164313       0.00347
   2     792.3        8.6061        6.1669        2.5764        8.7433       0.137259       0.00310
   1     891.5        8.3553        7.3412        1.1185        8.4597       0.104383       0.00280
   0    1013.0        8.3328        7.4962        0.9051        8.4013       0.068464       0.00249



 Wavenumbers: 38000. - 50000. cm-1, ATM      1
 LEVEL PRESSURE   UPWARD FLUX   DIFDOWN FLUX  DIRDOWN FLUX  DOWNWARD FLUX   NET FLUX    HEATING RATE
          mb          W/m2          W/m2          W/m2        W/m2          W/m2       degree/day
  51    .06700        0.0061        0.0000        1.2836        1.2836       1.277518       0.00000
  50    .07753        0.0061        0.0001        1.2812        1.2812       1.275183       1.87150
  49    .09103        0.0060        0.0002        1.2777        1.2778       1.271851       2.08247
  48    0.1069        0.0059        0.0002        1.2731        1.2734       1.267473       2.33059
  47    0.1255        0.0058        0.0004        1.2672        1.2675       1.261717       2.60908
  46    0.1487        0.0057        0.0005        1.2586        1.2591       1.253391       3.03499
  45    0.1794        0.0055        0.0007        1.2455        1.2462       1.240623       3.50520
  44    0.2165        0.0054        0.0009        1.2282        1.2291       1.223697       3.85037
  43    0.2613        0.0052        0.0011        1.2054        1.2065       1.201348       4.21261
  42    0.3336        0.0049        0.0015        1.1639        1.1654       1.160524       4.75970
  41    0.4307        0.0045        0.0020        1.1051        1.1070       1.102565       5.03943
  40    0.5894        0.0039        0.0026        1.0039        1.0064       1.002524       5.32007
  39     1.339        0.0022        0.0035        0.5438        0.5473       0.545104       5.14971
  38     1.782        0.0016        0.0032        0.3635        0.3666       0.365006       3.42879
  37     2.292        0.0012        0.0027        0.2356        0.2383       0.237058       2.11916
  36     2.964        0.0009        0.0022        0.1455        0.1477       0.146786       1.13318
  35     3.853        0.0006        0.0017        0.0858        0.0875       0.086906       0.56828
  34     5.035        0.0004        0.0013        0.0488        0.0501       0.049701       0.26578
  33     6.613        0.0003        0.0010        0.0273        0.0282       0.027974       0.11615
  32     8.786        0.0002        0.0007        0.0144        0.0151       0.014928       0.05067
  31     11.80        0.0001        0.0004        0.0065        0.0070       0.006903       0.02247
  30     15.07        0.0000        0.0003        0.0031        0.0034       0.003329       0.00923
  29     18.79        0.0000        0.0002        0.0014        0.0016       0.001583       0.00396
  28     23.16        0.0000        0.0001        0.0006        0.0007       0.000720       0.00167
  27     28.12        0.0000        0.0001        0.0003        0.0003       0.000317       0.00069
  26     33.73        0.0000        0.0000        0.0001        0.0001       0.000140       0.00027
  25     40.54        0.0000        0.0000        0.0000        0.0001       0.000057       0.00010
  24     48.69        0.0000        0.0000        0.0000        0.0000       0.000021       0.00004
  23     57.69        0.0000        0.0000        0.0000        0.0000       0.000008       0.00001
  22     68.43        0.0000        0.0000        0.0000        0.0000       0.000003       0.00000
  21     81.20        0.0000        0.0000        0.0000        0.0000       0.000001       0.00000
  20     96.49        0.0000        0.0000        0.0000        0.0000       0.000000       0.00000
  19     114.6        0.0000        0.0000        0.0000        0.0000       0.000000       0.00000
  18     136.5        0.0000        0.0000        0.0000        0.0000       0.000000       0.00000
  17     162.9        0.0000        0.0000        0.0000        0.0000       0.000000       0.00000
  16     196.4        0.0000        0.0000        0.0000        0.0000       0.000000       0.00000
  15     218.7        0.0000        0.0000        0.0000        0.0000       0.000000       0.00000
  14     243.0        0.0000        0.0000        0.0000        0.0000       0.000000       0.00000
  13     269.0        0.0000        0.0000        0.0000        0.0000       0.000000       0.00000
  12     297.5        0.0000        0.0000        0.0000        0.0000       0.000000       0.00000
  11     328.5        0.0000        0.0000        0.0000        0.0000       0.000000       0.00000
  10     361.9        0.0000        0.0000        0.0000        0.0000       0.000000       0.00000
   9     398.1        0.0000        0.0000        0.0000        0.0000       0.000000       0.00000
   8     437.6        0.0000        0.0000        0.0000        0.0000       0.000000       0.00000
   7     480.5        0.0000        0.0000        0.0000        0.0000       0.000000       0.00000
   6     533.0        0.0000        0.0000        0.0000        0.0000       0.000000       0.00000
   5     589.8        0.0000        0.0000        0.0000        0.0000       0.000000       0.00000
   4     651.6        0.0000        0.0000        0.0000        0.0000       0.000000       0.00000
   3     718.7        0.0000        0.0000        0.0000        0.0000       0.000000       0.00000
   2     792.3        0.0000        0.0000        0.0000        0.0000       0.000000       0.00000
   1     891.5        0.0000        0.0000        0.0000        0.0000       0.000000       0.00000
   0    1013.0        0.0000        0.0000        0.0000        0.0000       0.000000       0.00000



 Wavenumbers:   820. -  2600. cm-1, ATM      1
 LEVEL PRESSURE   UPWARD FLUX   DIFDOWN FLUX  DIRDOWN FLUX  DOWNWARD FLUX   NET FLUX    HEATING RATE
          mb          W/m2          W/m2          W/m2        W/m2          W/m2       degree/day
  51    .06700        0.4389        0.0000        6.0047        6.0047       5.565795       0.00000
  50    .07753        0.4389        0.0000        6.0008        6.0008       5.561942       3.08820
  49    .09103        0.4389        0.0000        5.9999        5.9999       5.561056       0.55357
  48    0.1069        0.4389        0.0000        5.9989        5.9989       5.560067       0.52652
  47    0.1255        0.4389        0.0000        5.9978        5.9978       5.558950       0.50649
  46    0.1487        0.4389        0.0000        5.9964        5.9964       5.557593       0.49456
  45    0.1794        0.4389        0.0000        5.9947        5.9947       5.555874       0.47199
  44    0.2165        0.4389        0.0000        5.9929        5.9929       5.554032       0.41909
  43    0.2613        0.4389        0.0000        5.9909        5.9909       5.552072       0.36932
  42    0.3336        0.4389        0.0000        5.9880        5.9880       5.549194       0.33555
  41    0.4307        0.4389        0.0000        5.9846        5.9846       5.545725       0.30164
  40    0.5894        0.4389        0.0000        5.9791        5.9791       5.540220       0.29275
  39     1.339        0.4389        0.0000        5.9536        5.9536       5.514733       0.28693
  38     1.782        0.4389        0.0000        5.9395        5.9395       5.500595       0.26916
  37     2.292        0.4389        0.0000        5.9237        5.9237       5.484845       0.26087
  36     2.964        0.4389        0.0000        5.9039        5.9039       5.465071       0.24822
  35     3.853        0.4389        0.0000        5.8793        5.8793       5.440415       0.23399
  34     5.035        0.4389        0.0000        5.8487        5.8487       5.409853       0.21833
  33     6.613        0.4389        0.0000        5.8108        5.8108       5.371889       0.20296
  32     8.786        0.4389        0.0000        5.7631        5.7631       5.324266       0.18495
  31     11.80        0.4389        0.0000        5.7039        5.7039       5.265010       0.16590
  30     15.07        0.4389        0.0000        5.6539        5.6539       5.214971       0.12919
  29     18.79        0.4389        0.0000        5.6127        5.6127       5.173835       0.09327
  28     23.16        0.4389        0.0000        5.5794        5.5794       5.140457       0.06454
  27     28.12        0.4389        0.0000        5.5518        5.5518       5.112887       0.04687
  26     33.73        0.4389        0.0000        5.5268        5.5268       5.087829       0.03768
  25     40.54        0.4390        0.0000        5.4993        5.4993       5.060378       0.03406
  24     48.69        0.4390        0.0000        5.4678        5.4678       5.028826       0.03265
  23     57.69        0.4390        0.0000        5.4340        5.4340       4.995024       0.03168
  22     68.43        0.4390        0.0000        5.3947        5.3948       4.955732       0.03089
  21     81.20        0.4391        0.0000        5.3497        5.3497       4.910675       0.02977
  20     96.49        0.4391        0.0000        5.2982        5.2982       4.859131       0.02845
  19     114.6        0.4391        0.0000        5.2389        5.2389       4.799770       0.02772
  18     136.5        0.4392        0.0000        5.1716        5.1717       4.732465       0.02588
  17     162.9        0.4393        0.0000        5.0890        5.0890       4.649761       0.02644
  16     196.4        0.4394        0.0000        4.9668        4.9668       4.527396       0.03080
  15     218.7        0.4396        0.0000        4.8585        4.8585       4.418889       0.04120
  14     243.0        0.4398        0.0000        4.7078        4.7079       4.268037       0.05232
  13     269.0        0.4402        0.0000        4.5343        4.5343       4.094104       0.05642
  12     297.5        0.4407        0.0000        4.3419        4.3420       3.901220       0.05721
  11     328.5        0.4415        0.0000        4.1281        4.1281       3.686635       0.05834
  10     361.9        0.4425        0.0000        3.8786        3.8787       3.436157       0.06337
   9     398.1        0.4438        0.0000        3.6159        3.6159       3.172119       0.06151
   8     437.6        0.4455        0.0000        3.3759        3.3759       2.930360       0.05169
   7     480.5        0.4476        0.0000        3.1957        3.1958       2.748176       0.03578
   6     533.0        0.4508        0.0000        3.0467        3.0467       2.595941       0.02449
   5     589.8        0.4554        0.0000        2.9023        2.9023       2.446905       0.02212
   4     651.6        0.4635        0.0000        2.7183        2.7184       2.254881       0.02626
   3     718.7        0.4774        0.0000        2.5058        2.5059       2.028501       0.02845
   2     792.3        0.5037        0.0000        2.2756        2.2757       1.772003       0.02942
   1     891.5        0.0100        0.4666        1.0135        1.4801       1.470103       0.02569
   0    1013.0        0.0121        0.3754        0.7990        1.1744       1.162332       0.02137

  Modules and versions used in this calculation:

       rrtmg_sw.1col.f90:  $Revision$                    rrtmg_sw_init.f90:  $Revision$        
     rrtmgsw_cldprop.f90:  $Revision$                  rrtmgsw_cldprmc.f90:  NOT USED          
     rrtmg_sw_reftra.f90:  $Revision$                  rrtmg_sw_spcvrt.f90:  NOT USED          
     rrtmg_sw_spcvmc.f90:  NOT USED                    rrtmgsw_setcoef.f90:  NOT USED          
     rrtmg_sw_taumol.f90:  $Revision$                  rrtmg_sw_vrtqdr.f90:  NOT USED          
                rrtatm.f:  NOT USED                             util_xxx.f:  NOT USED          
                 extra.f:  NOT USED                       rrtmg_sw_k_g.f90:  $Revision$        

