

 Wavenumbers:   820. - 50000. cm-1, ATM      1
 LEVEL PRESSURE   UPWARD FLUX   DIFDOWN FLUX  DIRDOWN FLUX  DOWNWARD FLUX   NET FLUX    HEATING RATE
          mb          W/m2          W/m2          W/m2        W/m2          W/m2       degree/day
  51    .06700      398.4577        0.0000      617.8126      617.8126     219.354843       0.00000
  50    .07753      398.4574        0.0013      617.7947      617.7961     219.338704      12.93502
  49    .09103      398.4569        0.0030      617.7778      617.7808     219.323897       9.25479
  48    0.1069      398.4564        0.0050      617.7581      617.7631     219.306639       9.18643
  47    0.1255      398.4559        0.0072      617.7340      617.7412     219.285300       9.67447
  46    0.1487      398.4553        0.0100      617.7009      617.7109     219.255621      10.81815
  45    0.1794      398.4545        0.0139      617.6521      617.6659     219.211401      12.13939
  44    0.2165      398.4538        0.0184      617.5895      617.6079     219.154095      13.03617
  43    0.2613      398.4530        0.0237      617.5089      617.5326     219.079603      14.04149
  42    0.3336      398.4521        0.0325      617.3641      617.3966     218.944556      15.74507
  41    0.4307      398.4513        0.0441      617.1591      617.2033     218.751991      16.74310
  40    0.5894      398.4509        0.0628      616.8005      616.8633     218.412411      18.05844
  39     1.339      398.4671        0.1474      614.9443      615.0917     216.624622      20.12726
  38     1.782      398.4890        0.1950      613.9670      614.1621     215.673067      18.11609
  37     2.292      398.5256        0.2492      613.0059      613.2551     214.729475      15.62834
  36     2.964      398.5906        0.3196      611.9577      612.2772     213.686653      13.09057
  35     3.853      398.7000        0.4119      610.8024      611.2143     212.514267      11.12616
  34     5.035      398.8686        0.5337      609.5327      610.0664     211.197805       9.40426
  33     6.613      399.1061        0.6953      608.1464      608.8418     209.735643       7.81672
  32     8.786      399.4155        0.9122      606.6250      607.5372     208.121743       6.26780
  31     11.80      399.8158        1.2210      604.8486      606.0696     206.253808       5.22963
  30     15.07      400.1964        1.5505      603.2440      604.7944     204.597981       4.27502
  29     18.79      400.5824        1.9212      601.6511      603.5723     202.989879       3.64606
  28     23.16      400.9826        2.3519      599.9927      602.3446     201.361976       3.14784
  27     28.12      401.3810        2.8422      598.2881      601.1302     199.749245       2.74153
  26     33.73      401.7400        3.3887      596.5951      599.9838     198.243812       2.26346
  25     40.54      402.0727        4.0467      594.7727      598.8194     196.746795       1.85722
  24     48.69      402.3757        4.8363      592.7865      597.6228     195.247084       1.55197
  23     57.69      402.6136        5.6994      590.7959      596.4953     193.881706       1.27984
  22     68.43      402.7937        6.7218      588.6191      595.3409     192.547228       1.04908
  21     81.20      402.8649        7.9340      586.2690      594.2030     191.338062       0.79900
  20     96.49      402.8168        9.3692      583.6961      593.0653     190.248451       0.60139
  19     114.6      402.7072       11.0576      580.7708      591.8284     189.121221       0.52634
  18     136.5      402.5333       13.0345      577.4359      590.4704     187.937109       0.45532
  17     162.9      402.2886       15.3543      573.5624      588.9167     186.628145       0.41840
  16     196.4      401.8849       18.3125      568.5907      586.9032     185.018344       0.40521
  15     218.7      401.5911       20.2250      565.0572      585.2822     183.691149       0.50389
  14     243.0      401.2624       22.2762      560.7495      583.0257     181.763292       0.66864
  13     269.0      400.8985       24.4674      555.3947      579.8621     178.963629       0.90820
  12     297.5      400.5018       26.7993      548.9964      575.7957     175.293978       1.08838
  11     328.5      400.0802       29.2784      542.0895      571.3679     171.287750       1.08928
  10     361.9      399.6378       31.9007      534.6242      566.5249     166.887114       1.11340
   9     398.1      399.1793       34.6707      526.4204      561.0912     161.911831       1.15913
   8     437.6      398.7162       37.5872      517.3907      554.9779     156.261696       1.20803
   7     480.5      398.2590       40.6481      507.7216      548.3697     150.110724       1.20803
   6     533.0      397.7684       44.3278      495.9006      540.2284     142.459972       1.23076
   5     589.8      397.3679       48.1887      483.0788      531.2675     133.899592       1.27064
   4     651.6      397.1906       52.2182      468.6907      520.9089     123.718251       1.39233
   3     718.7      397.3941       56.4083      453.2257      509.6340     112.239937       1.44251
   2     792.3      398.3605       60.7374      436.4928      497.2302      98.869777       1.53341
   1     891.5      381.0685      128.9018      332.1022      461.0040      79.935484       1.61122
   0    1013.0      387.5846      131.9543      311.6261      443.5804      55.995831       1.66225



 Wavenumbers:  2600. -  3250. cm-1, ATM      1
 LEVEL PRESSURE   UPWARD FLUX   DIFDOWN FLUX  DIRDOWN FLUX  DOWNWARD FLUX   NET FLUX    HEATING RATE
          mb          W/m2          W/m2          W/m2        W/m2          W/m2       degree/day
  51    .06700        1.2013        0.0000        5.4450        5.4450       4.243763       0.00000
  50    .07753        1.2013        0.0000        5.4450        5.4450       4.243755       0.00640
  49    .09103        1.2013        0.0000        5.4450        5.4450       4.243745       0.00627
  48    0.1069        1.2013        0.0000        5.4450        5.4450       4.243734       0.00613
  47    0.1255        1.2013        0.0000        5.4450        5.4450       4.243720       0.00599
  46    0.1487        1.2013        0.0000        5.4450        5.4450       4.243704       0.00608
  45    0.1794        1.2013        0.0000        5.4450        5.4450       4.243681       0.00625
  44    0.2165        1.2013        0.0000        5.4449        5.4449       4.243654       0.00612
  43    0.2613        1.2013        0.0000        5.4449        5.4449       4.243622       0.00600
  42    0.3336        1.2013        0.0000        5.4448        5.4448       4.243569       0.00617
  41    0.4307        1.2013        0.0000        5.4448        5.4448       4.243498       0.00620
  40    0.5894        1.2013        0.0000        5.4446        5.4446       4.243378       0.00637
  39     1.339        1.2013        0.0000        5.4439        5.4439       4.242671       0.00797
  38     1.782        1.2013        0.0000        5.4434        5.4434       4.242128       0.01034
  37     2.292        1.2013        0.0000        5.4427        5.4427       4.241412       0.01186
  36     2.964        1.2013        0.0000        5.4416        5.4416       4.240373       0.01304
  35     3.853        1.2013        0.0000        5.4402        5.4402       4.238896       0.01402
  34     5.035        1.2013        0.0000        5.4381        5.4381       4.236840       0.01468
  33     6.613        1.2013        0.0000        5.4353        5.4353       4.234059       0.01487
  32     8.786        1.2013        0.0000        5.4317        5.4317       4.230427       0.01411
  31     11.80        1.2013        0.0000        5.4269        5.4269       4.225646       0.01338
  30     15.07        1.2013        0.0000        5.4224        5.4224       4.221119       0.01169
  29     18.79        1.2013        0.0000        5.4180        5.4180       4.216706       0.01001
  28     23.16        1.2013        0.0000        5.4135        5.4135       4.212218       0.00868
  27     28.12        1.2013        0.0000        5.4088        5.4088       4.207568       0.00791
  26     33.73        1.2013        0.0000        5.4036        5.4036       4.202324       0.00788
  25     40.54        1.2013        0.0000        5.3966        5.3967       4.195376       0.00862
  24     48.69        1.2013        0.0000        5.3872        5.3872       4.185891       0.00982
  23     57.69        1.2013        0.0000        5.3754        5.3754       4.174094       0.01106
  22     68.43        1.2013        0.0000        5.3599        5.3599       4.158588       0.01219
  21     81.20        1.2014        0.0000        5.3401        5.3401       4.138729       0.01312
  20     96.49        1.2014        0.0000        5.3155        5.3155       4.114124       0.01358
  19     114.6        1.2015        0.0000        5.2853        5.2854       4.083876       0.01412
  18     136.5        1.2016        0.0001        5.2504        5.2505       4.048894       0.01345
  17     162.9        1.2017        0.0001        5.2111        5.2112       4.009442       0.01261
  16     196.4        1.2020        0.0001        5.1640        5.1641       3.962161       0.01190
  15     218.7        1.2022        0.0001        5.1331        5.1332       3.930989       0.01183
  14     243.0        1.2026        0.0001        5.0962        5.0963       3.893671       0.01294
  13     269.0        1.2033        0.0001        5.0511        5.0512       3.847885       0.01485
  12     297.5        1.2043        0.0001        4.9956        4.9957       3.791395       0.01675
  11     328.5        1.2057        0.0001        4.9304        4.9305       3.724767       0.01812
  10     361.9        1.2076        0.0001        4.8511        4.8512       3.643591       0.02054
   9     398.1        1.2103        0.0002        4.7507        4.7508       3.540579       0.02400
   8     437.6        1.2138        0.0002        4.6220        4.6222       3.408383       0.02826
   7     480.5        1.2187        0.0002        4.4625        4.4627       3.243996       0.03229
   6     533.0        1.2264        0.0002        4.2460        4.2462       3.019831       0.03606
   5     589.8        1.2379        0.0002        3.9954        3.9956       2.757654       0.03892
   4     651.6        1.2564        0.0002        3.7089        3.7091       2.452638       0.04171
   3     718.7        1.2856        0.0002        3.4018        3.4020       2.116438       0.04225
   2     792.3        1.3349        0.0002        3.0564        3.0566       1.721742       0.04527
   1     891.5        1.2349        0.3364        2.0723        2.4087       1.173740       0.04663
   0    1013.0        1.4247        0.2817        1.6725        1.9542       0.529505       0.04473



 Wavenumbers:  3250. -  4000. cm-1, ATM      1
 LEVEL PRESSURE   UPWARD FLUX   DIFDOWN FLUX  DIRDOWN FLUX  DOWNWARD FLUX   NET FLUX    HEATING RATE
          mb          W/m2          W/m2          W/m2        W/m2          W/m2       degree/day
  51    .06700        0.0056        0.0000        9.1795        9.1795       9.173950       0.00000
  50    .07753        0.0056        0.0000        9.1747        9.1747       9.169108       3.88148
  49    .09103        0.0056        0.0000        9.1713        9.1713       9.165720       2.11747
  48    0.1069        0.0056        0.0000        9.1688        9.1688       9.163195       1.34402
  47    0.1255        0.0056        0.0000        9.1665        9.1665       9.160936       1.02422
  46    0.1487        0.0056        0.0000        9.1641        9.1641       9.158494       0.88991
  45    0.1794        0.0056        0.0000        9.1612        9.1612       9.155616       0.79008
  44    0.2165        0.0056        0.0000        9.1583        9.1583       9.152696       0.66430
  43    0.2613        0.0056        0.0000        9.1553        9.1553       9.149723       0.56041
  42    0.3336        0.0056        0.0000        9.1511        9.1511       9.145544       0.48723
  41    0.4307        0.0056        0.0000        9.1464        9.1464       9.140776       0.41459
  40    0.5894        0.0056        0.0000        9.1393        9.1394       9.133770       0.37255
  39     1.339        0.0056        0.0000        9.1127        9.1127       9.107157       0.29962
  38     1.782        0.0056        0.0000        9.1011        9.1011       9.095568       0.22062
  37     2.292        0.0056        0.0000        9.0901        9.0901       9.084502       0.18329
  36     2.964        0.0056        0.0000        9.0776        9.0776       9.072072       0.15603
  35     3.853        0.0056        0.0000        9.0629        9.0629       9.057282       0.14036
  34     5.035        0.0056        0.0000        9.0441        9.0441       9.038543       0.13386
  33     6.613        0.0056        0.0000        9.0191        9.0191       9.013541       0.13366
  32     8.786        0.0056        0.0000        8.9843        8.9843       8.978758       0.13509
  31     11.80        0.0056        0.0000        8.9327        8.9327       8.927141       0.14451
  30     15.07        0.0056        0.0000        8.8758        8.8759       8.870296       0.14676
  29     18.79        0.0056        0.0000        8.8110        8.8110       8.805469       0.14698
  28     23.16        0.0055        0.0000        8.7365        8.7366       8.731024       0.14395
  27     28.12        0.0055        0.0000        8.6554        8.6555       8.649911       0.13789
  26     33.73        0.0055        0.0000        8.5719        8.5719       8.566412       0.12554
  25     40.54        0.0055        0.0001        8.4812        8.4812       8.475688       0.11255
  24     48.69        0.0055        0.0001        8.3838        8.3839       8.378387       0.10069
  23     57.69        0.0055        0.0001        8.2861        8.2862       8.280651       0.09161
  22     68.43        0.0055        0.0001        8.1751        8.1751       8.169655       0.08726
  21     81.20        0.0055        0.0001        8.0457        8.0458       8.040297       0.08548
  20     96.49        0.0055        0.0001        7.8949        7.8950       7.889593       0.08318
  19     114.6        0.0054        0.0001        7.7162        7.7163       7.710884       0.08344
  18     136.5        0.0054        0.0002        7.5193        7.5194       7.514040       0.07569
  17     162.9        0.0054        0.0002        7.2913        7.2915       7.286149       0.07284
  16     196.4        0.0053        0.0002        6.9660        6.9662       6.960876       0.08188
  15     218.7        0.0053        0.0002        6.6648        6.6650       6.659686       0.11435
  14     243.0        0.0053        0.0002        6.2619        6.2622       6.256890       0.13970
  13     269.0        0.0053        0.0003        5.7576        5.7579       5.752585       0.16359
  12     297.5        0.0053        0.0003        5.1719        5.1722       5.166884       0.17371
  11     328.5        0.0053        0.0002        4.5757        4.5760       4.570705       0.16210
  10     361.9        0.0053        0.0002        3.9995        3.9998       3.994498       0.14579
   9     398.1        0.0053        0.0002        3.4655        3.4657       3.460389       0.12444
   8     437.6        0.0054        0.0002        2.9740        2.9742       2.968854       0.10509
   7     480.5        0.0055        0.0002        2.5307        2.5309       2.525341       0.08710
   6     533.0        0.0058        0.0002        2.0614        2.0616       2.055773       0.07554
   5     589.8        0.0063        0.0002        1.6150        1.6151       1.608846       0.06634
   4     651.6        0.0073        0.0001        1.1565        1.1566       1.149263       0.06285
   3     718.7        0.0096        0.0001        0.7390        0.7391       0.729474       0.05276
   2     792.3        0.0158        0.0001        0.3985        0.3985       0.382747       0.03977
   1     891.5        0.0007        0.0118        0.0914        0.1031       0.102487       0.02385
   0    1013.0        0.0064        0.0012        0.0075        0.0087       0.002372       0.00695



 Wavenumbers:  4000. -  4650. cm-1, ATM      1
 LEVEL PRESSURE   UPWARD FLUX   DIFDOWN FLUX  DIRDOWN FLUX  DOWNWARD FLUX   NET FLUX    HEATING RATE
          mb          W/m2          W/m2          W/m2        W/m2          W/m2       degree/day
  51    .06700        4.7082        0.0000       10.7795       10.7795       6.071305       0.00000
  50    .07753        4.7082        0.0000       10.7795       10.7795       6.071304       0.00080
  49    .09103        4.7082        0.0000       10.7795       10.7795       6.071303       0.00078
  48    0.1069        4.7082        0.0000       10.7795       10.7795       6.071302       0.00076
  47    0.1255        4.7082        0.0000       10.7795       10.7795       6.071300       0.00075
  46    0.1487        4.7082        0.0000       10.7795       10.7795       6.071298       0.00076
  45    0.1794        4.7082        0.0000       10.7795       10.7795       6.071295       0.00078
  44    0.2165        4.7082        0.0000       10.7795       10.7795       6.071292       0.00076
  43    0.2613        4.7082        0.0000       10.7795       10.7795       6.071288       0.00075
  42    0.3336        4.7082        0.0000       10.7795       10.7795       6.071281       0.00077
  41    0.4307        4.7082        0.0000       10.7795       10.7795       6.071272       0.00077
  40    0.5894        4.7082        0.0000       10.7795       10.7795       6.071257       0.00080
  39     1.339        4.7082        0.0000       10.7794       10.7794       6.071168       0.00101
  38     1.782        4.7082        0.0000       10.7793       10.7793       6.071098       0.00133
  37     2.292        4.7082        0.0000       10.7792       10.7792       6.071004       0.00156
  36     2.964        4.7082        0.0000       10.7791       10.7791       6.070864       0.00176
  35     3.853        4.7082        0.0000       10.7789       10.7789       6.070656       0.00197
  34     5.035        4.7082        0.0000       10.7786       10.7786       6.070349       0.00219
  33     6.613        4.7082        0.0000       10.7781       10.7781       6.069897       0.00241
  32     8.786        4.7082        0.0000       10.7774       10.7774       6.069230       0.00259
  31     11.80        4.7082        0.0001       10.7763       10.7764       6.068183       0.00293
  30     15.07        4.7082        0.0001       10.7751       10.7752       6.066954       0.00317
  29     18.79        4.7082        0.0001       10.7736       10.7737       6.065467       0.00337
  28     23.16        4.7082        0.0001       10.7717       10.7718       6.063622       0.00357
  27     28.12        4.7082        0.0001       10.7695       10.7696       6.061388       0.00380
  26     33.73        4.7082        0.0002       10.7667       10.7668       6.058634       0.00414
  25     40.54        4.7082        0.0002       10.7629       10.7631       6.054898       0.00463
  24     48.69        4.7082        0.0002       10.7579       10.7581       6.049920       0.00515
  23     57.69        4.7082        0.0003       10.7520       10.7523       6.044020       0.00553
  22     68.43        4.7083        0.0003       10.7446       10.7449       6.036625       0.00581
  21     81.20        4.7084        0.0004       10.7355       10.7359       6.027520       0.00602
  20     96.49        4.7085        0.0004       10.7245       10.7249       6.016441       0.00611
  19     114.6        4.7087        0.0005       10.7107       10.7112       6.002587       0.00647
  18     136.5        4.7089        0.0006       10.6942       10.6948       5.985897       0.00642
  17     162.9        4.7093        0.0007       10.6740       10.6748       5.965434       0.00654
  16     196.4        4.7100        0.0009       10.6464       10.6472       5.937198       0.00711
  15     218.7        4.7107        0.0010       10.6255       10.6264       5.915706       0.00816
  14     243.0        4.7118        0.0011       10.5980       10.5991       5.887362       0.00983
  13     269.0        4.7134        0.0012       10.5611       10.5623       5.848921       0.01247
  12     297.5        4.7158        0.0013       10.5119       10.5133       5.797518       0.01525
  11     328.5        4.7190        0.0015       10.4499       10.4513       5.732288       0.01774
  10     361.9        4.7234        0.0016       10.3702       10.3718       5.648404       0.02122
   9     398.1        4.7288        0.0018       10.2678       10.2695       5.540765       0.02508
   8     437.6        4.7355        0.0019       10.1390       10.1409       5.405367       0.02895
   7     480.5        4.7440        0.0021        9.9877        9.9898       5.245790       0.03134
   6     533.0        4.7566        0.0023        9.7937        9.7959       5.039312       0.03322
   5     589.8        4.7743        0.0025        9.5752        9.5776       4.803287       0.03503
   4     651.6        4.8015        0.0027        9.2958        9.2985       4.496911       0.04190
   3     718.7        4.8445        0.0028        8.9267        8.9296       4.085045       0.05176
   2     792.3        4.9177        0.0030        8.4542        8.4572       3.539529       0.06256
   1     891.5        4.5759        1.0839        6.2533        7.3372       2.761285       0.06622
   0    1013.0        4.8732        1.0031        5.6771        6.6803       1.807027       0.06626



 Wavenumbers:  4650. -  5150. cm-1, ATM      1
 LEVEL PRESSURE   UPWARD FLUX   DIFDOWN FLUX  DIRDOWN FLUX  DOWNWARD FLUX   NET FLUX    HEATING RATE
          mb          W/m2          W/m2          W/m2        W/m2          W/m2       degree/day
  51    .06700        3.3249        0.0000       10.2033       10.2033       6.878424       0.00000
  50    .07753        3.3249        0.0000       10.2031       10.2031       6.878188       0.18901
  49    .09103        3.3249        0.0000       10.2028       10.2028       6.877893       0.18428
  48    0.1069        3.3249        0.0000       10.2025       10.2025       6.877556       0.17931
  47    0.1255        3.3249        0.0000       10.2021       10.2021       6.877172       0.17426
  46    0.1487        3.3249        0.0000       10.2016       10.2016       6.876691       0.17536
  45    0.1794        3.3249        0.0000       10.2010       10.2010       6.876040       0.17850
  44    0.2165        3.3249        0.0000       10.2002       10.2002       6.875281       0.17277
  43    0.2613        3.3249        0.0000       10.1993       10.1993       6.874395       0.16690
  42    0.3336        3.3249        0.0000       10.1979       10.1979       6.872963       0.16702
  41    0.4307        3.3249        0.0000       10.1960       10.1960       6.871123       0.16002
  40    0.5894        3.3249        0.0000       10.1932       10.1932       6.868249       0.15283
  39     1.339        3.3249        0.0000       10.1816       10.1816       6.856657       0.13050
  38     1.782        3.3249        0.0000       10.1760       10.1760       6.851128       0.10526
  37     2.292        3.3249        0.0000       10.1706       10.1706       6.845672       0.09037
  36     2.964        3.3249        0.0000       10.1646       10.1647       6.839749       0.07435
  35     3.853        3.3249        0.0000       10.1584       10.1584       6.833534       0.05898
  34     5.035        3.3249        0.0000       10.1521       10.1521       6.827198       0.04526
  33     6.613        3.3249        0.0000       10.1456       10.1456       6.820741       0.03452
  32     8.786        3.3249        0.0001       10.1386       10.1386       6.813729       0.02723
  31     11.80        3.3249        0.0001       10.1295       10.1296       6.804686       0.02532
  30     15.07        3.3249        0.0001       10.1196       10.1197       6.794804       0.02551
  29     18.79        3.3249        0.0001       10.1076       10.1077       6.782792       0.02724
  28     23.16        3.3249        0.0002       10.0923       10.0924       6.767479       0.02961
  27     28.12        3.3250        0.0002       10.0731       10.0733       6.748374       0.03248
  26     33.73        3.3250        0.0002       10.0500       10.0503       6.725264       0.03475
  25     40.54        3.3251        0.0003       10.0201       10.0204       6.695337       0.03713
  24     48.69        3.3252        0.0003        9.9820        9.9823       6.657130       0.03954
  23     57.69        3.3253        0.0004        9.9384        9.9388       6.613544       0.04085
  22     68.43        3.3255        0.0004        9.8858        9.8862       6.560745       0.04151
  21     81.20        3.3257        0.0005        9.8234        9.8240       6.498258       0.04129
  20     96.49        3.3261        0.0006        9.7518        9.7524       6.426305       0.03971
  19     114.6        3.3266        0.0007        9.6719        9.6727       6.346062       0.03747
  18     136.5        3.3273        0.0009        9.5858        9.5867       6.259354       0.03334
  17     162.9        3.3283        0.0010        9.4940        9.4951       6.166741       0.02960
  16     196.4        3.3299        0.0012        9.3883        9.3895       6.059596       0.02697
  15     218.7        3.3312        0.0014        9.3229        9.3243       5.993101       0.02525
  14     243.0        3.3329        0.0015        9.2520        9.2535       5.920629       0.02514
  13     269.0        3.3351        0.0017        9.1717        9.1733       5.838171       0.02675
  12     297.5        3.3384        0.0018        9.0763        9.0781       5.739678       0.02921
  11     328.5        3.3427        0.0020        8.9650        8.9670       5.624243       0.03139
  10     361.9        3.3483        0.0022        8.8349        8.8371       5.488810       0.03427
   9     398.1        3.3555        0.0024        8.6820        8.6844       5.328868       0.03726
   8     437.6        3.3649        0.0025        8.5028        8.5053       5.140457       0.04028
   7     480.5        3.3770        0.0027        8.2948        8.2976       4.920502       0.04320
   6     533.0        3.3955        0.0030        8.0209        8.0238       4.628344       0.04700
   5     589.8        3.4210        0.0032        7.7063        7.7095       4.288532       0.05044
   4     651.6        3.4582        0.0034        7.3412        7.3446       3.886383       0.05499
   3     718.7        3.5134        0.0036        6.9387        6.9422       3.428843       0.05750
   2     792.3        3.5981        0.0037        6.5066        6.5103       2.912242       0.05925
   1     891.5        3.3671        0.8156        4.7628        5.5784       2.211239       0.05965
   0    1013.0        3.6462        0.7445        4.2544        4.9989       1.352690       0.05961



 Wavenumbers:  5150. -  6150. cm-1, ATM      1
 LEVEL PRESSURE   UPWARD FLUX   DIFDOWN FLUX  DIRDOWN FLUX  DOWNWARD FLUX   NET FLUX    HEATING RATE
          mb          W/m2          W/m2          W/m2        W/m2          W/m2       degree/day
  51    .06700        8.4205        0.0000       25.5798       25.5798      17.159274       0.00000
  50    .07753        8.4205        0.0000       25.5798       25.5798      17.159235       0.03159
  49    .09103        8.4205        0.0000       25.5797       25.5797      17.159184       0.03208
  48    0.1069        8.4205        0.0000       25.5797       25.5797      17.159122       0.03259
  47    0.1255        8.4205        0.0000       25.5796       25.5796      17.159049       0.03309
  46    0.1487        8.4205        0.0000       25.5795       25.5795      17.158954       0.03486
  45    0.1794        8.4205        0.0000       25.5794       25.5794      17.158819       0.03710
  44    0.2165        8.4205        0.0000       25.5792       25.5792      17.158653       0.03767
  43    0.2613        8.4205        0.0000       25.5790       25.5790      17.158450       0.03824
  42    0.3336        8.4205        0.0000       25.5786       25.5786      17.158104       0.04041
  41    0.4307        8.4205        0.0000       25.5782       25.5782      17.157633       0.04095
  40    0.5894        8.4205        0.0000       25.5774       25.5774      17.156844       0.04196
  39     1.339        8.4205        0.0000       25.5735       25.5736      17.153043       0.04279
  38     1.782        8.4205        0.0001       25.5713       25.5714      17.150830       0.04213
  37     2.292        8.4205        0.0001       25.5688       25.5688      17.148325       0.04148
  36     2.964        8.4205        0.0001       25.5656       25.5657      17.145143       0.03994
  35     3.853        8.4205        0.0001       25.5615       25.5616      17.141099       0.03838
  34     5.035        8.4205        0.0002       25.5562       25.5564      17.135891       0.03720
  33     6.613        8.4205        0.0002       25.5494       25.5496      17.129135       0.03612
  32     8.786        8.4205        0.0003       25.5406       25.5409      17.120380       0.03400
  31     11.80        8.4205        0.0004       25.5287       25.5290      17.108538       0.03315
  30     15.07        8.4205        0.0005       25.5167       25.5171      17.096663       0.03066
  29     18.79        8.4205        0.0006       25.5042       25.5047      17.084248       0.02815
  28     23.16        8.4205        0.0007       25.4907       25.4914      17.070873       0.02586
  27     28.12        8.4205        0.0009       25.4764       25.4773      17.056768       0.02398
  26     33.73        8.4206        0.0010       25.4620       25.4630      17.042473       0.02149
  25     40.54        8.4206        0.0012       25.4463       25.4475      17.026837       0.01940
  24     48.69        8.4208        0.0015       25.4294       25.4308      17.010086       0.01733
  23     57.69        8.4209        0.0017       25.4126       25.4144      16.993451       0.01559
  22     68.43        8.4211        0.0021       25.3944       25.3965      16.975381       0.01421
  21     81.20        8.4214        0.0024       25.3744       25.3769      16.955489       0.01314
  20     96.49        8.4217        0.0029       25.3519       25.3548      16.933127       0.01234
  19     114.6        8.4222        0.0035       25.3262       25.3296      16.907477       0.01198
  18     136.5        8.4227        0.0041       25.2962       25.3003      16.877613       0.01148
  17     162.9        8.4234        0.0049       25.2521       25.2570      16.833614       0.01406
  16     196.4        8.4243        0.0059       25.1593       25.1652      16.740861       0.02335
  15     218.7        8.4250        0.0065       25.0159       25.0224      16.597449       0.05445
  14     243.0        8.4258        0.0072       24.7089       24.7161      16.290247       0.10655
  13     269.0        8.4269        0.0078       24.1619       24.1696      15.742750       0.17761
  12     297.5        8.4283        0.0084       23.4544       23.4628      15.034471       0.21007
  11     328.5        8.4302        0.0091       22.7355       22.7445      14.314353       0.19580
  10     361.9        8.4326        0.0097       21.9224       21.9322      13.499586       0.20614
   9     398.1        8.4357        0.0104       20.9939       21.0043      12.568619       0.21689
   8     437.6        8.4398        0.0110       19.9833       19.9943      11.554524       0.21682
   7     480.5        8.4452        0.0115       18.9483       18.9598      10.514622       0.20423
   6     533.0        8.4540        0.0122       17.7796       17.7918       9.337762       0.18932
   5     589.8        8.4676        0.0129       16.6726       16.6854       8.217830       0.16623
   4     651.6        8.4911        0.0135       15.6343       15.6478       7.156701       0.14511
   3     718.7        8.5320        0.0143       14.7738       14.7881       6.256034       0.11319
   2     792.3        8.6081        0.0151       14.0291       14.0443       5.436120       0.09403
   1     891.5        7.9730        1.8550       10.4952       12.3502       4.377206       0.09011
   0    1013.0        8.3207        1.7449        9.6579       11.4027       3.081992       0.08993



 Wavenumbers:  6150. -  7700. cm-1, ATM      1
 LEVEL PRESSURE   UPWARD FLUX   DIFDOWN FLUX  DIRDOWN FLUX  DOWNWARD FLUX   NET FLUX    HEATING RATE
          mb          W/m2          W/m2          W/m2        W/m2          W/m2       degree/day
  51    .06700       12.5326        0.0000       47.3109       47.3109      34.778254       0.00000
  50    .07753       12.5326        0.0000       47.3108       47.3108      34.778197       0.04553
  49    .09103       12.5326        0.0000       47.3107       47.3107      34.778124       0.04583
  48    0.1069       12.5326        0.0000       47.3106       47.3106      34.778037       0.04614
  47    0.1255       12.5326        0.0000       47.3105       47.3105      34.777934       0.04645
  46    0.1487       12.5326        0.0000       47.3104       47.3104      34.777801       0.04852
  45    0.1794       12.5326        0.0000       47.3102       47.3102      34.777615       0.05127
  44    0.2165       12.5326        0.0000       47.3100       47.3100      34.777387       0.05167
  43    0.2613       12.5326        0.0000       47.3097       47.3097      34.777111       0.05210
  42    0.3336       12.5326        0.0000       47.3092       47.3092      34.776642       0.05471
  41    0.4307       12.5326        0.0000       47.3085       47.3086      34.776007       0.05521
  40    0.5894       12.5326        0.0001       47.3074       47.3075      34.774948       0.05633
  39     1.339       12.5325        0.0002       47.3022       47.3024      34.769855       0.05733
  38     1.782       12.5325        0.0002       47.2991       47.2993      34.766885       0.05655
  37     2.292       12.5324        0.0003       47.2956       47.2959      34.763509       0.05591
  36     2.964       12.5324        0.0004       47.2912       47.2915      34.759191       0.05421
  35     3.853       12.5323        0.0005       47.2855       47.2859      34.753657       0.05252
  34     5.035       12.5322        0.0006       47.2780       47.2787      34.746476       0.05129
  33     6.613       12.5320        0.0008       47.2683       47.2691      34.737089       0.05019
  32     8.786       12.5319        0.0011       47.2556       47.2567      34.724789       0.04777
  31     11.80       12.5316        0.0015       47.2380       47.2395      34.707886       0.04732
  30     15.07       12.5313        0.0019       47.2201       47.2219      34.690599       0.04463
  29     18.79       12.5310        0.0023       47.2008       47.2031      34.672120       0.04190
  28     23.16       12.5306        0.0029       47.1795       47.1824      34.651730       0.03943
  27     28.12       12.5302        0.0035       47.1565       47.1600      34.629737       0.03739
  26     33.73       12.5298        0.0042       47.1324       47.1366      34.606817       0.03446
  25     40.54       12.5292        0.0050       47.1054       47.1104      34.581182       0.03180
  24     48.69       12.5285        0.0060       47.0754       47.0814      34.552931       0.02924
  23     57.69       12.5277        0.0071       47.0449       47.0520      34.524311       0.02683
  22     68.43       12.5268        0.0084       47.0110       47.0194      34.492578       0.02495
  21     81.20       12.5258        0.0100       46.9729       46.9828      34.457088       0.02345
  20     96.49       12.5245        0.0119       46.9294       46.9412      34.416755       0.02226
  19     114.6       12.5230        0.0141       46.8790       46.8931      34.370132       0.02177
  18     136.5       12.5212        0.0167       46.8200       46.8367      34.315524       0.02100
  17     162.9       12.5190        0.0199       46.7361       46.7560      34.236932       0.02512
  16     196.4       12.5163        0.0239       46.5703       46.5942      34.077807       0.04005
  15     218.7       12.5147        0.0265       46.3473       46.3738      33.859142       0.08302
  14     243.0       12.5130        0.0292       45.9299       45.9591      33.446110       0.14325
  13     269.0       12.5115        0.0320       45.1708       45.2028      32.691243       0.24488
  12     297.5       12.5105        0.0346       44.0115       44.0461      31.535607       0.34275
  11     328.5       12.5101        0.0373       42.7242       42.7616      30.251441       0.34916
  10     361.9       12.5107        0.0401       41.3539       41.3940      28.883292       0.34616
   9     398.1       12.5129        0.0428       39.7953       39.8380      27.325154       0.36301
   8     437.6       12.5175        0.0453       37.9948       38.0400      25.522530       0.38541
   7     480.5       12.5257        0.0476       36.0647       36.1123      23.586641       0.38020
   6     533.0       12.5421        0.0501       33.7773       33.8274      21.285329       0.37021
   5     589.8       12.5717        0.0524       31.4082       31.4606      18.888893       0.35571
   4     651.6       12.6291        0.0542       28.8834       28.9376      16.308477       0.35288
   3     718.7       12.7355        0.0558       26.4104       26.4662      13.730726       0.32395
   2     792.3       12.9418        0.0571       24.0056       24.0627      11.120954       0.29931
   1     891.5       11.9515        2.9654       17.0359       20.0013       8.049817       0.26134
   0    1013.0       12.8554        2.6839       14.9344       17.6183       4.762898       0.22823



 Wavenumbers:  7700. -  8050. cm-1, ATM      1
 LEVEL PRESSURE   UPWARD FLUX   DIFDOWN FLUX  DIRDOWN FLUX  DOWNWARD FLUX   NET FLUX    HEATING RATE
          mb          W/m2          W/m2          W/m2        W/m2          W/m2       degree/day
  51    .06700        6.5760        0.0000       11.1810       11.1810       4.604996       0.00000
  50    .07753        6.5760        0.0000       11.1809       11.1809       4.604974       0.01771
  49    .09103        6.5760        0.0000       11.1809       11.1809       4.604946       0.01736
  48    0.1069        6.5760        0.0000       11.1809       11.1809       4.604914       0.01700
  47    0.1255        6.5760        0.0000       11.1809       11.1809       4.604878       0.01663
  46    0.1487        6.5760        0.0000       11.1808       11.1808       4.604831       0.01688
  45    0.1794        6.5760        0.0000       11.1808       11.1808       4.604768       0.01737
  44    0.2165        6.5760        0.0000       11.1807       11.1807       4.604693       0.01704
  43    0.2613        6.5760        0.0000       11.1806       11.1806       4.604604       0.01672
  42    0.3336        6.5761        0.0000       11.1805       11.1805       4.604458       0.01710
  41    0.4307        6.5761        0.0000       11.1803       11.1804       4.604263       0.01692
  40    0.5894        6.5762        0.0000       11.1801       11.1801       4.603945       0.01690
  39     1.339        6.5764        0.0001       11.1788       11.1789       4.602442       0.01693
  38     1.782        6.5766        0.0001       11.1781       11.1782       4.601559       0.01681
  37     2.292        6.5768        0.0001       11.1772       11.1773       4.600537       0.01693
  36     2.964        6.5770        0.0002       11.1761       11.1762       4.599194       0.01685
  35     3.853        6.5774        0.0002       11.1746       11.1748       4.597421       0.01683
  34     5.035        6.5778        0.0003       11.1726       11.1729       4.595066       0.01683
  33     6.613        6.5784        0.0004       11.1700       11.1703       4.591920       0.01682
  32     8.786        6.5792        0.0005       11.1664       11.1669       4.587682       0.01646
  31     11.80        6.5803        0.0007       11.1613       11.1620       4.581623       0.01696
  30     15.07        6.5816        0.0009       11.1558       11.1567       4.575123       0.01678
  29     18.79        6.5830        0.0011       11.1497       11.1507       4.567788       0.01663
  28     23.16        6.5846        0.0013       11.1425       11.1438       4.559230       0.01655
  27     28.12        6.5865        0.0016       11.1343       11.1359       4.549458       0.01661
  26     33.73        6.5886        0.0019       11.1252       11.1271       4.538544       0.01641
  25     40.54        6.5911        0.0023       11.1142       11.1165       4.525386       0.01632
  24     48.69        6.5942        0.0027       11.1010       11.1038       4.509568       0.01637
  23     57.69        6.5976        0.0033       11.0866       11.0898       4.492250       0.01623
  22     68.43        6.6017        0.0039       11.0695       11.0734       4.471704       0.01615
  21     81.20        6.6066        0.0046       11.0494       11.0539       4.447341       0.01610
  20     96.49        6.6125        0.0054       11.0255       11.0310       4.418471       0.01593
  19     114.6        6.6196        0.0064       10.9975       11.0040       4.384418       0.01590
  18     136.5        6.6280        0.0076       10.9648       10.9724       4.344363       0.01540
  17     162.9        6.6383        0.0091       10.9263       10.9354       4.297077       0.01511
  16     196.4        6.6518        0.0109       10.8773       10.8882       4.236381       0.01528
  15     218.7        6.6608        0.0121       10.8455       10.8577       4.196850       0.01501
  14     243.0        6.6708        0.0134       10.8114       10.8249       4.154112       0.01482
  13     269.0        6.6817        0.0149       10.7749       10.7897       4.107985       0.01496
  12     297.5        6.6939        0.0164       10.7357       10.7521       4.058218       0.01476
  11     328.5        6.7073        0.0180       10.6937       10.7118       4.004473       0.01461
  10     361.9        6.7222        0.0198       10.6489       10.6687       3.946492       0.01467
   9     398.1        6.7388        0.0218       10.6008       10.6225       3.883734       0.01462
   8     437.6        6.7574        0.0238       10.5491       10.5729       3.815525       0.01458
   7     480.5        6.7782        0.0260       10.4934       10.5194       3.741237       0.01459
   6     533.0        6.8054        0.0287       10.4243       10.4530       3.647613       0.01506
   5     589.8        6.8371        0.0316       10.3479       10.3795       3.542453       0.01561
   4     651.6        6.8751        0.0348       10.2613       10.2961       3.421035       0.01660
   3     718.7        6.9215        0.0381       10.1618       10.1998       3.278282       0.01794
   2     792.3        6.9804        0.0416       10.0439       10.0855       3.105061       0.01987
   1     891.5        6.5377        1.4665        7.9120        9.3785       2.840843       0.02248
   0    1013.0        6.6791        1.4394        7.7096        9.1490       2.469847       0.02576



 Wavenumbers:  8050. - 12850. cm-1, ATM      1
 LEVEL PRESSURE   UPWARD FLUX   DIFDOWN FLUX  DIRDOWN FLUX  DOWNWARD FLUX   NET FLUX    HEATING RATE
          mb          W/m2          W/m2          W/m2        W/m2          W/m2       degree/day
  51    .06700       80.7842        0.0000      156.5418      156.5418      75.757573       0.00000
  50    .07753       80.7842        0.0000      156.5417      156.5417      75.757573      -0.00000
  49    .09103       80.7841        0.0001      156.5417      156.5417      75.757573       0.00000
  48    0.1069       80.7841        0.0001      156.5416      156.5417      75.757573       0.00000
  47    0.1255       80.7841        0.0002      156.5415      156.5417      75.757573      -0.00000
  46    0.1487       80.7841        0.0002      156.5414      156.5416      75.757573       0.00000
  45    0.1794       80.7840        0.0003      156.5413      156.5416      75.757573       0.00000
  44    0.2165       80.7840        0.0004      156.5412      156.5416      75.757573      -0.00000
  43    0.2613       80.7839        0.0005      156.5410      156.5415      75.757573       0.00000
  42    0.3336       80.7838        0.0007      156.5407      156.5414      75.757573      -0.00000
  41    0.4307       80.7837        0.0010      156.5403      156.5413      75.757573       0.00000
  40    0.5894       80.7835        0.0014      156.5397      156.5411      75.757573      -0.00000
  39     1.339       80.7826        0.0035      156.5367      156.5402      75.757573      -0.00000
  38     1.782       80.7821        0.0047      156.5350      156.5396      75.757573       0.00000
  37     2.292       80.7815        0.0060      156.5330      156.5390      75.757573      -0.00000
  36     2.964       80.7806        0.0079      156.5303      156.5382      75.757573       0.00000
  35     3.853       80.7795        0.0103      156.5268      156.5371      75.757573       0.00000
  34     5.035       80.7781        0.0135      156.5222      156.5357      75.757573       0.00000
  33     6.613       80.7762        0.0177      156.5160      156.5337      75.757573       0.00000
  32     8.786       80.7736        0.0235      156.5076      156.5311      75.757573      -0.00000
  31     11.80       80.7698        0.0318      156.4957      156.5274      75.757573       0.00000
  30     15.07       80.7658        0.0406      156.4828      156.5234      75.757573       0.00000
  29     18.79       80.7613        0.0507      156.4682      156.5189      75.757573      -0.00000
  28     23.16       80.7560        0.0624      156.4512      156.5136      75.757573      -0.00000
  27     28.12       80.7500        0.0758      156.4317      156.5075      75.757573       0.00000
  26     33.73       80.7432        0.0909      156.4099      156.5007      75.757573       0.00000
  25     40.54       80.7349        0.1091      156.3834      156.4925      75.757573       0.00000
  24     48.69       80.7250        0.1311      156.3515      156.4826      75.757573       0.00000
  23     57.69       80.7141        0.1552      156.3164      156.4717      75.757573       0.00000
  22     68.43       80.7011        0.1841      156.2746      156.4586      75.757573      -0.00000
  21     81.20       80.6855        0.2185      156.2246      156.4431      75.757573      -0.00000
  20     96.49       80.6669        0.2596      156.1649      156.4245      75.757573       0.00000
  19     114.6       80.6450        0.3084      156.0879      156.3964      75.751383       0.00289
  18     136.5       80.6189        0.3665      155.9962      156.3626      75.743702       0.00295
  17     162.9       80.5879        0.4358      155.8831      156.3188      75.730946       0.00408
  16     196.4       80.5475        0.5258      155.7199      156.2457      75.698218       0.00824
  15     218.7       80.5212        0.5850      155.5733      156.1583      75.637167       0.02318
  14     243.0       80.4930        0.6494      155.3367      155.9861      75.493115       0.04996
  13     269.0       80.4635        0.7190      154.9514      155.6704      75.206914       0.09284
  12     297.5       80.4339        0.7939      154.3896      155.1835      74.749635       0.13562
  11     328.5       80.4047        0.8746      153.7151      154.5897      74.185028       0.15352
  10     361.9       80.3774        0.9612      152.9087      153.8700      73.492534       0.17521
   9     398.1       80.3545        1.0538      151.8986      152.9524      72.597894       0.20843
   8     437.6       80.3403        1.1523      150.6031      151.7554      71.415151       0.25288
   7     480.5       80.3397        1.2563      149.0014      150.2577      69.917969       0.29404
   6     533.0       80.3668        1.3820      146.7375      148.1195      67.752717       0.34832
   5     589.8       80.4470        1.5134      143.8730      145.3864      64.939419       0.41759
   4     651.6       80.6405        1.6481      140.0955      141.7436      61.103042       0.52463
   3     718.7       81.0281        1.7845      135.5278      137.3123      56.284211       0.60559
   2     792.3       81.7943        1.9194      130.0690      131.9885      50.194202       0.69846
   1     891.5       76.1006       19.1966       97.9892      117.1857      41.085160       0.77514
   0    1013.0       79.6355       18.3329       90.6268      108.9597      29.324280       0.81662



 Wavenumbers: 12850. - 16000. cm-1, ATM      1
 LEVEL PRESSURE   UPWARD FLUX   DIFDOWN FLUX  DIRDOWN FLUX  DOWNWARD FLUX   NET FLUX    HEATING RATE
          mb          W/m2          W/m2          W/m2        W/m2          W/m2       degree/day
  51    .06700       72.6737        0.0000       98.0872       98.0872      25.413588       0.00000
  50    .07753       72.6736        0.0001       98.0864       98.0864      25.412798       0.63334
  49    .09103       72.6736        0.0002       98.0853       98.0854      25.411806       0.62011
  48    0.1069       72.6736        0.0003       98.0841       98.0843      25.410667       0.60661
  47    0.1255       72.6736        0.0004       98.0826       98.0830      25.409358       0.59337
  46    0.1487       72.6737        0.0005       98.0809       98.0814      25.407707       0.60184
  45    0.1794       72.6737        0.0007       98.0784       98.0792      25.405461       0.61633
  44    0.2165       72.6737        0.0009       98.0756       98.0766      25.402822       0.60044
  43    0.2613       72.6738        0.0012       98.0723       98.0736      25.399720       0.58474
  42    0.3336       72.6740        0.0017       98.0670       98.0687      25.394661       0.58985
  41    0.4307       72.6743        0.0023       98.0602       98.0625      25.388124       0.56832
  40    0.5894       72.6750        0.0033       98.0496       98.0528      25.377839       0.54698
  39     1.339       72.6808        0.0079       98.0043       98.0123      25.331467       0.52206
  38     1.782       72.6862        0.0107       97.9793       97.9900      25.303782       0.52709
  37     2.292       72.6942        0.0138       97.9498       97.9636      25.269405       0.56936
  36     2.964       72.7076        0.0180       97.9088       97.9268      25.219243       0.62968
  35     3.853       72.7292        0.0235       97.8503       97.8738      25.144664       0.70777
  34     5.035       72.7617        0.0308       97.7680       97.7988      25.037037       0.76884
  33     6.613       72.8072        0.0405       97.6562       97.6967      24.889482       0.78883
  32     8.786       72.8665        0.0536       97.5107       97.5643      24.697865       0.74417
  31     11.80       72.9435        0.0724       97.3179       97.3903      24.446773       0.70298
  30     15.07       73.0172        0.0925       97.1283       97.2208      24.203617       0.62778
  29     18.79       73.0924        0.1152       96.9300       97.0452      23.952779       0.56873
  28     23.16       73.1710        0.1417       96.7166       96.8582      23.687248       0.51345
  27     28.12       73.2499        0.1719       96.4935       96.6654      23.415458       0.46203
  26     33.73       73.3228        0.2058       96.2731       96.4789      23.156090       0.38997
  25     40.54       73.3928        0.2467       96.0408       96.2875      22.894688       0.32430
  24     48.69       73.4597        0.2960       95.7946       96.0906      22.630909       0.27297
  23     57.69       73.5162        0.3502       95.5573       95.9075      22.391270       0.22463
  22     68.43       73.5651        0.4147       95.3106       95.7253      22.160216       0.18164
  21     81.20       73.5983        0.4917       95.0643       95.5561      21.957819       0.13374
  20     96.49       73.6144        0.5836       94.8153       95.3989      21.784419       0.09570
  19     114.6       73.6347        0.6938       94.5411       95.2348      21.600135       0.08605
  18     136.5       73.6481        0.8244       94.2320       95.0564      21.408315       0.07376
  17     162.9       73.6543        0.9799       93.8753       94.8552      21.200896       0.06630
  16     196.4       73.6417        1.1815       93.4347       94.6162      20.974510       0.05698
  15     218.7       73.6259        1.3139       93.1513       94.4652      20.839269       0.05135
  14     243.0       73.6056        1.4578       92.8439       94.3017      20.696144       0.04964
  13     269.0       73.5806        1.6137       92.5111       94.1248      20.544265       0.04927
  12     297.5       73.5513        1.7822       92.1495       93.9317      20.380418       0.04860
  11     328.5       73.5194        1.9642       91.7554       93.7196      20.200226       0.04899
  10     361.9       73.4857        2.1602       91.3262       93.4864      20.000706       0.05048
   9     398.1       73.4512        2.3710       90.8575       93.2285      19.777292       0.05205
   8     437.6       73.4185        2.5973       90.3418       92.9391      19.520551       0.05489
   7     480.5       73.3898        2.8396       89.7728       92.6124      19.222582       0.05852
   6     533.0       73.3672        3.1375       89.0428       92.1804      18.813138       0.06587
   5     589.8       73.3670        3.4577       88.2038       91.6615      18.294534       0.07698
   4     651.6       73.4166        3.7998       87.1979       90.9977      17.581162       0.09756
   3     718.7       73.5345        4.1622       86.0161       90.1783      16.643849       0.11779
   2     792.3       73.7798        4.5411       84.5970       89.1382      15.358343       0.14743
   1     891.5       70.6551       17.6977       66.1393       83.8370      13.181982       0.18520
   0    1013.0       71.8134       17.8759       63.8774       81.7534       9.939953       0.22511



 Wavenumbers: 16000. - 22650. cm-1, ATM      1
 LEVEL PRESSURE   UPWARD FLUX   DIFDOWN FLUX  DIRDOWN FLUX  DOWNWARD FLUX   NET FLUX    HEATING RATE
          mb          W/m2          W/m2          W/m2        W/m2          W/m2       degree/day
  51    .06700      140.2538        0.0000      156.3892      156.3892      16.135432       0.00000
  50    .07753      140.2538        0.0004      156.3887      156.3891      16.135285       0.11792
  49    .09103      140.2538        0.0009      156.3879      156.3888      16.135071       0.13375
  48    0.1069      140.2538        0.0015      156.3871      156.3885      16.134784       0.15252
  47    0.1255      140.2538        0.0021      156.3861      156.3882      16.134401       0.17385
  46    0.1487      140.2538        0.0029      156.3847      156.3877      16.133835       0.20601
  45    0.1794      140.2540        0.0041      156.3828      156.3869      16.132952       0.24256
  44    0.2165      140.2542        0.0054      156.3805      156.3859      16.131754       0.27261
  43    0.2613      140.2545        0.0070      156.3776      156.3846      16.130128       0.30648
  42    0.3336      140.2552        0.0096      156.3726      156.3823      16.127036       0.36042
  41    0.4307      140.2565        0.0131      156.3657      156.3788      16.122377       0.40515
  40    0.5894      140.2590        0.0188      156.3537      156.3725      16.113490       0.47259
  39     1.339      140.2813        0.0458      156.2834      156.3292      16.047833       0.73917
  38     1.782      140.3020        0.0616      156.2324      156.2939      15.991902       1.06484
  37     2.292      140.3330        0.0799      156.1641      156.2440      15.910941       1.34093
  36     2.964      140.3846        0.1039      156.0605      156.1644      15.779784       1.64642
  35     3.853      140.4680        0.1356      155.9041      156.0397      15.571670       1.97504
  34     5.035      140.5939        0.1777      155.6774      155.8551      15.261182       2.21799
  33     6.613      140.7698        0.2339      155.3656      155.5995      14.829700       2.30671
  32     8.786      140.9989        0.3095      154.9577      155.2672      14.268250       2.18047
  31     11.80      141.2970        0.4175      154.4153      154.8328      13.535718       2.05086
  30     15.07      141.5826        0.5333      153.8804      154.4137      12.831059       1.81929
  29     18.79      141.8741        0.6639      153.3191      153.9830      12.108864       1.63744
  28     23.16      142.1787        0.8162      152.7126      153.5287      11.350039       1.46732
  27     28.12      142.4851        0.9901      152.0755      153.0656      10.580481       1.30820
  26     33.73      142.7678        1.1845      151.4409      152.6254       9.857653       1.08679
  25     40.54      143.0396        1.4192      150.7637      152.1829       9.143254       0.88629
  24     48.69      143.2997        1.7018      150.0338      151.7357       8.436006       0.73189
  23     57.69      143.5199        2.0119      149.3151      151.3271       7.807205       0.58941
  22     68.43      143.7115        2.3808      148.5476      150.9284       7.216941       0.46403
  21     81.20      143.8431        2.8201      147.7517      150.5717       6.728666       0.32264
  20     96.49      143.9101        3.3429      146.9127      150.2556       6.345502       0.21148
  19     114.6      143.9436        3.9619      145.9763      149.9382       5.994620       0.16384
  18     136.5      143.9521        4.6928      144.9088      149.6016       5.649451       0.13273
  17     162.9      143.9340        5.5591      143.6785      149.2377       5.303699       0.11052
  16     196.4      143.8491        6.6768      142.1651      148.8419       4.992739       0.07827
  15     218.7      143.7710        7.4072      141.2033      148.6106       4.839550       0.05816
  14     243.0      143.6758        8.1978      140.1753      148.3731       4.697277       0.04935
  13     269.0      143.5620        9.0506      139.0797      148.1303       4.568337       0.04183
  12     297.5      143.4287        9.9678      137.9141      147.8819       4.453114       0.03417
  11     328.5      143.2802       10.9536      136.6676      147.6212       4.341007       0.03048
  10     361.9      143.1160       12.0089      135.3392      147.3481       4.232161       0.02754
   9     398.1      142.9356       13.1379      133.9235      147.0613       4.125698       0.02480
   8     437.6      142.7401       14.3423      132.4163      146.7586       4.018501       0.02292
   7     480.5      142.5289       15.6245      130.8147      146.4392       3.910295       0.02125
   6     533.0      142.2691       17.1906      128.8599      146.0505       3.781438       0.02073
   5     589.8      141.9928       18.8638      126.7679      145.6317       3.638946       0.02115
   4     651.6      141.7062       20.6457      124.5274      145.1732       3.466947       0.02352
   3     718.7      141.4155       22.5382      122.1285      144.6667       3.251193       0.02711
   2     792.3      141.1370       24.5391      119.5548      144.0939       2.956863       0.03376
   1     891.5      136.9688       46.2828       93.1106      139.3934       2.424628       0.04529
   0    1013.0      136.8444       48.7130       89.7281      138.4411       1.596691       0.05749



 Wavenumbers: 22650. - 29000. cm-1, ATM      1
 LEVEL PRESSURE   UPWARD FLUX   DIFDOWN FLUX  DIRDOWN FLUX  DOWNWARD FLUX   NET FLUX    HEATING RATE
          mb          W/m2          W/m2          W/m2        W/m2          W/m2       degree/day
  51    .06700       58.3839        0.0000       59.0156       59.0156       0.631748       0.00000
  50    .07753       58.3838        0.0005       59.0151       59.0155       0.631748       0.00000
  49    .09103       58.3837        0.0010       59.0144       59.0154       0.631748       0.00000
  48    0.1069       58.3835        0.0017       59.0136       59.0153       0.631748       0.00000
  47    0.1255       58.3834        0.0025       59.0127       59.0151       0.631748      -0.00000
  46    0.1487       58.3832        0.0034       59.0115       59.0149       0.631748       0.00000
  45    0.1794       58.3829        0.0048       59.0099       59.0147       0.631748      -0.00000
  44    0.2165       58.3826        0.0063       59.0080       59.0144       0.631748       0.00000
  43    0.2613       58.3823        0.0082       59.0058       59.0140       0.631748      -0.00000
  42    0.3336       58.3817        0.0113       59.0022       59.0134       0.631748       0.00000
  41    0.4307       58.3809        0.0153       58.9973       59.0126       0.631748       0.00000
  40    0.5894       58.3796        0.0220       58.9894       59.0113       0.631748       0.00000
  39     1.339       58.3734        0.0534       58.9518       59.0052       0.631748      -0.00000
  38     1.782       58.3698        0.0719       58.9297       59.0016       0.631748       0.00000
  37     2.292       58.3657        0.0933       58.9042       58.9974       0.631748      -0.00000
  36     2.964       58.3602        0.1213       58.8706       58.9920       0.631748       0.00000
  35     3.853       58.3530        0.1584       58.8264       58.9847       0.631748       0.00000
  34     5.035       58.3434        0.2076       58.7676       58.9751       0.631748       0.00000
  33     6.613       58.3306        0.2732       58.6891       58.9623       0.631748      -0.00000
  32     8.786       58.3133        0.3617       58.5834       58.9451       0.631748       0.00000
  31     11.80       58.2887        0.4880       58.4324       58.9205       0.631748      -0.00000
  30     15.07       58.2623        0.6234       58.2706       58.8941       0.631748       0.00000
  29     18.79       58.2325        0.7760       58.0882       58.8643       0.631748      -0.00000
  28     23.16       58.1978        0.9539       57.8757       58.8296       0.631748       0.00000
  27     28.12       58.1583        1.1567       57.6333       58.7900       0.631748      -0.00000
  26     33.73       58.1142        1.3828       57.3631       58.7459       0.631748       0.00000
  25     40.54       58.0611        1.6549       57.0379       58.6928       0.631748      -0.00000
  24     48.69       57.9974        1.9812       56.6479       58.6291       0.631748       0.00000
  23     57.69       57.9278        2.3375       56.2221       58.5596       0.631748      -0.00000
  22     68.43       57.8456        2.7588       55.7186       58.4773       0.631748       0.00000
  21     81.20       57.7484        3.2562       55.1239       58.3801       0.631748       0.00000
  20     96.49       57.6338        3.8428       54.4228       58.2655       0.631748       0.00000
  19     114.6       57.4994        4.5302       53.6010       58.1312       0.631748      -0.00000
  18     136.5       57.3425        5.3325       52.6418       57.9742       0.631748       0.00000
  17     162.9       57.1589        6.2703       51.5203       57.7907       0.631748       0.00000
  16     196.4       56.9262        7.4585       50.0994       57.5580       0.631748      -0.00000
  15     218.7       56.7765        8.2220       49.1863       57.4083       0.631748      -0.00000
  14     243.0       56.6166        9.0371       48.2113       57.2484       0.631748       0.00000
  13     269.0       56.4466        9.9034       47.1749       57.0783       0.631748      -0.00000
  12     297.5       56.2665       10.8200       46.0783       56.8982       0.631748       0.00000
  11     328.5       56.0761       11.7883       44.9195       56.7078       0.631748      -0.00000
  10     361.9       55.8758       12.8057       43.7018       56.5075       0.631748       0.00000
   9     398.1       55.6656       13.8723       42.4250       56.2973       0.631748      -0.00000
   8     437.6       55.4458       14.9859       41.0916       56.0776       0.631748       0.00000
   7     480.5       55.2169       16.1442       39.7045       55.8487       0.631748       0.00000
   6     533.0       54.9442       17.5217       38.0543       55.5760       0.631748      -0.00000
   5     589.8       54.6610       18.9497       36.3431       55.2927       0.631748       0.00000
   4     651.6       54.3685       20.4207       34.5795       55.0003       0.631748       0.00000
   3     718.7       54.0678       21.9293       32.7702       54.6996       0.631748      -0.00000
   2     792.3       53.7604       23.4666       30.9256       54.3922       0.631748       0.00000
   1     891.5       52.4194       30.1230       22.9282       53.0512       0.631726       0.00000
   0    1013.0       52.0632       31.8619       20.8330       52.6950       0.631726       0.00000



 Wavenumbers: 29000. - 38000. cm-1, ATM      1
 LEVEL PRESSURE   UPWARD FLUX   DIFDOWN FLUX  DIRDOWN FLUX  DOWNWARD FLUX   NET FLUX    HEATING RATE
          mb          W/m2          W/m2          W/m2        W/m2          W/m2       degree/day
  51    .06700        8.7370        0.0000       20.8114       20.8114      12.074345       0.00000
  50    .07753        8.7368        0.0003       20.8070       20.8074      12.070538       3.05152
  49    .09103        8.7366        0.0007       20.8009       20.8016      12.065001       3.46081
  48    0.1069        8.7363        0.0012       20.7928       20.7939      12.057591       3.94425
  47    0.1255        8.7361        0.0017       20.7820       20.7837      12.047686       4.49029
  46    0.1487        8.7357        0.0024       20.7665       20.7688      12.033123       5.30838
  45    0.1794        8.7353        0.0033       20.7424       20.7457      12.010459       6.22197
  44    0.2165        8.7347        0.0044       20.7103       20.7147      11.979936       6.94332
  43    0.2613        8.7342        0.0056       20.6675       20.6731      11.938942       7.72723
  42    0.3336        8.7333        0.0077       20.5880       20.5956      11.862382       8.92614
  41    0.4307        8.7322        0.0104       20.4722       20.4826      11.750431       9.73390
  40    0.5894        8.7306        0.0147       20.2637       20.2784      11.547750      10.77831
  39     1.339        8.7272        0.0331       19.0984       19.1315      10.404295      12.87323
  38     1.782        8.7277        0.0427       18.4394       18.4820       9.754388      12.37317
  37     2.292        8.7303        0.0530       17.7714       17.8244       9.094069      10.93660
  36     2.964        8.7368        0.0656       17.0421       17.1078       8.370987       9.07688
  35     3.853        8.7495        0.0816       16.2678       16.3494       7.599872       7.31802
  34     5.035        8.7706        0.1017       15.4803       15.5820       6.811473       5.63200
  33     6.613        8.8011        0.1275       14.7157       14.8432       6.042022       4.11349
  32     8.786        8.8415        0.1612       13.9936       14.1548       5.313245       2.83030
  31     11.80        8.8943        0.2082       13.2835       13.4918       4.597509       2.00383
  30     15.07        8.9451        0.2570       12.7394       12.9963       4.051257       1.41032
  29     18.79        8.9976        0.3110       12.2666       12.5776       3.580042       1.06839
  28     23.16        9.0534        0.3725       11.8300       12.2025       3.149150       0.83321
  27     28.12        9.1105        0.4413       11.4279       11.8692       2.758714       0.66372
  26     33.73        9.1632        0.5172       11.0695       11.5866       2.423455       0.50407
  25     40.54        9.2132        0.6078       10.7209       11.3287       2.115538       0.38201
  24     48.69        9.2603        0.7153       10.3742       11.0895       1.829238       0.29628
  23     57.69        9.2989        0.8317       10.0549       10.8866       1.587712       0.22639
  22     68.43        9.3301        0.9682        9.7327       10.7010       1.370900       0.17044
  21     81.20        9.3448        1.1294        9.4134       10.5428       1.198026       0.11423
  20     96.49        9.3412        1.3189        9.0887       10.4077       1.066437       0.07263
  19     114.6        9.3273        1.5378        8.7388       10.2766       0.949314       0.05469
  18     136.5        9.3061        1.7881        8.3549       10.1430       0.836940       0.04321
  17     162.9        9.2776        2.0734        7.9311       10.0046       0.726922       0.03517
  16     196.4        9.2300        2.4267        7.4333        9.8601       0.630094       0.02437
  15     218.7        9.1957        2.6490        7.1295        9.7785       0.582873       0.01793
  14     243.0        9.1581        2.8813        6.8161        9.6974       0.539272       0.01512
  13     269.0        9.1171        3.1229        6.4943        9.6172       0.500124       0.01270
  12     297.5        9.0726        3.3725        6.1657        9.5382       0.465617       0.01023
  11     328.5        9.0262        3.6293        5.8295        9.4588       0.432582       0.00898
  10     361.9        8.9783        3.8908        5.4886        9.3794       0.401167       0.00795
   9     398.1        8.9289        4.1564        5.1440        9.3003       0.371398       0.00694
   8     437.6        8.8788        4.4245        4.7969        9.2215       0.342704       0.00614
   7     480.5        8.8280        4.6931        4.4504        9.1435       0.315470       0.00535
   6     533.0        8.7698        4.9993        4.0563        9.0556       0.285785       0.00478
   5     589.8        8.7123        5.3012        3.6682        8.9694       0.257048       0.00427
   4     651.6        8.6565        5.5950        3.2905        8.8855       0.228937       0.00384
   3     718.7        8.6029        5.8791        2.9252        8.8043       0.201408       0.00346
   2     792.3        8.5522        6.1502        2.5764        8.7267       0.174466       0.00309
   1     891.5        8.4134        6.8172        1.7376        8.5548       0.141422       0.00281
   0    1013.0        8.3697        7.0688        1.4060        8.4748       0.105100       0.00252



 Wavenumbers: 38000. - 50000. cm-1, ATM      1
 LEVEL PRESSURE   UPWARD FLUX   DIFDOWN FLUX  DIRDOWN FLUX  DOWNWARD FLUX   NET FLUX    HEATING RATE
          mb          W/m2          W/m2          W/m2        W/m2          W/m2       degree/day
  51    .06700        0.0061        0.0000        1.2836        1.2836       1.277518       0.00000
  50    .07753        0.0061        0.0001        1.2812        1.2812       1.275183       1.87150
  49    .09103        0.0060        0.0002        1.2777        1.2778       1.271851       2.08247
  48    0.1069        0.0059        0.0002        1.2731        1.2734       1.267473       2.33059
  47    0.1255        0.0058        0.0004        1.2672        1.2675       1.261717       2.60908
  46    0.1487        0.0057        0.0005        1.2586        1.2591       1.253391       3.03499
  45    0.1794        0.0055        0.0007        1.2455        1.2462       1.240623       3.50520
  44    0.2165        0.0054        0.0009        1.2282        1.2291       1.223697       3.85037
  43    0.2613        0.0052        0.0011        1.2054        1.2065       1.201348       4.21261
  42    0.3336        0.0049        0.0015        1.1639        1.1654       1.160524       4.75970
  41    0.4307        0.0045        0.0020        1.1051        1.1070       1.102565       5.03943
  40    0.5894        0.0039        0.0026        1.0039        1.0064       1.002524       5.32007
  39     1.339        0.0022        0.0035        0.5438        0.5473       0.545104       5.14971
  38     1.782        0.0016        0.0032        0.3635        0.3666       0.365006       3.42879
  37     2.292        0.0012        0.0027        0.2356        0.2383       0.237058       2.11916
  36     2.964        0.0009        0.0022        0.1455        0.1477       0.146786       1.13318
  35     3.853        0.0006        0.0017        0.0858        0.0875       0.086906       0.56828
  34     5.035        0.0004        0.0013        0.0488        0.0501       0.049701       0.26578
  33     6.613        0.0003        0.0010        0.0273        0.0282       0.027974       0.11615
  32     8.786        0.0002        0.0007        0.0144        0.0151       0.014928       0.05067
  31     11.80        0.0001        0.0004        0.0065        0.0070       0.006903       0.02247
  30     15.07        0.0000        0.0003        0.0031        0.0034       0.003329       0.00923
  29     18.79        0.0000        0.0002        0.0014        0.0016       0.001583       0.00396
  28     23.16        0.0000        0.0001        0.0006        0.0007       0.000720       0.00167
  27     28.12        0.0000        0.0001        0.0003        0.0003       0.000317       0.00069
  26     33.73        0.0000        0.0000        0.0001        0.0001       0.000140       0.00027
  25     40.54        0.0000        0.0000        0.0000        0.0001       0.000057       0.00010
  24     48.69        0.0000        0.0000        0.0000        0.0000       0.000021       0.00004
  23     57.69        0.0000        0.0000        0.0000        0.0000       0.000008       0.00001
  22     68.43        0.0000        0.0000        0.0000        0.0000       0.000003       0.00000
  21     81.20        0.0000        0.0000        0.0000        0.0000       0.000001       0.00000
  20     96.49        0.0000        0.0000        0.0000        0.0000       0.000000       0.00000
  19     114.6        0.0000        0.0000        0.0000        0.0000       0.000000       0.00000
  18     136.5        0.0000        0.0000        0.0000        0.0000       0.000000       0.00000
  17     162.9        0.0000        0.0000        0.0000        0.0000       0.000000       0.00000
  16     196.4        0.0000        0.0000        0.0000        0.0000       0.000000       0.00000
  15     218.7        0.0000        0.0000        0.0000        0.0000       0.000000       0.00000
  14     243.0        0.0000        0.0000        0.0000        0.0000       0.000000       0.00000
  13     269.0        0.0000        0.0000        0.0000        0.0000       0.000000       0.00000
  12     297.5        0.0000        0.0000        0.0000        0.0000       0.000000       0.00000
  11     328.5        0.0000        0.0000        0.0000        0.0000       0.000000       0.00000
  10     361.9        0.0000        0.0000        0.0000        0.0000       0.000000       0.00000
   9     398.1        0.0000        0.0000        0.0000        0.0000       0.000000       0.00000
   8     437.6        0.0000        0.0000        0.0000        0.0000       0.000000       0.00000
   7     480.5        0.0000        0.0000        0.0000        0.0000       0.000000       0.00000
   6     533.0        0.0000        0.0000        0.0000        0.0000       0.000000       0.00000
   5     589.8        0.0000        0.0000        0.0000        0.0000       0.000000       0.00000
   4     651.6        0.0000        0.0000        0.0000        0.0000       0.000000       0.00000
   3     718.7        0.0000        0.0000        0.0000        0.0000       0.000000       0.00000
   2     792.3        0.0000        0.0000        0.0000        0.0000       0.000000       0.00000
   1     891.5        0.0000        0.0000        0.0000        0.0000       0.000000       0.00000
   0    1013.0        0.0000        0.0000        0.0000        0.0000       0.000000       0.00000



 Wavenumbers:   820. -  2600. cm-1, ATM      1
 LEVEL PRESSURE   UPWARD FLUX   DIFDOWN FLUX  DIRDOWN FLUX  DOWNWARD FLUX   NET FLUX    HEATING RATE
          mb          W/m2          W/m2          W/m2        W/m2          W/m2       degree/day
  51    .06700        0.8500        0.0000        6.0047        6.0047       5.154672       0.00000
  50    .07753        0.8500        0.0000        6.0008        6.0008       5.150819       3.08821
  49    .09103        0.8500        0.0000        5.9999        5.9999       5.149933       0.55358
  48    0.1069        0.8500        0.0000        5.9989        5.9989       5.148944       0.52652
  47    0.1255        0.8500        0.0000        5.9978        5.9978       5.147827       0.50649
  46    0.1487        0.8500        0.0000        5.9964        5.9964       5.146470       0.49457
  45    0.1794        0.8500        0.0000        5.9947        5.9947       5.144751       0.47199
  44    0.2165        0.8500        0.0000        5.9929        5.9929       5.142908       0.41910
  43    0.2613        0.8500        0.0000        5.9909        5.9909       5.140949       0.36933
  42    0.3336        0.8500        0.0000        5.9880        5.9880       5.138071       0.33556
  41    0.4307        0.8500        0.0000        5.9846        5.9846       5.134602       0.30165
  40    0.5894        0.8500        0.0000        5.9791        5.9791       5.129097       0.29276
  39     1.339        0.8500        0.0000        5.9536        5.9536       5.103610       0.28694
  38     1.782        0.8500        0.0000        5.9395        5.9395       5.089471       0.26917
  37     2.292        0.8500        0.0000        5.9237        5.9237       5.073720       0.26088
  36     2.964        0.8500        0.0000        5.9039        5.9039       5.053946       0.24822
  35     3.853        0.8500        0.0000        5.8793        5.8793       5.029290       0.23399
  34     5.035        0.8500        0.0000        5.8487        5.8487       4.998727       0.21833
  33     6.613        0.8500        0.0000        5.8108        5.8108       4.960762       0.20296
  32     8.786        0.8500        0.0000        5.7631        5.7631       4.913138       0.18495
  31     11.80        0.8500        0.0000        5.7039        5.7039       4.853880       0.16590
  30     15.07        0.8500        0.0000        5.6539        5.6539       4.803840       0.12920
  29     18.79        0.8500        0.0000        5.6127        5.6127       4.762701       0.09327
  28     23.16        0.8500        0.0000        5.5794        5.5794       4.729321       0.06455
  27     28.12        0.8501        0.0000        5.5518        5.5518       4.701749       0.04687
  26     33.73        0.8501        0.0000        5.5268        5.5268       4.676688       0.03768
  25     40.54        0.8501        0.0000        5.4993        5.4993       4.649233       0.03406
  24     48.69        0.8501        0.0000        5.4678        5.4678       4.617676       0.03266
  23     57.69        0.8502        0.0000        5.4340        5.4340       4.583869       0.03169
  22     68.43        0.8502        0.0000        5.3947        5.3948       4.544571       0.03089
  21     81.20        0.8502        0.0000        5.3497        5.3497       4.499507       0.02978
  20     96.49        0.8503        0.0000        5.2982        5.2982       4.447955       0.02845
  19     114.6        0.8503        0.0000        5.2389        5.2389       4.388585       0.02772
  18     136.5        0.8504        0.0000        5.1716        5.1717       4.321267       0.02589
  17     162.9        0.8505        0.0000        5.0890        5.0890       4.238547       0.02644
  16     196.4        0.8507        0.0000        4.9668        4.9668       4.116154       0.03081
  15     218.7        0.8509        0.0000        4.8585        4.8585       4.007617       0.04121
  14     243.0        0.8511        0.0000        4.7078        4.7079       3.856715       0.05234
  13     269.0        0.8516        0.0000        4.5343        4.5343       3.682700       0.05645
  12     297.5        0.8523        0.0000        4.3419        4.3420       3.489674       0.05725
  11     328.5        0.8533        0.0000        4.1281        4.1281       3.274889       0.05840
  10     361.9        0.8546        0.0000        3.8786        3.8787       3.024124       0.06345
   9     398.1        0.8563        0.0000        3.6159        3.6159       2.759693       0.06161
   8     437.6        0.8585        0.0000        3.3759        3.3759       2.517401       0.05180
   7     480.5        0.8613        0.0000        3.1957        3.1958       2.334532       0.03591
   6     533.0        0.8655        0.0000        3.0467        3.0467       2.181181       0.02467
   5     589.8        0.8719        0.0000        2.9023        2.9023       2.030402       0.02238
   4     651.6        0.8834        0.0000        2.7183        2.7184       1.835007       0.02672
   3     718.7        0.9032        0.0000        2.5058        2.5059       1.602685       0.02920
   2     792.3        0.9399        0.0000        2.2756        2.2757       1.335758       0.03061
   1     891.5        0.8704        0.2499        1.5745        1.8243       0.953949       0.03249
   0    1013.0        1.0526        0.2031        1.2413        1.4444       0.391749       0.03904

  Modules and versions used in this calculation:

       rrtmg_sw.1col.f90:  $Revision$                    rrtmg_sw_init.f90:  $Revision$        
     rrtmgsw_cldprop.f90:  $Revision$                  rrtmgsw_cldprmc.f90:  NOT USED          
     rrtmg_sw_reftra.f90:  $Revision$                  rrtmg_sw_spcvrt.f90:  NOT USED          
     rrtmg_sw_spcvmc.f90:  NOT USED                    rrtmgsw_setcoef.f90:  NOT USED          
     rrtmg_sw_taumol.f90:  $Revision$                  rrtmg_sw_vrtqdr.f90:  NOT USED          
                rrtatm.f:  NOT USED                             util_xxx.f:  NOT USED          
                 extra.f:  NOT USED                       rrtmg_sw_k_g.f90:  $Revision$        

