

 Wavenumbers:   820. - 50000. cm-1, ATM      1
 LEVEL PRESSURE   UPWARD FLUX   DIFDOWN FLUX  DIRDOWN FLUX  DOWNWARD FLUX   NET FLUX    HEATING RATE
          mb          W/m2          W/m2          W/m2        W/m2          W/m2       degree/day
  51    .06700      237.1070        0.0000      397.8738      397.8738     160.766818       0.00000
  50    .07753      237.1064        0.0012      397.8577      397.8589     160.752530      11.45267
  49    .09103      237.1056        0.0026      397.8418      397.8445     160.738845       8.55349
  48    0.1069      237.1048        0.0043      397.8230      397.8273     160.722501       8.69960
  47    0.1255      237.1038        0.0063      397.7997      397.8059     160.702065       9.26487
  46    0.1487      237.1027        0.0087      397.7676      397.7763     160.673617      10.36964
  45    0.1794      237.1012        0.0120      397.7205      397.7325     160.631340      11.60610
  44    0.2165      237.0995        0.0159      397.6602      397.6762     160.576712      12.42690
  43    0.2613      237.0975        0.0206      397.5829      397.6035     160.505943      13.33968
  42    0.3336      237.0945        0.0282      397.4449      397.4730     160.378557      14.85189
  41    0.4307      237.0908        0.0381      397.2524      397.2905     160.199769      15.54523
  40    0.5894      237.0853        0.0542      396.9253      396.9795     159.894207      16.24942
  39     1.339      237.0706        0.1259      395.4254      395.5512     158.480621      15.91440
  38     1.782      237.0695        0.1660      394.7288      394.8948     157.825351      12.47529
  37     2.292      237.0748        0.2118      394.0572      394.2689     157.194190      10.45367
  36     2.964      237.0915        0.2712      393.3007      393.5719     156.480374       8.96056
  35     3.853      237.1271        0.3488      392.4318      392.7806     155.653450       7.84766
  34     5.035      237.1880        0.4509      391.4441      391.8950     154.707035       6.76079
  33     6.613      237.2766        0.5862      390.3268      390.9130     153.636348       5.72390
  32     8.786      237.3908        0.7672      389.0624      389.8296     152.438798       4.65085
  31     11.80      237.5313        1.0240      387.5500      388.5740     151.042634       3.90882
  30     15.07      237.6556        1.2975      386.1556      387.4531     149.797446       3.21483
  29     18.79      237.7723        1.6040      384.7502      386.3541     148.581845       2.75614
  28     23.16      237.8813        1.9591      383.2686      385.2277     147.346433       2.38889
  27     28.12      237.9740        2.3619      381.7329      384.0948     146.120821       2.08346
  26     33.73      238.0309        2.8094      380.1982      383.0076     144.976709       1.72020
  25     40.54      238.0453        3.3460      378.5384      381.8844     143.839098       1.41133
  24     48.69      238.0109        3.9873      376.7214      380.7088     142.697866       1.18100
  23     57.69      237.9234        4.6851      374.8959      379.5810     141.657639       0.97506
  22     68.43      237.7658        5.5078      372.8999      378.4077     140.641845       0.79855
  21     81.20      237.5045        6.4774      370.7496      377.2270     139.722475       0.60751
  20     96.49      237.1269        7.6181      368.4056      376.0237     138.896850       0.45569
  19     114.6      236.6575        8.9506      365.7513      374.7019     138.044441       0.39802
  18     136.5      236.0875       10.4982      362.7231      373.2213     137.133849       0.35014
  17     162.9      235.4025       12.2974      359.1748      371.4722     136.069748       0.34013
  16     196.4      234.4892       14.5660      354.5718      369.1379     134.648698       0.35770
  15     218.7      233.8866       16.0172      351.4437      367.4608     133.574290       0.40791
  14     243.0      233.2374       17.5607      347.7111      365.2719     132.034451       0.53407
  13     269.0      232.5437       19.1949      342.9441      362.1391     129.595418       0.79121
  12     297.5      231.8085       20.9176      337.4137      358.3314     126.522900       0.91128
  11     328.5      231.0390       22.7305      331.1302      353.8607     122.821724       1.00634
  10     361.9      230.2434       24.6280      324.1219      348.7499     118.506476       1.09180
   9     398.1      229.4297       26.6095      316.6066      343.2161     113.786356       1.09968
   8     437.6      228.6152       28.6704      308.5895      337.2599     108.644732       1.09931
   7     480.5      227.8309       30.8049      299.9349      330.7398     102.908961       1.12648
   6     533.0      227.0085       33.3333      289.7021      323.0354      96.026919       1.10710
   5     589.8      226.3255       35.9430      279.3388      315.2818      88.956296       1.04951
   4     651.6      225.8872       38.6219      268.7786      307.4005      81.513253       1.01786
   3     718.7      225.7807       41.3609      258.2837      299.6446      73.863868       0.96132
   2     792.3      226.1184       44.1460      248.0774      292.2234      66.104937       0.88986
   1     891.5       87.1259      147.3497        1.3925      148.7422      61.616249       0.38197
   0    1013.0       87.2248      145.0214        1.3095      146.3309      59.106066       0.17429



 Wavenumbers:  2600. -  3250. cm-1, ATM      1
 LEVEL PRESSURE   UPWARD FLUX   DIFDOWN FLUX  DIRDOWN FLUX  DOWNWARD FLUX   NET FLUX    HEATING RATE
          mb          W/m2          W/m2          W/m2        W/m2          W/m2       degree/day
  51    .06700        0.8409        0.0000        3.5066        3.5066       2.665724       0.00000
  50    .07753        0.8409        0.0000        3.5066        3.5066       2.665716       0.00640
  49    .09103        0.8409        0.0000        3.5066        3.5066       2.665706       0.00627
  48    0.1069        0.8409        0.0000        3.5066        3.5066       2.665695       0.00613
  47    0.1255        0.8409        0.0000        3.5066        3.5066       2.665682       0.00599
  46    0.1487        0.8409        0.0000        3.5066        3.5066       2.665665       0.00607
  45    0.1794        0.8409        0.0000        3.5065        3.5065       2.665642       0.00624
  44    0.2165        0.8409        0.0000        3.5065        3.5065       2.665615       0.00611
  43    0.2613        0.8409        0.0000        3.5065        3.5065       2.665584       0.00598
  42    0.3336        0.8409        0.0000        3.5064        3.5064       2.665531       0.00615
  41    0.4307        0.8409        0.0000        3.5064        3.5064       2.665460       0.00618
  40    0.5894        0.8409        0.0000        3.5062        3.5062       2.665341       0.00633
  39     1.339        0.8409        0.0000        3.5055        3.5055       2.664642       0.00787
  38     1.782        0.8409        0.0000        3.5050        3.5050       2.664111       0.01011
  37     2.292        0.8409        0.0000        3.5043        3.5043       2.663419       0.01147
  36     2.964        0.8409        0.0000        3.5033        3.5033       2.662427       0.01245
  35     3.853        0.8409        0.0000        3.5019        3.5019       2.661050       0.01307
  34     5.035        0.8409        0.0000        3.5001        3.5001       2.659189       0.01329
  33     6.613        0.8409        0.0000        3.4977        3.4977       2.656779       0.01288
  32     8.786        0.8409        0.0000        3.4947        3.4947       2.653808       0.01154
  31     11.80        0.8409        0.0000        3.4911        3.4911       2.650172       0.01018
  30     15.07        0.8409        0.0000        3.4878        3.4878       2.646951       0.00832
  29     18.79        0.8409        0.0000        3.4848        3.4848       2.643886       0.00695
  28     23.16        0.8409        0.0000        3.4816        3.4816       2.640665       0.00623
  27     28.12        0.8409        0.0000        3.4779        3.4779       2.637044       0.00615
  26     33.73        0.8409        0.0000        3.4735        3.4735       2.632575       0.00672
  25     40.54        0.8409        0.0000        3.4671        3.4672       2.626243       0.00785
  24     48.69        0.8409        0.0000        3.4582        3.4583       2.617340       0.00921
  23     57.69        0.8409        0.0000        3.4472        3.4472       2.606281       0.01037
  22     68.43        0.8409        0.0000        3.4329        3.4329       2.592005       0.01122
  21     81.20        0.8410        0.0000        3.4152        3.4152       2.574253       0.01173
  20     96.49        0.8410        0.0000        3.3940        3.3941       2.553075       0.01169
  19     114.6        0.8411        0.0000        3.3692        3.3692       2.528139       0.01164
  18     136.5        0.8411        0.0001        3.3419        3.3420       2.500853       0.01049
  17     162.9        0.8413        0.0001        3.3129        3.3129       2.471675       0.00933
  16     196.4        0.8415        0.0001        3.2793        3.2794       2.437914       0.00850
  15     218.7        0.8417        0.0001        3.2578        3.2578       2.416114       0.00828
  14     243.0        0.8421        0.0001        3.2320        3.2321       2.389954       0.00907
  13     269.0        0.8427        0.0001        3.1968        3.1969       2.354238       0.01159
  12     297.5        0.8436        0.0001        3.1489        3.1491       2.305434       0.01447
  11     328.5        0.8450        0.0001        3.0821        3.0822       2.237154       0.01856
  10     361.9        0.8471        0.0001        2.9902        2.9904       2.143267       0.02375
   9     398.1        0.8501        0.0001        2.8715        2.8716       2.021530       0.02836
   8     437.6        0.8544        0.0002        2.7276        2.7278       1.873377       0.03168
   7     480.5        0.8609        0.0002        2.5595        2.5597       1.698749       0.03430
   6     533.0        0.8719        0.0002        2.3617        2.3619       1.489986       0.03358
   5     589.8        0.8881        0.0002        2.1649        2.1651       1.276995       0.03161
   4     651.6        0.9122        0.0002        1.9608        1.9609       1.048731       0.03122
   3     718.7        0.9467        0.0002        1.7593        1.7595       0.812777       0.02965
   2     792.3        0.9950        0.0002        1.5761        1.5762       0.581228       0.02656
   1     891.5        0.0324        0.4848        0.0081        0.4929       0.460557       0.01027
   0    1013.0        0.0355        0.4357        0.0069        0.4426       0.407124       0.00371



 Wavenumbers:  3250. -  4000. cm-1, ATM      1
 LEVEL PRESSURE   UPWARD FLUX   DIFDOWN FLUX  DIRDOWN FLUX  DOWNWARD FLUX   NET FLUX    HEATING RATE
          mb          W/m2          W/m2          W/m2        W/m2          W/m2       degree/day
  51    .06700        0.0063        0.0000        5.9117        5.9117       5.905342       0.00000
  50    .07753        0.0063        0.0000        5.9075        5.9075       5.901153       3.35808
  49    .09103        0.0063        0.0000        5.9050        5.9050       5.898710       1.52677
  48    0.1069        0.0063        0.0000        5.9032        5.9032       5.896844       0.99346
  47    0.1255        0.0063        0.0000        5.9014        5.9014       5.895085       0.79708
  46    0.1487        0.0063        0.0000        5.8995        5.8995       5.893197       0.68848
  45    0.1794        0.0063        0.0000        5.8974        5.8974       5.891048       0.58983
  44    0.2165        0.0063        0.0000        5.8952        5.8952       5.888931       0.48155
  43    0.2613        0.0063        0.0000        5.8931        5.8931       5.886772       0.40696
  42    0.3336        0.0063        0.0000        5.8899        5.8899       5.883614       0.36820
  41    0.4307        0.0063        0.0000        5.8861        5.8861       5.879777       0.33365
  40    0.5894        0.0063        0.0000        5.8803        5.8803       5.873974       0.30857
  39     1.339        0.0063        0.0000        5.8597        5.8597       5.853377       0.23189
  38     1.782        0.0063        0.0000        5.8513        5.8513       5.844952       0.16039
  37     2.292        0.0063        0.0000        5.8431        5.8431       5.836781       0.13533
  36     2.964        0.0063        0.0000        5.8334        5.8334       5.827142       0.12100
  35     3.853        0.0063        0.0000        5.8213        5.8213       5.814966       0.11555
  34     5.035        0.0063        0.0000        5.8052        5.8052       5.798871       0.11498
  33     6.613        0.0063        0.0000        5.7833        5.7834       5.777050       0.11666
  32     8.786        0.0063        0.0000        5.7531        5.7531       5.746848       0.11729
  31     11.80        0.0063        0.0000        5.7090        5.7090       5.702679       0.12366
  30     15.07        0.0063        0.0000        5.6615        5.6615       5.655215       0.12254
  29     18.79        0.0063        0.0000        5.6093        5.6094       5.603079       0.11821
  28     23.16        0.0063        0.0000        5.5524        5.5524       5.546153       0.11008
  27     28.12        0.0063        0.0000        5.4935        5.4935       5.487274       0.10009
  26     33.73        0.0063        0.0000        5.4348        5.4349       5.428586       0.08824
  25     40.54        0.0063        0.0001        5.3707        5.3708       5.364524       0.07948
  24     48.69        0.0062        0.0001        5.2985        5.2985       5.292291       0.07475
  23     57.69        0.0062        0.0001        5.2215        5.2216       5.215352       0.07212
  22     68.43        0.0062        0.0001        5.1318        5.1319       5.125692       0.07048
  21     81.20        0.0062        0.0001        5.0284        5.0285       5.022263       0.06834
  20     96.49        0.0062        0.0001        4.9122        4.9123       4.906128       0.06410
  19     114.6        0.0062        0.0001        4.7780        4.7782       4.772017       0.06262
  18     136.5        0.0061        0.0002        4.6285        4.6287       4.622539       0.05748
  17     162.9        0.0061        0.0002        4.4406        4.4407       4.434626       0.06006
  16     196.4        0.0061        0.0002        4.1548        4.1550       4.148952       0.07191
  15     218.7        0.0061        0.0002        3.9564        3.9566       3.950570       0.07532
  14     243.0        0.0060        0.0002        3.7055        3.7058       3.699732       0.08700
  13     269.0        0.0060        0.0002        3.3399        3.3401       3.334085       0.11861
  12     297.5        0.0060        0.0002        2.8954        2.8956       2.889579       0.13184
  11     328.5        0.0060        0.0002        2.4388        2.4390       2.433004       0.12414
  10     361.9        0.0061        0.0002        2.0269        2.0271       2.021003       0.10424
   9     398.1        0.0062        0.0002        1.6753        1.6755       1.669305       0.08194
   8     437.6        0.0064        0.0002        1.3592        1.3594       1.352995       0.06763
   7     480.5        0.0067        0.0002        1.0616        1.0618       1.055066       0.05851
   6     533.0        0.0074        0.0001        0.7543        0.7544       0.747019       0.04956
   5     589.8        0.0087        0.0001        0.4951        0.4952       0.486511       0.03867
   4     651.6        0.0113        0.0001        0.2943        0.2943       0.283053       0.02782
   3     718.7        0.0163        0.0001        0.1528        0.1529       0.136517       0.01842
   2     792.3        0.0267        0.0000        0.0658        0.0658       0.039151       0.01117
   1     891.5        0.0000        0.0072        0.0001        0.0073       0.007285       0.00271
   0    1013.0        0.0001        0.0017        0.0000        0.0017       0.001623       0.00039



 Wavenumbers:  4000. -  4650. cm-1, ATM      1
 LEVEL PRESSURE   UPWARD FLUX   DIFDOWN FLUX  DIRDOWN FLUX  DOWNWARD FLUX   NET FLUX    HEATING RATE
          mb          W/m2          W/m2          W/m2        W/m2          W/m2       degree/day
  51    .06700        2.9945        0.0000        6.9421        6.9421       3.947518       0.00000
  50    .07753        2.9945        0.0000        6.9421        6.9421       3.947517       0.00079
  49    .09103        2.9945        0.0000        6.9421        6.9421       3.947516       0.00078
  48    0.1069        2.9945        0.0000        6.9421        6.9421       3.947515       0.00076
  47    0.1255        2.9945        0.0000        6.9421        6.9421       3.947513       0.00074
  46    0.1487        2.9945        0.0000        6.9421        6.9421       3.947511       0.00075
  45    0.1794        2.9945        0.0000        6.9421        6.9421       3.947508       0.00077
  44    0.2165        2.9945        0.0000        6.9421        6.9421       3.947505       0.00076
  43    0.2613        2.9945        0.0000        6.9420        6.9420       3.947501       0.00074
  42    0.3336        2.9945        0.0000        6.9420        6.9420       3.947494       0.00076
  41    0.4307        2.9945        0.0000        6.9420        6.9420       3.947486       0.00077
  40    0.5894        2.9945        0.0000        6.9420        6.9420       3.947471       0.00079
  39     1.339        2.9945        0.0000        6.9419        6.9419       3.947382       0.00100
  38     1.782        2.9945        0.0000        6.9418        6.9419       3.947312       0.00132
  37     2.292        2.9945        0.0000        6.9418        6.9418       3.947219       0.00155
  36     2.964        2.9945        0.0000        6.9416        6.9416       3.947080       0.00175
  35     3.853        2.9945        0.0000        6.9414        6.9414       3.946873       0.00196
  34     5.035        2.9945        0.0000        6.9411        6.9411       3.946568       0.00218
  33     6.613        2.9945        0.0000        6.9406        6.9407       3.946120       0.00240
  32     8.786        2.9945        0.0000        6.9399        6.9400       3.945460       0.00257
  31     11.80        2.9945        0.0000        6.9389        6.9389       3.944424       0.00290
  30     15.07        2.9945        0.0001        6.9377        6.9377       3.943212       0.00313
  29     18.79        2.9945        0.0001        6.9362        6.9363       3.941752       0.00331
  28     23.16        2.9945        0.0001        6.9343        6.9344       3.939945       0.00349
  27     28.12        2.9945        0.0001        6.9321        6.9323       3.937767       0.00370
  26     33.73        2.9945        0.0001        6.9294        6.9296       3.935093       0.00402
  25     40.54        2.9945        0.0002        6.9258        6.9260       3.931487       0.00447
  24     48.69        2.9945        0.0002        6.9210        6.9212       3.926710       0.00494
  23     57.69        2.9945        0.0002        6.9154        6.9156       3.921087       0.00527
  22     68.43        2.9945        0.0003        6.9083        6.9086       3.914092       0.00550
  21     81.20        2.9946        0.0003        6.8998        6.9001       3.905532       0.00566
  20     96.49        2.9947        0.0004        6.8894        6.8898       3.895181       0.00571
  19     114.6        2.9948        0.0005        6.8765        6.8770       3.882206       0.00606
  18     136.5        2.9950        0.0006        6.8610        6.8615       3.866528       0.00603
  17     162.9        2.9954        0.0007        6.8417        6.8423       3.846983       0.00625
  16     196.4        2.9960        0.0008        6.8147        6.8155       3.819493       0.00692
  15     218.7        2.9966        0.0009        6.7948        6.7957       3.799196       0.00771
  14     243.0        2.9974        0.0010        6.7698        6.7708       3.773396       0.00895
  13     269.0        2.9987        0.0011        6.7349        6.7360       3.737223       0.01173
  12     297.5        3.0008        0.0012        6.6869        6.6881       3.687303       0.01481
  11     328.5        3.0037        0.0013        6.6194        6.6207       3.617039       0.01910
  10     361.9        3.0075        0.0015        6.5295        6.5309       3.523414       0.02369
   9     398.1        3.0126        0.0016        6.4202        6.4218       3.409219       0.02660
   8     437.6        3.0194        0.0017        6.2962        6.2979       3.278499       0.02795
   7     480.5        3.0289        0.0018        6.1555        6.1573       3.128464       0.02947
   6     533.0        3.0445        0.0020        5.9675        5.9695       2.925080       0.03272
   5     589.8        3.0674        0.0022        5.7368        5.7389       2.671474       0.03764
   4     651.6        3.1018        0.0023        5.4662        5.4685       2.366783       0.04167
   3     718.7        3.1507        0.0025        5.1912        5.1937       2.042904       0.04070
   2     792.3        3.2184        0.0026        4.9395        4.9421       1.723736       0.03661
   1     891.5        0.0849        1.6106        0.0275        1.6381       1.553149       0.01452
   0    1013.0        0.0883        1.5369        0.0255        1.5624       1.474079       0.00549



 Wavenumbers:  4650. -  5150. cm-1, ATM      1
 LEVEL PRESSURE   UPWARD FLUX   DIFDOWN FLUX  DIRDOWN FLUX  DOWNWARD FLUX   NET FLUX    HEATING RATE
          mb          W/m2          W/m2          W/m2        W/m2          W/m2       degree/day
  51    .06700        2.0970        0.0000        6.5710        6.5710       4.474024       0.00000
  50    .07753        2.0970        0.0000        6.5708        6.5708       4.473789       0.18887
  49    .09103        2.0970        0.0000        6.5705        6.5705       4.473495       0.18362
  48    0.1069        2.0970        0.0000        6.5701        6.5701       4.473160       0.17806
  47    0.1255        2.0970        0.0000        6.5697        6.5697       4.472780       0.17238
  46    0.1487        2.0970        0.0000        6.5693        6.5693       4.472306       0.17268
  45    0.1794        2.0970        0.0000        6.5686        6.5686       4.471670       0.17473
  44    0.2165        2.0970        0.0000        6.5679        6.5679       4.470932       0.16788
  43    0.2613        2.0970        0.0000        6.5670        6.5670       4.470079       0.16078
  42    0.3336        2.0970        0.0000        6.5657        6.5657       4.468716       0.15894
  41    0.4307        2.0970        0.0000        6.5640        6.5640       4.466994       0.14971
  40    0.5894        2.0970        0.0000        6.5613        6.5613       4.464378       0.13913
  39     1.339        2.0970        0.0000        6.5516        6.5516       4.454600       0.11008
  38     1.782        2.0970        0.0000        6.5473        6.5473       4.450384       0.08027
  37     2.292        2.0970        0.0000        6.5434        6.5435       4.446496       0.06438
  36     2.964        2.0970        0.0000        6.5395        6.5395       4.442542       0.04965
  35     3.853        2.0970        0.0000        6.5355        6.5356       4.438598       0.03743
  34     5.035        2.0970        0.0000        6.5315        6.5315       4.434594       0.02860
  33     6.613        2.0969        0.0000        6.5271        6.5271       4.430198       0.02350
  32     8.786        2.0969        0.0001        6.5216        6.5216       4.424699       0.02136
  31     11.80        2.0969        0.0001        6.5135        6.5136       4.416612       0.02264
  30     15.07        2.0969        0.0001        6.5041        6.5042       4.407233       0.02421
  29     18.79        2.0969        0.0001        6.4925        6.4926       4.395703       0.02614
  28     23.16        2.0969        0.0001        6.4779        6.4780       4.381091       0.02826
  27     28.12        2.0970        0.0002        6.4599        6.4601       4.363088       0.03060
  26     33.73        2.0970        0.0002        6.4384        6.4386       4.341620       0.03228
  25     40.54        2.0970        0.0002        6.4112        6.4115       4.314444       0.03372
  24     48.69        2.0971        0.0003        6.3775        6.3778       4.280734       0.03488
  23     57.69        2.0972        0.0004        6.3404        6.3407       4.243550       0.03485
  22     68.43        2.0973        0.0004        6.2971        6.2975       4.200234       0.03405
  21     81.20        2.0975        0.0005        6.2483        6.2487       4.151244       0.03237
  20     96.49        2.0978        0.0006        6.1948        6.1954       4.097634       0.02959
  19     114.6        2.0982        0.0007        6.1381        6.1388       4.040670       0.02660
  18     136.5        2.0987        0.0008        6.0790        6.0798       3.981109       0.02290
  17     162.9        2.0995        0.0010        6.0160        6.0170       3.917521       0.02033
  16     196.4        2.1007        0.0011        5.9399        5.9410       3.840306       0.01944
  15     218.7        2.1017        0.0013        5.8896        5.8909       3.789203       0.01940
  14     243.0        2.1030        0.0014        5.8322        5.8336       3.730576       0.02033
  13     269.0        2.1049        0.0015        5.7624        5.7639       3.659056       0.02320
  12     297.5        2.1075        0.0017        5.6767        5.6784       3.570859       0.02616
  11     328.5        2.1112        0.0018        5.5726        5.5744       3.463220       0.02927
  10     361.9        2.1161        0.0020        5.4473        5.4493       3.333159       0.03291
   9     398.1        2.1228        0.0021        5.2995        5.3016       3.178823       0.03596
   8     437.6        2.1317        0.0023        5.1275        5.1298       2.998028       0.03866
   7     480.5        2.1439        0.0024        4.9290        4.9314       2.787469       0.04135
   6     533.0        2.1633        0.0026        4.6794        4.6820       2.518685       0.04324
   5     589.8        2.1905        0.0028        4.4188        4.4216       2.231093       0.04269
   4     651.6        2.2291        0.0029        4.1521        4.1550       1.925905       0.04174
   3     718.7        2.2820        0.0031        3.8929        3.8960       1.614044       0.03919
   2     792.3        2.3530        0.0032        3.6469        3.6501       1.297107       0.03635
   1     891.5        0.0618        1.1681        0.0198        1.1879       1.126148       0.01455
   0    1013.0        0.0651        1.0976        0.0180        1.1156       1.050440       0.00526



 Wavenumbers:  5150. -  6150. cm-1, ATM      1
 LEVEL PRESSURE   UPWARD FLUX   DIFDOWN FLUX  DIRDOWN FLUX  DOWNWARD FLUX   NET FLUX    HEATING RATE
          mb          W/m2          W/m2          W/m2        W/m2          W/m2       degree/day
  51    .06700        5.1928        0.0000       16.4735       16.4735      11.280728       0.00000
  50    .07753        5.1928        0.0000       16.4735       16.4735      11.280694       0.02763
  49    .09103        5.1928        0.0000       16.4734       16.4734      11.280649       0.02813
  48    0.1069        5.1928        0.0000       16.4734       16.4734      11.280595       0.02861
  47    0.1255        5.1928        0.0000       16.4733       16.4733      11.280531       0.02906
  46    0.1487        5.1928        0.0000       16.4732       16.4732      11.280447       0.03062
  45    0.1794        5.1928        0.0000       16.4731       16.4731      11.280328       0.03271
  44    0.2165        5.1928        0.0000       16.4730       16.4730      11.280181       0.03333
  43    0.2613        5.1928        0.0000       16.4728       16.4728      11.280002       0.03378
  42    0.3336        5.1928        0.0000       16.4725       16.4725      11.279696       0.03566
  41    0.4307        5.1928        0.0000       16.4720       16.4720      11.279277       0.03647
  40    0.5894        5.1928        0.0000       16.4713       16.4713      11.278575       0.03731
  39     1.339        5.1928        0.0000       16.4679       16.4679      11.275164       0.03840
  38     1.782        5.1928        0.0000       16.4659       16.4659      11.273163       0.03810
  37     2.292        5.1927        0.0001       16.4635       16.4636      11.270869       0.03799
  36     2.964        5.1927        0.0001       16.4605       16.4606      11.267895       0.03732
  35     3.853        5.1927        0.0001       16.4567       16.4568      11.264036       0.03662
  34     5.035        5.1927        0.0001       16.4516       16.4517      11.259031       0.03576
  33     6.613        5.1927        0.0002       16.4451       16.4452      11.252558       0.03460
  32     8.786        5.1927        0.0002       16.4367       16.4369      11.244228       0.03235
  31     11.80        5.1926        0.0003       16.4254       16.4257      11.233048       0.03130
  30     15.07        5.1926        0.0004       16.4141       16.4145      11.221927       0.02871
  29     18.79        5.1926        0.0005       16.4024       16.4030      11.210365       0.02621
  28     23.16        5.1926        0.0007       16.3900       16.3906      11.198053       0.02381
  27     28.12        5.1926        0.0008       16.3771       16.3779      11.185326       0.02163
  26     33.73        5.1925        0.0009       16.3641       16.3651      11.172522       0.01925
  25     40.54        5.1925        0.0011       16.3502       16.3513      11.158775       0.01705
  24     48.69        5.1926        0.0014       16.3354       16.3367      11.144160       0.01513
  23     57.69        5.1926        0.0016       16.3211       16.3227      11.130089       0.01319
  22     68.43        5.1927        0.0019       16.3062       16.3082      11.115485       0.01148
  21     81.20        5.1928        0.0023       16.2903       16.2926      11.099822       0.01035
  20     96.49        5.1929        0.0027       16.2726       16.2753      11.082416       0.00961
  19     114.6        5.1931        0.0032       16.2521       16.2553      11.062194       0.00944
  18     136.5        5.1933        0.0038       16.2245       16.2283      11.035032       0.01044
  17     162.9        5.1936        0.0045       16.1747       16.1793      10.985623       0.01579
  16     196.4        5.1941        0.0054       16.0518       16.0573      10.863154       0.03083
  15     218.7        5.1945        0.0060       15.8984       15.9044      10.709902       0.05818
  14     243.0        5.1950        0.0066       15.6153       15.6218      10.426878       0.09816
  13     269.0        5.1957        0.0071       15.1390       15.1461       9.950432       0.15456
  12     297.5        5.1968        0.0077       14.5779       14.5856       9.388747       0.16659
  11     328.5        5.1986        0.0082       13.8780       13.8862       8.687659       0.19062
  10     361.9        5.2012        0.0087       13.0814       13.0901       7.888919       0.20209
   9     398.1        5.2051        0.0091       12.2728       12.2819       7.076874       0.18919
   8     437.6        5.2108        0.0095       11.4776       11.4870       6.276201       0.17119
   7     480.5        5.2198        0.0098       10.7300       10.7398       5.519981       0.14852
   6     533.0        5.2359        0.0103       10.0326       10.0429       4.806932       0.11471
   5     589.8        5.2617        0.0108        9.5050        9.5158       4.254102       0.08206
   4     651.6        5.3034        0.0115        9.0814        9.0928       3.789398       0.06355
   3     718.7        5.3676        0.0122        8.7024        8.7147       3.347062       0.05559
   2     792.3        5.4625        0.0131        8.3379        8.3510       2.888465       0.05260
   1     891.5        0.1622        2.7512        0.0467        2.7979       2.635706       0.02151
   0    1013.0        0.1665        2.6477        0.0442        2.6919       2.525404       0.00766



 Wavenumbers:  6150. -  7700. cm-1, ATM      1
 LEVEL PRESSURE   UPWARD FLUX   DIFDOWN FLUX  DIRDOWN FLUX  DOWNWARD FLUX   NET FLUX    HEATING RATE
          mb          W/m2          W/m2          W/m2        W/m2          W/m2       degree/day
  51    .06700        8.0996        0.0000       30.4684       30.4684      22.368801       0.00000
  50    .07753        8.0996        0.0000       30.4683       30.4683      22.368749       0.04144
  49    .09103        8.0996        0.0000       30.4683       30.4683      22.368683       0.04174
  48    0.1069        8.0996        0.0000       30.4682       30.4682      22.368604       0.04202
  47    0.1255        8.0996        0.0000       30.4681       30.4681      22.368511       0.04227
  46    0.1487        8.0996        0.0000       30.4680       30.4680      22.368390       0.04411
  45    0.1794        8.0996        0.0000       30.4678       30.4678      22.368219       0.04669
  44    0.2165        8.0996        0.0000       30.4676       30.4676      22.368012       0.04715
  43    0.2613        8.0996        0.0000       30.4673       30.4673      22.367761       0.04744
  42    0.3336        8.0996        0.0000       30.4669       30.4669      22.367334       0.04974
  41    0.4307        8.0995        0.0000       30.4663       30.4663      22.366753       0.05052
  40    0.5894        8.0995        0.0001       30.4653       30.4653      22.365785       0.05146
  39     1.339        8.0995        0.0002       30.4604       30.4606      22.361101       0.05273
  38     1.782        8.0994        0.0002       30.4576       30.4578      22.358352       0.05235
  37     2.292        8.0994        0.0003       30.4543       30.4546      22.355193       0.05231
  36     2.964        8.0993        0.0003       30.4501       30.4504      22.351086       0.05156
  35     3.853        8.0992        0.0004       30.4445       30.4450      22.345729       0.05084
  34     5.035        8.0991        0.0006       30.4373       30.4379      22.338729       0.05000
  33     6.613        8.0990        0.0008       30.4278       30.4286      22.329581       0.04890
  32     8.786        8.0988        0.0010       30.4154       30.4164      22.317628       0.04642
  31     11.80        8.0985        0.0014       30.3984       30.3997      22.301243       0.04587
  30     15.07        8.0982        0.0018       30.3810       30.3827      22.284529       0.04315
  29     18.79        8.0979        0.0022       30.3623       30.3645      22.266628       0.04059
  28     23.16        8.0975        0.0027       30.3417       30.3444      22.246944       0.03806
  27     28.12        8.0970        0.0033       30.3196       30.3228      22.225843       0.03587
  26     33.73        8.0965        0.0039       30.2965       30.3004      22.203923       0.03296
  25     40.54        8.0959        0.0047       30.2708       30.2755      22.179583       0.03020
  24     48.69        8.0951        0.0057       30.2423       30.2479      22.152804       0.02771
  23     57.69        8.0943        0.0067       30.2139       30.2206      22.126235       0.02490
  22     68.43        8.0934        0.0079       30.1834       30.1913      22.097955       0.02223
  21     81.20        8.0922        0.0094       30.1500       30.1594      22.067220       0.02031
  20     96.49        8.0908        0.0112       30.1126       30.1238      22.032993       0.01889
  19     114.6        8.0892        0.0133       30.0695       30.0828      21.993594       0.01840
  18     136.5        8.0873        0.0158       30.0139       30.0297      21.942417       0.01968
  17     162.9        8.0850        0.0187       29.9225       29.9412      21.856193       0.02756
  16     196.4        8.0821        0.0225       29.7333       29.7558      21.673701       0.04594
  15     218.7        8.0803        0.0249       29.5259       29.5508      21.470457       0.07716
  14     243.0        8.0785        0.0275       29.1375       29.1649      21.086412       0.13320
  13     269.0        8.0770        0.0299       28.3800       28.4099      20.332920       0.24443
  12     297.5        8.0761        0.0322       27.3895       27.4218      19.345696       0.29280
  11     328.5        8.0763        0.0344       26.2257       26.2602      18.183853       0.31590
  10     361.9        8.0785        0.0365       24.8453       24.8819      16.803390       0.34927
   9     398.1        8.0836        0.0384       23.3471       23.3854      15.301839       0.34983
   8     437.6        8.0935        0.0400       21.7966       21.8366      13.743083       0.33327
   7     480.5        8.1119        0.0413       20.1977       20.2390      12.127090       0.31737
   6     533.0        8.1484        0.0426       18.4969       18.5396      10.391196       0.27925
   5     589.8        8.2098        0.0440       16.9754       17.0194       8.809591       0.23476
   4     651.6        8.3120        0.0454       15.6022       15.6476       7.335632       0.20157
   3     718.7        8.4703        0.0470       14.4232       14.4702       5.999937       0.16786
   2     792.3        8.7057        0.0489       13.4386       13.4875       4.781758       0.13971
   1     891.5        0.2605        4.3423        0.0732        4.4155       4.155016       0.05333
   0    1013.0        0.2721        4.0872        0.0668        4.1540       3.881862       0.01897



 Wavenumbers:  7700. -  8050. cm-1, ATM      1
 LEVEL PRESSURE   UPWARD FLUX   DIFDOWN FLUX  DIRDOWN FLUX  DOWNWARD FLUX   NET FLUX    HEATING RATE
          mb          W/m2          W/m2          W/m2        W/m2          W/m2       degree/day
  51    .06700        3.8739        0.0000        7.2006        7.2006       3.326663       0.00000
  50    .07753        3.8739        0.0000        7.2006        7.2006       3.326643       0.01627
  49    .09103        3.8739        0.0000        7.2005        7.2005       3.326618       0.01595
  48    0.1069        3.8739        0.0000        7.2005        7.2005       3.326588       0.01561
  47    0.1255        3.8739        0.0000        7.2005        7.2005       3.326554       0.01528
  46    0.1487        3.8739        0.0000        7.2004        7.2005       3.326512       0.01550
  45    0.1794        3.8739        0.0000        7.2004        7.2004       3.326454       0.01595
  44    0.2165        3.8740        0.0000        7.2003        7.2003       3.326385       0.01565
  43    0.2613        3.8740        0.0000        7.2003        7.2003       3.326304       0.01535
  42    0.3336        3.8740        0.0000        7.2001        7.2001       3.326169       0.01571
  41    0.4307        3.8740        0.0000        7.2000        7.2000       3.325990       0.01554
  40    0.5894        3.8740        0.0000        7.1997        7.1997       3.325698       0.01552
  39     1.339        3.8742        0.0001        7.1984        7.1985       3.324318       0.01554
  38     1.782        3.8743        0.0001        7.1977        7.1978       3.323507       0.01543
  37     2.292        3.8744        0.0001        7.1968        7.1969       3.322569       0.01554
  36     2.964        3.8745        0.0001        7.1957        7.1958       3.321338       0.01546
  35     3.853        3.8747        0.0002        7.1942        7.1944       3.319712       0.01543
  34     5.035        3.8749        0.0003        7.1922        7.1925       3.317553       0.01542
  33     6.613        3.8753        0.0003        7.1896        7.1899       3.314672       0.01540
  32     8.786        3.8757        0.0004        7.1860        7.1865       3.310795       0.01506
  31     11.80        3.8763        0.0006        7.1810        7.1816       3.305259       0.01550
  30     15.07        3.8770        0.0008        7.1755        7.1763       3.299329       0.01531
  29     18.79        3.8777        0.0009        7.1694        7.1704       3.292650       0.01514
  28     23.16        3.8786        0.0012        7.1623        7.1635       3.284874       0.01504
  27     28.12        3.8796        0.0014        7.1542        7.1557       3.276016       0.01506
  26     33.73        3.8808        0.0017        7.1452        7.1469       3.266148       0.01484
  25     40.54        3.8822        0.0020        7.1344        7.1365       3.254289       0.01471
  24     48.69        3.8839        0.0024        7.1215        7.1239       3.240084       0.01470
  23     57.69        3.8857        0.0029        7.1074        7.1103       3.224597       0.01452
  22     68.43        3.8879        0.0034        7.0909        7.0943       3.206309       0.01438
  21     81.20        3.8906        0.0040        7.0713        7.0754       3.184741       0.01425
  20     96.49        3.8939        0.0048        7.0484        7.0532       3.159345       0.01402
  19     114.6        3.8977        0.0057        7.0217        7.0273       3.129608       0.01389
  18     136.5        3.9024        0.0067        6.9906        6.9973       3.094919       0.01334
  17     162.9        3.9080        0.0079        6.9544        6.9623       3.054351       0.01297
  16     196.4        3.9154        0.0095        6.9087        6.9183       3.002875       0.01296
  15     218.7        3.9204        0.0106        6.8794        6.8900       2.969650       0.01261
  14     243.0        3.9259        0.0117        6.8481        6.8598       2.933998       0.01237
  13     269.0        3.9319        0.0130        6.8147        6.8277       2.895763       0.01240
  12     297.5        3.9386        0.0143        6.7791        6.7934       2.854717       0.01217
  11     328.5        3.9462        0.0157        6.7409        6.7567       2.810501       0.01202
  10     361.9        3.9546        0.0173        6.7002        6.7174       2.762811       0.01207
   9     398.1        3.9641        0.0189        6.6563        6.6752       2.711051       0.01206
   8     437.6        3.9749        0.0207        6.6089        6.6295       2.654585       0.01207
   7     480.5        3.9874        0.0226        6.5570        6.5795       2.592123       0.01227
   6     533.0        4.0042        0.0249        6.4915        6.5163       2.512165       0.01286
   5     589.8        4.0242        0.0273        6.4182        6.4456       2.421405       0.01347
   4     651.6        4.0482        0.0299        6.3359        6.3658       2.317606       0.01419
   3     718.7        4.0770        0.0327        6.2441        6.2769       2.199885       0.01479
   2     792.3        4.1108        0.0357        6.1437        6.1794       2.068582       0.01506
   1     891.5        0.1532        2.1088        0.0355        2.1443       1.991109       0.00659
   0    1013.0        0.1552        2.0725        0.0345        2.1069       1.951773       0.00273



 Wavenumbers:  8050. - 12850. cm-1, ATM      1
 LEVEL PRESSURE   UPWARD FLUX   DIFDOWN FLUX  DIRDOWN FLUX  DOWNWARD FLUX   NET FLUX    HEATING RATE
          mb          W/m2          W/m2          W/m2        W/m2          W/m2       degree/day
  51    .06700       52.0980        0.0000      100.8135      100.8135      48.715491       0.00000
  50    .07753       52.0980        0.0000      100.8135      100.8135      48.715491       0.00000
  49    .09103       52.0980        0.0001      100.8134      100.8135      48.715491      -0.00000
  48    0.1069       52.0980        0.0001      100.8134      100.8135      48.715491       0.00000
  47    0.1255       52.0979        0.0001      100.8133      100.8134      48.715491       0.00000
  46    0.1487       52.0979        0.0002      100.8132      100.8134      48.715491      -0.00000
  45    0.1794       52.0979        0.0003      100.8131      100.8133      48.715491      -0.00000
  44    0.2165       52.0978        0.0004      100.8129      100.8133      48.715491       0.00000
  43    0.2613       52.0977        0.0005      100.8127      100.8132      48.715491       0.00000
  42    0.3336       52.0976        0.0007      100.8125      100.8131      48.715491      -0.00000
  41    0.4307       52.0975        0.0009      100.8121      100.8130      48.715491       0.00000
  40    0.5894       52.0972        0.0013      100.8115      100.8127      48.715491      -0.00000
  39     1.339       52.0961        0.0031      100.8085      100.8116      48.715491       0.00000
  38     1.782       52.0955        0.0042      100.8068      100.8110      48.715491      -0.00000
  37     2.292       52.0947        0.0054      100.8047      100.8102      48.715491       0.00000
  36     2.964       52.0937        0.0071      100.8021      100.8092      48.715491      -0.00000
  35     3.853       52.0924        0.0093      100.7986      100.8079      48.715491      -0.00000
  34     5.035       52.0906        0.0121      100.7940      100.8061      48.715491      -0.00000
  33     6.613       52.0883        0.0160      100.7878      100.8038      48.715491       0.00000
  32     8.786       52.0851        0.0212      100.7794      100.8006      48.715491       0.00000
  31     11.80       52.0806        0.0286      100.7674      100.7960      48.715491      -0.00000
  30     15.07       52.0757        0.0366      100.7546      100.7912      48.715491       0.00000
  29     18.79       52.0701        0.0456      100.7400      100.7856      48.715491      -0.00000
  28     23.16       52.0637        0.0562      100.7230      100.7792      48.715491       0.00000
  27     28.12       52.0563        0.0683      100.7035      100.7718      48.715491       0.00000
  26     33.73       52.0480        0.0819      100.6817      100.7635      48.715491      -0.00000
  25     40.54       52.0380        0.0983      100.6552      100.7535      48.715491       0.00000
  24     48.69       52.0259        0.1180      100.6234      100.7414      48.715491      -0.00000
  23     57.69       52.0126        0.1398      100.5883      100.7281      48.715491       0.00000
  22     68.43       51.9967        0.1658      100.5464      100.7122      48.715491       0.00000
  21     81.20       51.9778        0.1968      100.4965      100.6933      48.715491      -0.00000
  20     96.49       51.9552        0.2337      100.4370      100.6707      48.715491       0.00000
  19     114.6       51.9284        0.2777      100.3585      100.6362      48.707719       0.00363
  18     136.5       51.8967        0.3299      100.2634      100.5932      48.696541       0.00430
  17     162.9       51.8589        0.3921      100.1407      100.5328      48.673891       0.00724
  16     196.4       51.8100        0.4730       99.9505      100.4235      48.613529       0.01519
  15     218.7       51.7779        0.5262       99.7889      100.3151      48.537198       0.02898
  14     243.0       51.7434        0.5839       99.5472      100.1310      48.387627       0.05188
  13     269.0       51.7075        0.6461       99.1452       99.7913      48.083792       0.09856
  12     297.5       51.6713        0.7128       98.5975       99.3103      47.638955       0.13193
  11     328.5       51.6370        0.7844       97.8659       98.6503      47.013290       0.17012
  10     361.9       51.6075        0.8605       96.8848       97.7453      46.137814       0.22150
   9     398.1       51.5869        0.9409       95.6330       96.5739      44.986958       0.26812
   8     437.6       51.5831        1.0253       94.0655       95.0907      43.507634       0.31629
   7     480.5       51.6110        1.1126       92.0807       93.1933      41.582296       0.37813
   6     533.0       51.7003        1.2159       89.4449       90.6608      38.960465       0.42177
   5     589.8       51.8804        1.3229       86.5544       87.8773      35.996863       0.43990
   4     651.6       52.2039        1.4329       83.4174       84.8503      32.646322       0.45820
   3     718.7       52.7149        1.5467       80.2037       81.7504      29.035512       0.45378
   2     792.3       53.4666        1.6652       77.0811       78.7462      25.279657       0.43075
   1     891.5        5.8505       28.5298        0.4330       28.9628      23.112313       0.18443
   0    1013.0        5.9961       27.5308        0.4074       27.9382      21.942090       0.08125



 Wavenumbers: 12850. - 16000. cm-1, ATM      1
 LEVEL PRESSURE   UPWARD FLUX   DIFDOWN FLUX  DIRDOWN FLUX  DOWNWARD FLUX   NET FLUX    HEATING RATE
          mb          W/m2          W/m2          W/m2        W/m2          W/m2       degree/day
  51    .06700       41.9010        0.0000       63.1686       63.1686      21.267611       0.00000
  50    .07753       41.9009        0.0001       63.1677       63.1678      21.266830       0.62625
  49    .09103       41.9009        0.0001       63.1666       63.1668      21.265856       0.60885
  48    0.1069       41.9009        0.0002       63.1654       63.1656      21.264746       0.59068
  47    0.1255       41.9009        0.0003       63.1640       63.1643      21.263483       0.57247
  46    0.1487       41.9008        0.0004       63.1623       63.1627      21.261908       0.57443
  45    0.1794       41.9008        0.0006       63.1600       63.1606      21.259793       0.58054
  44    0.2165       41.9008        0.0008       63.1573       63.1581      21.257345       0.55677
  43    0.2613       41.9007        0.0010       63.1542       63.1553      21.254519       0.53269
  42    0.3336       41.9007        0.0014       63.1493       63.1507      21.250011       0.52563
  41    0.4307       41.9007        0.0020       63.1431       63.1451      21.244363       0.49104
  40    0.5894       41.9009        0.0028       63.1338       63.1366      21.235788       0.45605
  39     1.339       41.9030        0.0068       63.0956       63.1024      21.199449       0.40911
  38     1.782       41.9054        0.0092       63.0740       63.0832      21.177870       0.41082
  37     2.292       41.9092        0.0119       63.0477       63.0596      21.150395       0.45507
  36     2.964       41.9159        0.0155       63.0095       63.0250      21.109144       0.51782
  35     3.853       41.9271        0.0202       62.9533       62.9735      21.046437       0.59510
  34     5.035       41.9442        0.0265       62.8725       62.8990      20.954841       0.65433
  33     6.613       41.9682        0.0349       62.7621       62.7970      20.828737       0.67415
  32     8.786       41.9994        0.0462       62.6182       62.6644      20.665016       0.63583
  31     11.80       42.0395        0.0623       62.4284       62.4906      20.451133       0.59881
  30     15.07       42.0772        0.0795       62.2426       62.3221      20.244841       0.53261
  29     18.79       42.1152        0.0989       62.0493       62.1482      20.033013       0.48028
  28     23.16       42.1541        0.1215       61.8424       61.9640      19.809937       0.43136
  27     28.12       42.1921        0.1474       61.6278       61.7752      19.583059       0.38568
  26     33.73       42.2256        0.1762       61.4177       61.5939      19.368268       0.32295
  25     40.54       42.2556        0.2110       61.1983       61.4093      19.153768       0.26611
  24     48.69       42.2814        0.2530       60.9680       61.2209      18.939501       0.22173
  23     57.69       42.2999        0.2989       60.7478       61.0467      18.746799       0.18063
  22     68.43       42.3112        0.3536       60.5202       60.8738      18.562594       0.14481
  21     81.20       42.3100        0.4188       60.2938       60.7126      18.402618       0.10571
  20     96.49       42.2950        0.4964       60.0643       60.5607      18.265719       0.07556
  19     114.6       42.2769        0.5892       59.8078       60.3970      18.120009       0.06804
  18     136.5       42.2496        0.6989       59.5157       60.2146      17.965008       0.05960
  17     162.9       42.2116        0.8292       59.1770       60.0063      17.794645       0.05445
  16     196.4       42.1509        0.9979       58.7604       59.7583      17.607450       0.04712
  15     218.7       42.1069        1.1084       58.4948       59.6032      17.496298       0.04220
  14     243.0       42.0574        1.2282       58.2089       59.4371      17.379782       0.04041
  13     269.0       42.0023        1.3579       57.9006       59.2585      17.256135       0.04011
  12     297.5       41.9420        1.4977       57.5668       59.0645      17.122440       0.03965
  11     328.5       41.8778        1.6484       57.2005       58.8489      16.971066       0.04116
  10     361.9       41.8107        1.8102       56.7963       58.6065      16.795826       0.04434
   9     398.1       41.7418        1.9837       56.3475       58.3312      16.589346       0.04811
   8     437.6       41.6740        2.1692       55.8422       58.0114      16.337392       0.05387
   7     480.5       41.6121        2.3668       55.2625       57.6293      16.017236       0.06288
   6     533.0       41.5540        2.6080       54.4972       57.1051      15.551098       0.07499
   5     589.8       41.5146        2.8646       53.6307       56.4953      14.980752       0.08466
   4     651.6       41.5045        3.1360       52.6606       55.7965      14.292041       0.09418
   3     718.7       41.5307        3.4223       51.6100       55.0323      13.501656       0.09933
   2     792.3       41.6023        3.7236       50.5019       54.2254      12.623119       0.10076
   1     891.5       13.9413       25.6659        0.2900       25.9558      12.014590       0.05178
   0    1013.0       14.0553       25.3155        0.2794       25.5949      11.539551       0.03298



 Wavenumbers: 16000. - 22650. cm-1, ATM      1
 LEVEL PRESSURE   UPWARD FLUX   DIFDOWN FLUX  DIRDOWN FLUX  DOWNWARD FLUX   NET FLUX    HEATING RATE
          mb          W/m2          W/m2          W/m2        W/m2          W/m2       degree/day
  51    .06700       79.4030        0.0000      100.7153      100.7153      21.312273       0.00000
  50    .07753       79.4029        0.0003      100.7147      100.7151      21.312154       0.09540
  49    .09103       79.4028        0.0007      100.7140      100.7147      21.311981       0.10820
  48    0.1069       79.4026        0.0012      100.7131      100.7144      21.311749       0.12338
  47    0.1255       79.4024        0.0018      100.7121      100.7139      21.311439       0.14064
  46    0.1487       79.4022        0.0025      100.7108      100.7132      21.310982       0.16665
  45    0.1794       79.4020        0.0034      100.7089      100.7123      21.310267       0.19622
  44    0.2165       79.4018        0.0045      100.7066      100.7111      21.309298       0.22053
  43    0.2613       79.4015        0.0058      100.7037      100.7095      21.307982       0.24793
  42    0.3336       79.4013        0.0080      100.6987      100.7067      21.305482       0.29155
  41    0.4307       79.4010        0.0109      100.6918      100.7027      21.301712       0.32773
  40    0.5894       79.4009        0.0157      100.6797      100.6954      21.294524       0.38226
  39     1.339       79.4062        0.0382      100.6095      100.6477      21.241426       0.59778
  38     1.782       79.4136        0.0514      100.5585      100.6098      21.196207       0.86091
  37     2.292       79.4261        0.0666      100.4903      100.5569      21.130771       1.08379
  36     2.964       79.4486        0.0866      100.3868      100.4734      21.024812       1.33010
  35     3.853       79.4869        0.1131      100.2306      100.3437      20.856799       1.59447
  34     5.035       79.5462        0.1481      100.0045      100.1526      20.606400       1.78875
  33     6.613       79.6297        0.1948       99.6939       99.8887      20.258935       1.85755
  32     8.786       79.7380        0.2576       99.2881       99.5457      19.807700       1.75243
  31     11.80       79.8763        0.3471       98.7496       99.0967      19.220489       1.64401
  30     15.07       80.0055        0.4430       98.2198       98.6628      18.657260       1.45415
  29     18.79       80.1342        0.5508       97.6651       98.2159      18.081699       1.30497
  28     23.16       80.2647        0.6763       97.0671       97.7435      17.478805       1.16580
  27     28.12       80.3906        0.8194       96.4406       97.2599      16.869357       1.03602
  26     33.73       80.4980        0.9789       95.8179       96.7968      16.298767       0.85790
  25     40.54       80.5891        1.1709       95.1548       96.3258      15.736664       0.69735
  24     48.69       80.6615        1.4016       94.4420       95.8436      15.182067       0.57392
  23     57.69       80.7050        1.6540       93.7416       95.3956      14.690645       0.46063
  22     68.43       80.7178        1.9534       92.9954       94.9487      14.230873       0.36144
  21     81.20       80.6800        2.3086       92.2231       94.5318      13.851807       0.25048
  20     96.49       80.5858        2.7301       91.4110       94.1411      13.555310       0.16364
  19     114.6       80.4497        3.2271       90.5070       93.7341      13.284484       0.12646
  18     136.5       80.2726        3.8114       89.4803       93.2916      13.019026       0.10207
  17     162.9       80.0483        4.5003       88.3022       92.8025      12.754187       0.08465
  16     196.4       79.7270        5.3835       86.8606       92.2441      12.517069       0.05969
  15     218.7       79.5058        5.9573       85.9492       91.9065      12.400723       0.04417
  14     243.0       79.2614        6.5754       84.9789       91.5544      12.292990       0.03737
  13     269.0       78.9928        7.2389       83.9493       91.1882      12.195378       0.03167
  12     297.5       78.6995        7.9485       82.8589       90.8075      12.107999       0.02592
  11     328.5       78.3829        8.7068       81.6982       90.4050      12.022147       0.02334
  10     361.9       78.0432        9.5135       80.4669       89.9804      11.937267       0.02148
   9     398.1       77.6795       10.3705       79.1611       89.5316      11.852101       0.01984
   8     437.6       77.2927       11.2782       77.7777       89.0560      11.763241       0.01900
   7     480.5       76.8832       12.2370       76.3136       88.5506      11.667408       0.01882
   6     533.0       76.3874       13.3972       74.5359       87.9331      11.545698       0.01958
   5     589.8       75.8646       14.6235       72.6469       87.2705      11.405904       0.02075
   4     651.6       75.3175       15.9140       70.6456       86.5595      11.242056       0.02241
   3     718.7       74.7469       17.2664       68.5367       85.8031      11.056225       0.02335
   2     792.3       74.1557       18.6756       66.3287       85.0043      10.848577       0.02381
   1     891.5       43.5245       53.8220        0.3750       54.1970      10.672468       0.01499
   0    1013.0       43.4733       53.6123        0.3550       53.9673      10.494009       0.01239



 Wavenumbers: 22650. - 29000. cm-1, ATM      1
 LEVEL PRESSURE   UPWARD FLUX   DIFDOWN FLUX  DIRDOWN FLUX  DOWNWARD FLUX   NET FLUX    HEATING RATE
          mb          W/m2          W/m2          W/m2        W/m2          W/m2       degree/day
  51    .06700       34.9952        0.0000       38.0063       38.0063       3.011127       0.00000
  50    .07753       34.9950        0.0004       38.0057       38.0061       3.011127       0.00000
  49    .09103       34.9948        0.0009       38.0050       38.0059       3.011127       0.00000
  48    0.1069       34.9946        0.0014       38.0042       38.0057       3.011127       0.00000
  47    0.1255       34.9943        0.0021       38.0033       38.0054       3.011127       0.00000
  46    0.1487       34.9939        0.0029       38.0022       38.0051       3.011127       0.00000
  45    0.1794       34.9935        0.0040       38.0006       38.0046       3.011127      -0.00000
  44    0.2165       34.9929        0.0053       37.9987       38.0040       3.011127       0.00000
  43    0.2613       34.9922        0.0069       37.9965       38.0034       3.011127       0.00000
  42    0.3336       34.9912        0.0094       37.9928       38.0023       3.011127       0.00000
  41    0.4307       34.9897        0.0129       37.9880       38.0008       3.011127      -0.00000
  40    0.5894       34.9873        0.0184       37.9800       37.9985       3.011127       0.00000
  39     1.339       34.9761        0.0448       37.9425       37.9873       3.011127       0.00000
  38     1.782       34.9696        0.0603       37.9204       37.9807       3.011127      -0.00000
  37     2.292       34.9620        0.0782       37.8949       37.9731       3.011127       0.00000
  36     2.964       34.9520        0.1017       37.8614       37.9631       3.011127      -0.00000
  35     3.853       34.9388        0.1327       37.8172       37.9499       3.011127       0.00000
  34     5.035       34.9213        0.1739       37.7586       37.9324       3.011127       0.00000
  33     6.613       34.8980        0.2288       37.6803       37.9091       3.011127       0.00000
  32     8.786       34.8666        0.3027       37.5750       37.8777       3.011127       0.00000
  31     11.80       34.8218        0.4081       37.4249       37.8329       3.011127       0.00000
  30     15.07       34.7738        0.5208       37.2642       37.7850       3.011127       0.00000
  29     18.79       34.7199        0.6477       37.0833       37.7310       3.011127      -0.00000
  28     23.16       34.6571        0.7952       36.8730       37.6682       3.011127       0.00000
  27     28.12       34.5856        0.9630       36.6338       37.5967       3.011127      -0.00000
  26     33.73       34.5061        1.1495       36.3677       37.5172       3.011127       0.00000
  25     40.54       34.4107        1.3733       36.0486       37.4218       3.011127       0.00000
  24     48.69       34.2966        1.6405       35.6672       37.3077       3.011127       0.00000
  23     57.69       34.1725        1.9309       35.2527       37.1836       3.011127       0.00000
  22     68.43       34.0263        2.2725       34.7649       37.0374       3.011127      -0.00000
  21     81.20       33.8545        2.6734       34.1922       36.8656       3.011127       0.00000
  20     96.49       33.6531        3.1425       33.5217       36.6643       3.011127       0.00000
  19     114.6       33.4187        3.6874       32.7424       36.4298       3.011127      -0.00000
  18     136.5       33.1472        4.3167       31.8416       36.1583       3.011127       0.00000
  17     162.9       32.8327        5.0431       30.8008       35.8439       3.011127      -0.00000
  16     196.4       32.4388        5.9492       29.5007       35.4499       3.011127       0.00000
  15     218.7       32.1884        6.5228       28.6767       35.1995       3.011127       0.00000
  14     243.0       31.9234        7.1277       27.8068       34.9345       3.011127       0.00000
  13     269.0       31.6443        7.7621       26.8933       34.6554       3.011127      -0.00000
  12     297.5       31.3519        8.4238       25.9393       34.3631       3.011127       0.00000
  11     328.5       31.0462        9.1122       24.9451       34.0573       3.011127      -0.00000
  10     361.9       30.7285        9.8236       23.9160       33.7396       3.011127      -0.00000
   9     398.1       30.3992       10.5562       22.8541       33.4103       3.011127       0.00000
   8     437.6       30.0596       11.3063       21.7645       33.0708       3.011127       0.00000
   7     480.5       29.7110       12.0700       20.6521       32.7222       3.011127      -0.00000
   6     533.0       29.3024       12.9566       19.3569       32.3135       3.011127      -0.00000
   5     589.8       28.8855       13.8499       18.0467       31.8966       3.011127       0.00000
   4     651.6       28.4630       14.7426       16.7316       31.4742       3.011127       0.00000
   3     718.7       28.0375       15.6272       15.4214       31.0486       3.011127       0.00000
   2     792.3       27.6118       16.4953       14.1276       30.6229       3.011127       0.00000
   1     891.5       20.1940       23.1308        0.0742       23.2050       3.010977       0.00001
   0    1013.0       20.0871       23.0337        0.0643       23.0981       3.010977       0.00000



 Wavenumbers: 29000. - 38000. cm-1, ATM      1
 LEVEL PRESSURE   UPWARD FLUX   DIFDOWN FLUX  DIRDOWN FLUX  DOWNWARD FLUX   NET FLUX    HEATING RATE
          mb          W/m2          W/m2          W/m2        W/m2          W/m2       degree/day
  51    .06700        4.9724        0.0000       13.4026       13.4026       8.430226       0.00000
  50    .07753        4.9722        0.0003       13.3983       13.3986       8.426428       3.04447
  49    .09103        4.9719        0.0007       13.3921       13.3928       8.420908       3.44976
  48    0.1069        4.9716        0.0011       13.3840       13.3851       8.413531       3.92687
  47    0.1255        4.9712        0.0016       13.3733       13.3749       8.403686       4.46330
  46    0.1487        4.9708        0.0022       13.3579       13.3600       8.389243       5.26453
  45    0.1794        4.9702        0.0030       13.3340       13.3371       8.366843       6.14944
  44    0.2165        4.9696        0.0040       13.3024       13.3064       8.336823       6.82897
  43    0.2613        4.9688        0.0052       13.2604       13.2656       8.296768       7.55034
  42    0.3336        4.9676        0.0071       13.1833       13.1903       8.222759       8.62870
  41    0.4307        4.9660        0.0095       13.0729       13.0824       8.116383       9.24911
  40    0.5894        4.9637        0.0134       12.8796       12.8930       7.929333       9.94708
  39     1.339        4.9553        0.0297       11.9165       11.9462       6.990943      10.56457
  38     1.782        4.9520        0.0380       11.4399       11.4780       6.525918       8.85332
  37     2.292        4.9496        0.0469       10.9796       11.0265       6.076923       7.43653
  36     2.964        4.9483        0.0579       10.4786       10.5365       5.588190       6.13507
  35     3.853        4.9491        0.0714        9.9429       10.0143       5.065171       4.96355
  34     5.035        4.9528        0.0883        9.4007        9.4890       4.536194       3.77879
  33     6.613        4.9595        0.1097        8.8752        8.9849       4.025460       2.73038
  32     8.786        4.9686        0.1373        8.3786        8.5159       3.547278       1.85709
  31     11.80        4.9798        0.1752        7.8897        8.0649       3.085028       1.29415
  30     15.07        4.9896        0.2143        7.5108        7.7251       2.735530       0.90234
  29     18.79        4.9987        0.2570        7.1776        7.4346       2.435837       0.67949
  28     23.16        5.0072        0.3050        6.8664        7.1714       2.164209       0.52524
  27     28.12        5.0142        0.3581        6.5780        6.9361       1.921890       0.41193
  26     33.73        5.0173        0.4159        6.3195        6.7354       1.718113       0.30638
  25     40.54        5.0153        0.4842        6.0663        6.5505       1.535136       0.22700
  24     48.69        5.0077        0.5642        5.8128        6.3770       1.369263       0.17165
  23     57.69        4.9945        0.6495        5.5777        6.2272       1.232788       0.12793
  22     68.43        4.9732        0.7484        5.3379        6.0862       1.113003       0.09417
  21     81.20        4.9398        0.8631        5.0965        5.9595       1.019703       0.06165
  20     96.49        4.8930        0.9955        4.8476        5.8432       0.950180       0.03837
  19     114.6        4.8360        1.1457        4.5799        5.7256       0.889620       0.02828
  18     136.5        4.7698        1.3135        4.2891        5.6026       0.832814       0.02184
  17     162.9        4.6942        1.4997        3.9732        5.4728       0.778610       0.01733
  16     196.4        4.5985        1.7227        3.6080        5.3307       0.732226       0.01168
  15     218.7        4.5382        1.8585        3.3898        5.2483       0.710121       0.00839
  14     243.0        4.4755        1.9970        3.1686        5.1655       0.690054       0.00696
  13     269.0        4.4107        2.1370        2.9461        5.0831       0.672340       0.00575
  12     297.5        4.3443        2.2774        2.7239        5.0013       0.657000       0.00455
  11     328.5        4.2771        2.4168        2.5029        4.9197       0.642577       0.00392
  10     361.9        4.2095        2.5540        2.2846        4.8386       0.629093       0.00341
   9     398.1        4.1420        2.6878        2.0708        4.7585       0.616544       0.00292
   8     437.6        4.0749        2.8170        1.8626        4.6796       0.604660       0.00254
   7     480.5        4.0088        2.9403        1.6621        4.6024       0.593573       0.00218
   6     533.0        3.9348        3.0729        1.4437        4.5165       0.581703       0.00191
   5     589.8        3.8632        3.1947        1.2390        4.4337       0.570423       0.00167
   4     651.6        3.7946        3.3041        1.0500        4.3542       0.559580       0.00148
   3     718.7        3.7291        3.4005        0.8778        4.2783       0.549138       0.00131
   2     792.3        3.6673        3.4827        0.7237        4.2064       0.539074       0.00115
   1     891.5        2.8388        3.3640        0.0033        3.3673       0.528549       0.00090
   0    1013.0        2.8060        3.3218        0.0024        3.3242       0.518198       0.00072



 Wavenumbers: 38000. - 50000. cm-1, ATM      1
 LEVEL PRESSURE   UPWARD FLUX   DIFDOWN FLUX  DIRDOWN FLUX  DOWNWARD FLUX   NET FLUX    HEATING RATE
          mb          W/m2          W/m2          W/m2        W/m2          W/m2       degree/day
  51    .06700        0.0051        0.0000        0.8267        0.8267       0.821528       0.00000
  50    .07753        0.0051        0.0001        0.8242        0.8243       0.819196       1.86936
  49    .09103        0.0050        0.0002        0.8207        0.8209       0.815872       2.07705
  48    0.1069        0.0049        0.0002        0.8162        0.8164       0.811514       2.31984
  47    0.1255        0.0048        0.0004        0.8103        0.8106       0.805801       2.59006
  46    0.1487        0.0047        0.0005        0.8018        0.8023       0.797567       3.00143
  45    0.1794        0.0045        0.0007        0.7889        0.7896       0.785013       3.44648
  44    0.2165        0.0044        0.0009        0.7720        0.7729       0.768507       3.75474
  43    0.2613        0.0042        0.0011        0.7500        0.7511       0.746955       4.06246
  42    0.3336        0.0039        0.0015        0.7106        0.7121       0.708267       4.51071
  41    0.4307        0.0035        0.0019        0.6566        0.6584       0.654972       4.63387
  40    0.5894        0.0029        0.0024        0.5680        0.5704       0.567464       4.65357
  39     1.339        0.0015        0.0030        0.2422        0.2452       0.243720       3.64476
  38     1.782        0.0010        0.0026        0.1493        0.1519       0.150889       1.76735
  37     2.292        0.0007        0.0022        0.0924        0.0946       0.093932       0.94336
  36     2.964        0.0005        0.0018        0.0539        0.0557       0.055224       0.48589
  35     3.853        0.0003        0.0013        0.0295        0.0308       0.030502       0.23462
  34     5.035        0.0002        0.0010        0.0154        0.0164       0.016181       0.10230
  33     6.613        0.0001        0.0007        0.0073        0.0080       0.007912       0.04420
  32     8.786        0.0000        0.0004        0.0030        0.0034       0.003390       0.01756
  31     11.80        0.0000        0.0003        0.0010        0.0012       0.001199       0.00613
  30     15.07        0.0000        0.0001        0.0003        0.0005       0.000463       0.00190
  29     18.79        0.0000        0.0001        0.0001        0.0002       0.000182       0.00064
  28     23.16        0.0000        0.0000        0.0000        0.0001       0.000071       0.00022
  27     28.12        0.0000        0.0000        0.0000        0.0000       0.000028       0.00007
  26     33.73        0.0000        0.0000        0.0000        0.0000       0.000011       0.00002
  25     40.54        0.0000        0.0000        0.0000        0.0000       0.000005       0.00001
  24     48.69        0.0000        0.0000        0.0000        0.0000       0.000002       0.00000
  23     57.69        0.0000        0.0000        0.0000        0.0000       0.000001       0.00000
  22     68.43        0.0000        0.0000        0.0000        0.0000       0.000000       0.00000
  21     81.20        0.0000        0.0000        0.0000        0.0000       0.000000       0.00000
  20     96.49        0.0000        0.0000        0.0000        0.0000       0.000000       0.00000
  19     114.6        0.0000        0.0000        0.0000        0.0000       0.000000       0.00000
  18     136.5        0.0000        0.0000        0.0000        0.0000       0.000000       0.00000
  17     162.9        0.0000        0.0000        0.0000        0.0000       0.000000       0.00000
  16     196.4        0.0000        0.0000        0.0000        0.0000       0.000000       0.00000
  15     218.7        0.0000        0.0000        0.0000        0.0000       0.000000       0.00000
  14     243.0        0.0000        0.0000        0.0000        0.0000       0.000000       0.00000
  13     269.0        0.0000        0.0000        0.0000        0.0000       0.000000       0.00000
  12     297.5        0.0000        0.0000        0.0000        0.0000       0.000000       0.00000
  11     328.5        0.0000        0.0000        0.0000        0.0000       0.000000       0.00000
  10     361.9        0.0000        0.0000        0.0000        0.0000       0.000000       0.00000
   9     398.1        0.0000        0.0000        0.0000        0.0000       0.000000       0.00000
   8     437.6        0.0000        0.0000        0.0000        0.0000       0.000000       0.00000
   7     480.5        0.0000        0.0000        0.0000        0.0000       0.000000       0.00000
   6     533.0        0.0000        0.0000        0.0000        0.0000       0.000000       0.00000
   5     589.8        0.0000        0.0000        0.0000        0.0000       0.000000       0.00000
   4     651.6        0.0000        0.0000        0.0000        0.0000       0.000000       0.00000
   3     718.7        0.0000        0.0000        0.0000        0.0000       0.000000       0.00000
   2     792.3        0.0000        0.0000        0.0000        0.0000       0.000000       0.00000
   1     891.5        0.0000        0.0000        0.0000        0.0000       0.000000       0.00000
   0    1013.0        0.0000        0.0000        0.0000        0.0000       0.000000       0.00000



 Wavenumbers:   820. -  2600. cm-1, ATM      1
 LEVEL PRESSURE   UPWARD FLUX   DIFDOWN FLUX  DIRDOWN FLUX  DOWNWARD FLUX   NET FLUX    HEATING RATE
          mb          W/m2          W/m2          W/m2        W/m2          W/m2       degree/day
  51    .06700        0.6273        0.0000        3.8670        3.8670       3.239759       0.00000
  50    .07753        0.6273        0.0000        3.8643        3.8643       3.237042       2.17771
  49    .09103        0.6273        0.0000        3.8635        3.8635       3.236232       0.50639
  48    0.1069        0.6273        0.0000        3.8626        3.8626       3.235341       0.47416
  47    0.1255        0.6273        0.0000        3.8616        3.8616       3.234380       0.43560
  46    0.1487        0.6273        0.0000        3.8605        3.8605       3.233271       0.40438
  45    0.1794        0.6273        0.0000        3.8592        3.8592       3.231936       0.36649
  44    0.2165        0.6273        0.0000        3.8578        3.8578       3.230558       0.31347
  43    0.2613        0.6273        0.0000        3.8564        3.8564       3.229098       0.27523
  42    0.3336        0.6273        0.0000        3.8541        3.8541       3.226867       0.26014
  41    0.4307        0.6273        0.0000        3.8512        3.8512       3.223984       0.25064
  40    0.5894        0.6273        0.0000        3.8465        3.8465       3.219257       0.25135
  39     1.339        0.6273        0.0000        3.8251        3.8251       3.197881       0.24066
  38     1.782        0.6273        0.0000        3.8133        3.8133       3.186067       0.22491
  37     2.292        0.6273        0.0000        3.8003        3.8003       3.173005       0.21634
  36     2.964        0.6273        0.0000        3.7841        3.7841       3.156875       0.20248
  35     3.853        0.6273        0.0000        3.7642        3.7642       3.136959       0.18901
  34     5.035        0.6273        0.0000        3.7395        3.7395       3.112265       0.17640
  33     6.613        0.6273        0.0000        3.7090        3.7090       3.081726       0.16326
  32     8.786        0.6273        0.0000        3.6726        3.6726       3.045329       0.14135
  31     11.80        0.6273        0.0000        3.6320        3.6320       3.004728       0.11367
  30     15.07        0.6273        0.0000        3.6016        3.6016       2.974337       0.07846
  29     18.79        0.6273        0.0000        3.5777        3.5777       2.950431       0.05420
  28     23.16        0.6273        0.0000        3.5564        3.5564       2.929068       0.04131
  27     28.12        0.6273        0.0000        3.5348        3.5348       2.907511       0.03665
  26     33.73        0.6274        0.0000        3.5118        3.5118       2.884465       0.03465
  25     40.54        0.6274        0.0000        3.4849        3.4849       2.857562       0.03338
  24     48.69        0.6274        0.0000        3.4537        3.4537       2.826290       0.03236
  23     57.69        0.6274        0.0000        3.4210        3.4210       2.793595       0.03065
  22     68.43        0.6275        0.0000        3.3844        3.3844       2.756984       0.02878
  21     81.20        0.6275        0.0000        3.3441        3.3441       2.716654       0.02665
  20     96.49        0.6275        0.0000        3.2998        3.2998       2.672250       0.02451
  19     114.6        0.6276        0.0000        3.2506        3.2507       2.623054       0.02297
  18     136.5        0.6277        0.0000        3.1936        3.1936       2.565937       0.02196
  17     162.9        0.6278        0.0000        3.1181        3.1181       2.490317       0.02417
  16     196.4        0.6281        0.0000        3.0090        3.0090       2.380903       0.02754
  15     218.7        0.6283        0.0000        2.9420        2.9420       2.313731       0.02550
  14     243.0        0.6286        0.0000        2.8605        2.8605       2.231923       0.02837
  13     269.0        0.6290        0.0000        2.7419        2.7420       2.112929       0.03860
  12     297.5        0.6299        0.0000        2.5729        2.5729       1.943043       0.05039
  11     328.5        0.6311        0.0000        2.3602        2.3602       1.729087       0.05817
  10     361.9        0.6331        0.0000        2.1524        2.1524       1.519386       0.05306
   9     398.1        0.6358        0.0000        1.9974        1.9974       1.361638       0.03675
   8     437.6        0.6396        0.0000        1.8835        1.8835       1.243909       0.02517
   7     480.5        0.6451        0.0000        1.7734        1.7734       1.128379       0.02269
   6     533.0        0.6540        0.0000        1.6397        1.6398       0.985764       0.02294
   5     589.8        0.6668        0.0000        1.5068        1.5069       0.840056       0.02163
   4     651.6        0.6857        0.0000        1.3807        1.3807       0.695020       0.01983
   3     718.7        0.7110        0.0000        1.2680        1.2681       0.557082       0.01733
   2     792.3        0.7426        0.0000        1.1659        1.1660       0.423357       0.01534
   1     891.5        0.0219        0.3642        0.0061        0.3703       0.348382       0.00638
   0    1013.0        0.0242        0.3280        0.0052        0.3332       0.308936       0.00274

  Modules and versions used in this calculation:

       rrtmg_sw.1col.f90:  $Revision$                    rrtmg_sw_init.f90:  $Revision$        
     rrtmgsw_cldprop.f90:  $Revision$                  rrtmgsw_cldprmc.f90:  NOT USED          
     rrtmg_sw_reftra.f90:  $Revision$                  rrtmg_sw_spcvrt.f90:  NOT USED          
     rrtmg_sw_spcvmc.f90:  NOT USED                    rrtmgsw_setcoef.f90:  NOT USED          
     rrtmg_sw_taumol.f90:  $Revision$                  rrtmg_sw_vrtqdr.f90:  NOT USED          
                rrtatm.f:  NOT USED                             util_xxx.f:  NOT USED          
                 extra.f:  NOT USED                       rrtmg_sw_k_g.f90:  $Revision$        

