

 Wavenumbers:   820. - 50000. cm-1, ATM      1
 LEVEL PRESSURE   UPWARD FLUX   DIFDOWN FLUX  DIRDOWN FLUX  DOWNWARD FLUX   NET FLUX    HEATING RATE
          mb          W/m2          W/m2          W/m2        W/m2          W/m2       degree/day
  51    .06700      212.0849        0.0000      397.8738      397.8738     185.788927       0.00000
  50    .07753      212.0842        0.0012      397.8577      397.8589     185.774641      11.45014
  49    .09103      212.0835        0.0026      397.8418      397.8444     185.760961       8.55069
  48    0.1069      212.0826        0.0043      397.8230      397.8272     185.744623       8.69646
  47    0.1255      212.0816        0.0062      397.7997      397.8058     185.724195       9.26135
  46    0.1487      212.0805        0.0086      397.7676      397.7762     185.695758      10.36553
  45    0.1794      212.0789        0.0119      397.7205      397.7324     185.653498      11.60131
  44    0.2165      212.0771        0.0157      397.6602      397.6760     185.598894      12.42156
  43    0.2613      212.0751        0.0203      397.5829      397.6032     185.528156      13.33372
  42    0.3336      212.0719        0.0278      397.4449      397.4727     185.400830      14.84493
  41    0.4307      212.0679        0.0377      397.2524      397.2901     185.222132      15.53743
  40    0.5894      212.0621        0.0535      396.9253      396.9788     184.916740      16.24036
  39     1.339      212.0452        0.1243      395.4254      395.5496     183.504398      15.90041
  38     1.782      212.0425        0.1639      394.7288      394.8927     182.850177      12.45531
  37     2.292      212.0456        0.2090      394.0572      394.2661     182.220526      10.42866
  36     2.964      212.0591        0.2675      393.3007      393.5682     181.509145       8.92998
  35     3.853      212.0898        0.3440      392.4318      392.7758     180.686075       7.81108
  34     5.035      212.1433        0.4447      391.4441      391.8888     179.745405       6.71976
  33     6.613      212.2221        0.5780      390.3268      390.9048     178.682708       5.68118
  32     8.786      212.3231        0.7563      389.0624      389.8187     177.495586       4.61035
  31     11.80      212.4462        1.0093      387.5500      388.5593     176.113098       3.87053
  30     15.07      212.5531        1.2786      386.1556      387.4343     174.881156       3.18064
  29     18.79      212.6515        1.5805      384.7502      386.3307     173.679226       2.72514
  28     23.16      212.7405        1.9302      383.2686      385.1988     172.458297       2.36088
  27     28.12      212.8121        2.3268      381.7329      384.0596     171.247512       2.05825
  26     33.73      212.8479        2.7673      380.1982      382.9654     170.117485       1.69903
  25     40.54      212.8398        3.2954      378.5384      381.8338     168.993980       1.39383
  24     48.69      212.7810        3.9264      376.7214      380.6479     167.866924       1.16633
  23     57.69      212.6693        4.6129      374.8959      379.5088     166.839524       0.96303
  22     68.43      212.4860        5.4221      372.8999      378.3220     165.836030       0.78888
  21     81.20      212.1980        6.3755      370.7496      377.1251     164.927191       0.60055
  20     96.49      211.7922        7.4969      368.4056      375.9025     164.110282       0.45087
  19     114.6      211.2910        8.8064      365.7513      374.5576     163.266592       0.39394
  18     136.5      210.6847       10.3266      362.7231      373.0497     162.365011       0.34668
  17     162.9      209.9572       12.0930      359.1748      371.2677     161.310504       0.33706
  16     196.4      208.9913       14.3188      354.5718      368.8906     159.899364       0.35520
  15     218.7      208.3548       15.7417      351.4437      367.1854     158.830648       0.40575
  14     243.0      207.6688       17.2546      347.7111      364.9657     157.296924       0.53195
  13     269.0      206.9344       18.8553      342.9441      361.7995     154.865034       0.78889
  12     297.5      206.1540       20.5417      337.4137      357.9554     151.801422       0.90863
  11     328.5      205.3331       22.3152      331.1302      353.4454     148.112331       1.00305
  10     361.9      204.4779       24.1700      324.1219      348.2919     143.813989       1.08752
   9     398.1      203.5942       26.1054      316.6066      342.7120     139.117847       1.09410
   8     437.6      202.6948       28.1166      308.5895      336.7061     134.011313       1.09181
   7     480.5      201.8028       30.1974      299.9349      330.1323     128.329526       1.11588
   6     533.0      200.8190       32.6592      289.7021      322.3614     121.542401       1.09183
   5     589.8      199.9175       35.1967      279.3388      314.5354     114.617890       1.02782
   4     651.6      199.1742       37.7972      268.7786      306.5758     107.401594       0.98685
   3     718.7      198.6478       40.4513      258.2837      298.7350     100.087198       0.91922
   2     792.3      198.4131       43.1447      248.0774      291.2221      92.809072       0.83472
   1     891.5      109.0345      153.2541       42.5909      195.8450      86.810445       0.51045
   0    1013.0      109.0886      151.2678       40.0504      191.3181      82.229534       0.31808



 Wavenumbers:  2600. -  3250. cm-1, ATM      1
 LEVEL PRESSURE   UPWARD FLUX   DIFDOWN FLUX  DIRDOWN FLUX  DOWNWARD FLUX   NET FLUX    HEATING RATE
          mb          W/m2          W/m2          W/m2        W/m2          W/m2       degree/day
  51    .06700        0.6518        0.0000        3.5066        3.5066       2.854852       0.00000
  50    .07753        0.6518        0.0000        3.5066        3.5066       2.854844       0.00640
  49    .09103        0.6518        0.0000        3.5066        3.5066       2.854834       0.00627
  48    0.1069        0.6518        0.0000        3.5066        3.5066       2.854822       0.00613
  47    0.1255        0.6518        0.0000        3.5066        3.5066       2.854809       0.00599
  46    0.1487        0.6518        0.0000        3.5066        3.5066       2.854792       0.00607
  45    0.1794        0.6518        0.0000        3.5065        3.5065       2.854770       0.00624
  44    0.2165        0.6518        0.0000        3.5065        3.5065       2.854743       0.00611
  43    0.2613        0.6518        0.0000        3.5065        3.5065       2.854711       0.00598
  42    0.3336        0.6518        0.0000        3.5064        3.5064       2.854658       0.00615
  41    0.4307        0.6518        0.0000        3.5064        3.5064       2.854587       0.00618
  40    0.5894        0.6518        0.0000        3.5062        3.5062       2.854468       0.00633
  39     1.339        0.6518        0.0000        3.5055        3.5055       2.853769       0.00787
  38     1.782        0.6518        0.0000        3.5050        3.5050       2.853239       0.01011
  37     2.292        0.6518        0.0000        3.5043        3.5043       2.852546       0.01147
  36     2.964        0.6518        0.0000        3.5033        3.5033       2.851555       0.01245
  35     3.853        0.6518        0.0000        3.5019        3.5019       2.850177       0.01307
  34     5.035        0.6518        0.0000        3.5001        3.5001       2.848316       0.01329
  33     6.613        0.6518        0.0000        3.4977        3.4977       2.845907       0.01288
  32     8.786        0.6518        0.0000        3.4947        3.4947       2.842936       0.01154
  31     11.80        0.6518        0.0000        3.4911        3.4911       2.839300       0.01018
  30     15.07        0.6518        0.0000        3.4878        3.4878       2.836079       0.00832
  29     18.79        0.6518        0.0000        3.4848        3.4848       2.833015       0.00695
  28     23.16        0.6518        0.0000        3.4816        3.4816       2.829794       0.00623
  27     28.12        0.6518        0.0000        3.4779        3.4779       2.826174       0.00615
  26     33.73        0.6518        0.0000        3.4735        3.4735       2.821706       0.00672
  25     40.54        0.6518        0.0000        3.4671        3.4671       2.815376       0.00785
  24     48.69        0.6518        0.0000        3.4582        3.4583       2.806476       0.00921
  23     57.69        0.6518        0.0000        3.4472        3.4472       2.795421       0.01036
  22     68.43        0.6518        0.0000        3.4329        3.4329       2.781151       0.01122
  21     81.20        0.6518        0.0000        3.4152        3.4152       2.763407       0.01172
  20     96.49        0.6518        0.0000        3.3940        3.3941       2.742241       0.01168
  19     114.6        0.6519        0.0000        3.3692        3.3692       2.717321       0.01164
  18     136.5        0.6519        0.0001        3.3419        3.3420       2.690059       0.01048
  17     162.9        0.6520        0.0001        3.3129        3.3129       2.660917       0.00931
  16     196.4        0.6522        0.0001        3.2793        3.2794       2.627221       0.00848
  15     218.7        0.6524        0.0001        3.2578        3.2578       2.605483       0.00825
  14     243.0        0.6526        0.0001        3.2320        3.2321       2.579421       0.00904
  13     269.0        0.6531        0.0001        3.1968        3.1969       2.543863       0.01153
  12     297.5        0.6538        0.0001        3.1489        3.1491       2.495303       0.01440
  11     328.5        0.6548        0.0001        3.0821        3.0822       2.427396       0.01846
  10     361.9        0.6563        0.0001        2.9902        2.9904       2.334061       0.02361
   9     398.1        0.6585        0.0001        2.8715        2.8716       2.213130       0.02817
   8     437.6        0.6616        0.0001        2.7276        2.7278       2.066148       0.03143
   7     480.5        0.6664        0.0002        2.5595        2.5597       1.893302       0.03395
   6     533.0        0.6743        0.0002        2.3617        2.3619       1.687579       0.03309
   5     589.8        0.6860        0.0002        2.1649        2.1651       1.479115       0.03094
   4     651.6        0.7032        0.0002        1.9608        1.9609       1.257704       0.03028
   3     718.7        0.7277        0.0002        1.7593        1.7595       1.031782       0.02839
   2     792.3        0.7615        0.0002        1.5761        1.5762       0.814686       0.02490
   1     891.5        0.1784        0.5803        0.2480        0.8283       0.649894       0.01402
   0    1013.0        0.1948        0.5224        0.2094        0.7318       0.536969       0.00784



 Wavenumbers:  3250. -  4000. cm-1, ATM      1
 LEVEL PRESSURE   UPWARD FLUX   DIFDOWN FLUX  DIRDOWN FLUX  DOWNWARD FLUX   NET FLUX    HEATING RATE
          mb          W/m2          W/m2          W/m2        W/m2          W/m2       degree/day
  51    .06700        0.0036        0.0000        5.9117        5.9117       5.908020       0.00000
  50    .07753        0.0036        0.0000        5.9075        5.9075       5.903831       3.35808
  49    .09103        0.0036        0.0000        5.9050        5.9050       5.901388       1.52677
  48    0.1069        0.0036        0.0000        5.9032        5.9032       5.899522       0.99346
  47    0.1255        0.0036        0.0000        5.9014        5.9014       5.897763       0.79708
  46    0.1487        0.0036        0.0000        5.8995        5.8995       5.895875       0.68848
  45    0.1794        0.0036        0.0000        5.8974        5.8974       5.893726       0.58983
  44    0.2165        0.0036        0.0000        5.8952        5.8952       5.891609       0.48155
  43    0.2613        0.0036        0.0000        5.8931        5.8931       5.889450       0.40696
  42    0.3336        0.0036        0.0000        5.8899        5.8899       5.886292       0.36820
  41    0.4307        0.0036        0.0000        5.8861        5.8861       5.882455       0.33365
  40    0.5894        0.0036        0.0000        5.8803        5.8803       5.876652       0.30857
  39     1.339        0.0036        0.0000        5.8597        5.8597       5.856055       0.23189
  38     1.782        0.0036        0.0000        5.8513        5.8513       5.847630       0.16039
  37     2.292        0.0036        0.0000        5.8431        5.8431       5.839459       0.13533
  36     2.964        0.0036        0.0000        5.8334        5.8334       5.829820       0.12100
  35     3.853        0.0036        0.0000        5.8213        5.8213       5.817644       0.11555
  34     5.035        0.0036        0.0000        5.8052        5.8052       5.801549       0.11498
  33     6.613        0.0036        0.0000        5.7833        5.7834       5.779728       0.11666
  32     8.786        0.0036        0.0000        5.7531        5.7531       5.749526       0.11729
  31     11.80        0.0036        0.0000        5.7090        5.7090       5.705357       0.12366
  30     15.07        0.0036        0.0000        5.6615        5.6615       5.657893       0.12254
  29     18.79        0.0036        0.0000        5.6093        5.6094       5.605757       0.11821
  28     23.16        0.0036        0.0000        5.5524        5.5524       5.548831       0.11008
  27     28.12        0.0036        0.0000        5.4935        5.4935       5.489952       0.10009
  26     33.73        0.0036        0.0000        5.4348        5.4349       5.431263       0.08824
  25     40.54        0.0036        0.0001        5.3707        5.3708       5.367202       0.07948
  24     48.69        0.0036        0.0001        5.2985        5.2985       5.294969       0.07475
  23     57.69        0.0036        0.0001        5.2215        5.2216       5.218030       0.07212
  22     68.43        0.0035        0.0001        5.1318        5.1319       5.128370       0.07048
  21     81.20        0.0035        0.0001        5.0284        5.0285       5.024940       0.06834
  20     96.49        0.0035        0.0001        4.9122        4.9123       4.908806       0.06410
  19     114.6        0.0035        0.0001        4.7780        4.7782       4.774695       0.06262
  18     136.5        0.0035        0.0002        4.6285        4.6287       4.625217       0.05748
  17     162.9        0.0034        0.0002        4.4406        4.4407       4.437304       0.06006
  16     196.4        0.0034        0.0002        4.1548        4.1550       4.151630       0.07191
  15     218.7        0.0034        0.0002        3.9564        3.9566       3.953249       0.07532
  14     243.0        0.0034        0.0002        3.7055        3.7058       3.702413       0.08700
  13     269.0        0.0033        0.0002        3.3399        3.3401       3.336769       0.11861
  12     297.5        0.0033        0.0002        2.8954        2.8956       2.892271       0.13183
  11     328.5        0.0033        0.0002        2.4388        2.4390       2.435711       0.12414
  10     361.9        0.0034        0.0002        2.0269        2.0271       2.023738       0.10423
   9     398.1        0.0034        0.0002        1.6753        1.6755       1.672090       0.08193
   8     437.6        0.0035        0.0002        1.3592        1.3594       1.355868       0.06761
   7     480.5        0.0037        0.0002        1.0616        1.0618       1.058096       0.05848
   6     533.0        0.0041        0.0001        0.7543        0.7544       0.750373       0.04950
   5     589.8        0.0048        0.0001        0.4951        0.4952       0.490464       0.03858
   4     651.6        0.0062        0.0001        0.2943        0.2943       0.288170       0.02766
   3     718.7        0.0089        0.0001        0.1528        0.1529       0.143927       0.01813
   2     792.3        0.0146        0.0000        0.0658        0.0658       0.051260       0.01063
   1     891.5        0.0001        0.0082        0.0028        0.0110       0.010902       0.00343
   0    1013.0        0.0006        0.0019        0.0002        0.0022       0.001629       0.00064



 Wavenumbers:  4000. -  4650. cm-1, ATM      1
 LEVEL PRESSURE   UPWARD FLUX   DIFDOWN FLUX  DIRDOWN FLUX  DOWNWARD FLUX   NET FLUX    HEATING RATE
          mb          W/m2          W/m2          W/m2        W/m2          W/m2       degree/day
  51    .06700        2.4175        0.0000        6.9421        6.9421       4.524582       0.00000
  50    .07753        2.4175        0.0000        6.9421        6.9421       4.524581       0.00079
  49    .09103        2.4175        0.0000        6.9421        6.9421       4.524579       0.00078
  48    0.1069        2.4175        0.0000        6.9421        6.9421       4.524578       0.00076
  47    0.1255        2.4175        0.0000        6.9421        6.9421       4.524576       0.00074
  46    0.1487        2.4175        0.0000        6.9421        6.9421       4.524574       0.00075
  45    0.1794        2.4175        0.0000        6.9421        6.9421       4.524572       0.00077
  44    0.2165        2.4175        0.0000        6.9421        6.9421       4.524568       0.00076
  43    0.2613        2.4175        0.0000        6.9420        6.9420       4.524564       0.00074
  42    0.3336        2.4175        0.0000        6.9420        6.9420       4.524558       0.00076
  41    0.4307        2.4175        0.0000        6.9420        6.9420       4.524549       0.00077
  40    0.5894        2.4175        0.0000        6.9420        6.9420       4.524534       0.00079
  39     1.339        2.4175        0.0000        6.9419        6.9419       4.524445       0.00100
  38     1.782        2.4175        0.0000        6.9418        6.9419       4.524376       0.00132
  37     2.292        2.4175        0.0000        6.9418        6.9418       4.524282       0.00155
  36     2.964        2.4175        0.0000        6.9416        6.9416       4.524143       0.00175
  35     3.853        2.4175        0.0000        6.9414        6.9414       4.523936       0.00196
  34     5.035        2.4175        0.0000        6.9411        6.9411       4.523632       0.00218
  33     6.613        2.4175        0.0000        6.9406        6.9407       4.523184       0.00239
  32     8.786        2.4175        0.0000        6.9399        6.9400       4.522523       0.00256
  31     11.80        2.4175        0.0000        6.9389        6.9389       4.521488       0.00290
  30     15.07        2.4174        0.0001        6.9377        6.9377       4.520277       0.00313
  29     18.79        2.4174        0.0001        6.9362        6.9363       4.518818       0.00331
  28     23.16        2.4174        0.0001        6.9343        6.9344       4.517012       0.00349
  27     28.12        2.4174        0.0001        6.9321        6.9323       4.514836       0.00370
  26     33.73        2.4174        0.0001        6.9294        6.9296       4.512166       0.00402
  25     40.54        2.4174        0.0002        6.9258        6.9260       4.508564       0.00447
  24     48.69        2.4174        0.0002        6.9210        6.9212       4.503795       0.00494
  23     57.69        2.4174        0.0002        6.9154        6.9156       4.498183       0.00526
  22     68.43        2.4174        0.0003        6.9083        6.9086       4.491203       0.00549
  21     81.20        2.4174        0.0003        6.8998        6.9001       4.482665       0.00564
  20     96.49        2.4175        0.0004        6.8894        6.8898       4.472346       0.00570
  19     114.6        2.4176        0.0005        6.8765        6.8770       4.459418       0.00604
  18     136.5        2.4177        0.0005        6.8610        6.8615       4.443810       0.00600
  17     162.9        2.4180        0.0007        6.8417        6.8423       4.424369       0.00621
  16     196.4        2.4184        0.0008        6.8147        6.8155       4.397057       0.00687
  15     218.7        2.4188        0.0009        6.7948        6.7957       4.376911       0.00765
  14     243.0        2.4194        0.0010        6.7698        6.7707       4.351327       0.00887
  13     269.0        2.4204        0.0011        6.7349        6.7359       4.315491       0.01162
  12     297.5        2.4220        0.0012        6.6869        6.6880       4.266070       0.01466
  11     328.5        2.4241        0.0013        6.6194        6.6207       4.196508       0.01891
  10     361.9        2.4271        0.0014        6.5295        6.5309       4.103814       0.02345
   9     398.1        2.4309        0.0015        6.4202        6.4217       3.990854       0.02632
   8     437.6        2.4360        0.0017        6.2962        6.2978       3.861810       0.02759
   7     480.5        2.4431        0.0018        6.1555        6.1573       3.714147       0.02900
   6     533.0        2.4548        0.0019        5.9675        5.9695       3.514714       0.03208
   5     589.8        2.4718        0.0021        5.7368        5.7388       3.267019       0.03677
   4     651.6        2.4971        0.0022        5.4662        5.4685       2.971321       0.04044
   3     718.7        2.5329        0.0024        5.1912        5.1936       2.660623       0.03905
   2     792.3        2.5816        0.0025        4.9395        4.9420       2.360372       0.03444
   1     891.5        0.6828        1.9668        0.8407        2.8075       2.124742       0.02005
   0    1013.0        0.7092        1.8787        0.7809        2.6596       1.950442       0.01210



 Wavenumbers:  4650. -  5150. cm-1, ATM      1
 LEVEL PRESSURE   UPWARD FLUX   DIFDOWN FLUX  DIRDOWN FLUX  DOWNWARD FLUX   NET FLUX    HEATING RATE
          mb          W/m2          W/m2          W/m2        W/m2          W/m2       degree/day
  51    .06700        1.6793        0.0000        6.5710        6.5710       4.891671       0.00000
  50    .07753        1.6793        0.0000        6.5708        6.5708       4.891436       0.18887
  49    .09103        1.6793        0.0000        6.5705        6.5705       4.891142       0.18362
  48    0.1069        1.6793        0.0000        6.5701        6.5701       4.890807       0.17806
  47    0.1255        1.6793        0.0000        6.5697        6.5697       4.890427       0.17238
  46    0.1487        1.6793        0.0000        6.5693        6.5693       4.889953       0.17268
  45    0.1794        1.6793        0.0000        6.5686        6.5686       4.889317       0.17473
  44    0.2165        1.6793        0.0000        6.5679        6.5679       4.888579       0.16788
  43    0.2613        1.6793        0.0000        6.5670        6.5670       4.887726       0.16078
  42    0.3336        1.6793        0.0000        6.5657        6.5657       4.886363       0.15894
  41    0.4307        1.6793        0.0000        6.5640        6.5640       4.884641       0.14971
  40    0.5894        1.6793        0.0000        6.5613        6.5613       4.882025       0.13913
  39     1.339        1.6793        0.0000        6.5516        6.5516       4.872247       0.11008
  38     1.782        1.6793        0.0000        6.5473        6.5473       4.868031       0.08027
  37     2.292        1.6793        0.0000        6.5434        6.5435       4.864144       0.06438
  36     2.964        1.6793        0.0000        6.5395        6.5395       4.860189       0.04964
  35     3.853        1.6793        0.0000        6.5355        6.5356       4.856246       0.03742
  34     5.035        1.6793        0.0000        6.5315        6.5315       4.852243       0.02860
  33     6.613        1.6793        0.0000        6.5271        6.5271       4.847847       0.02350
  32     8.786        1.6793        0.0001        6.5216        6.5216       4.842350       0.02135
  31     11.80        1.6793        0.0001        6.5135        6.5136       4.834266       0.02263
  30     15.07        1.6793        0.0001        6.5041        6.5042       4.824891       0.02420
  29     18.79        1.6793        0.0001        6.4925        6.4926       4.813366       0.02613
  28     23.16        1.6793        0.0001        6.4779        6.4780       4.798762       0.02824
  27     28.12        1.6793        0.0002        6.4599        6.4600       4.780769       0.03059
  26     33.73        1.6793        0.0002        6.4384        6.4386       4.759316       0.03226
  25     40.54        1.6793        0.0002        6.4112        6.4115       4.732159       0.03369
  24     48.69        1.6793        0.0003        6.3775        6.3778       4.698477       0.03486
  23     57.69        1.6794        0.0003        6.3404        6.3407       4.661328       0.03482
  22     68.43        1.6795        0.0004        6.2971        6.2975       4.618061       0.03401
  21     81.20        1.6796        0.0005        6.2483        6.2487       4.569139       0.03233
  20     96.49        1.6798        0.0006        6.1948        6.1954       4.515621       0.02954
  19     114.6        1.6800        0.0007        6.1381        6.1388       4.458785       0.02654
  18     136.5        1.6804        0.0008        6.0790        6.0798       4.399400       0.02284
  17     162.9        1.6809        0.0009        6.0160        6.0170       4.336055       0.02025
  16     196.4        1.6818        0.0011        5.9399        5.9410       4.259215       0.01934
  15     218.7        1.6825        0.0012        5.8896        5.8909       4.208407       0.01929
  14     243.0        1.6834        0.0013        5.8322        5.8335       4.150162       0.02020
  13     269.0        1.6847        0.0015        5.7624        5.7639       4.079174       0.02303
  12     297.5        1.6866        0.0016        5.6767        5.6784       3.991720       0.02594
  11     328.5        1.6893        0.0018        5.5726        5.5744       3.885085       0.02899
  10     361.9        1.6929        0.0019        5.4473        5.4493       3.756376       0.03256
   9     398.1        1.6977        0.0021        5.2995        5.3016       3.603849       0.03554
   8     437.6        1.7042        0.0022        5.1275        5.1297       3.425479       0.03814
   7     480.5        1.7131        0.0024        4.9290        4.9313       3.218239       0.04070
   6     533.0        1.7272        0.0025        4.6794        4.6819       2.954724       0.04239
   5     589.8        1.7469        0.0027        4.4188        4.4215       2.674553       0.04159
   4     651.6        1.7749        0.0028        4.1521        4.1549       2.380000       0.04028
   3     718.7        1.8131        0.0030        3.8929        3.8959       2.082849       0.03734
   2     792.3        1.8640        0.0031        3.6469        3.6500       1.785982       0.03405
   1     891.5        0.4778        1.4208        0.6064        2.0272       1.549419       0.02013
   0    1013.0        0.5027        1.3367        0.5495        1.8862       1.383499       0.01152



 Wavenumbers:  5150. -  6150. cm-1, ATM      1
 LEVEL PRESSURE   UPWARD FLUX   DIFDOWN FLUX  DIRDOWN FLUX  DOWNWARD FLUX   NET FLUX    HEATING RATE
          mb          W/m2          W/m2          W/m2        W/m2          W/m2       degree/day
  51    .06700        4.2302        0.0000       16.4735       16.4735      12.243312       0.00000
  50    .07753        4.2302        0.0000       16.4735       16.4735      12.243277       0.02762
  49    .09103        4.2302        0.0000       16.4734       16.4734      12.243232       0.02812
  48    0.1069        4.2302        0.0000       16.4734       16.4734      12.243178       0.02861
  47    0.1255        4.2302        0.0000       16.4733       16.4733      12.243114       0.02906
  46    0.1487        4.2302        0.0000       16.4732       16.4732      12.243030       0.03061
  45    0.1794        4.2302        0.0000       16.4731       16.4731      12.242911       0.03270
  44    0.2165        4.2302        0.0000       16.4730       16.4730      12.242765       0.03332
  43    0.2613        4.2302        0.0000       16.4728       16.4728      12.242586       0.03377
  42    0.3336        4.2302        0.0000       16.4725       16.4725      12.242280       0.03566
  41    0.4307        4.2302        0.0000       16.4720       16.4720      12.241860       0.03647
  40    0.5894        4.2302        0.0000       16.4713       16.4713      12.241159       0.03730
  39     1.339        4.2302        0.0000       16.4679       16.4679      12.237749       0.03839
  38     1.782        4.2302        0.0000       16.4659       16.4659      12.235748       0.03809
  37     2.292        4.2302        0.0001       16.4635       16.4636      12.233455       0.03798
  36     2.964        4.2301        0.0001       16.4605       16.4606      12.230483       0.03731
  35     3.853        4.2301        0.0001       16.4567       16.4568      12.226625       0.03661
  34     5.035        4.2301        0.0001       16.4516       16.4517      12.221623       0.03574
  33     6.613        4.2301        0.0002       16.4451       16.4452      12.215153       0.03458
  32     8.786        4.2301        0.0002       16.4367       16.4369      12.206829       0.03233
  31     11.80        4.2300        0.0003       16.4254       16.4257      12.195658       0.03128
  30     15.07        4.2300        0.0004       16.4141       16.4145      12.184547       0.02869
  29     18.79        4.2300        0.0005       16.4024       16.4030      12.172997       0.02619
  28     23.16        4.2299        0.0006       16.3900       16.3906      12.160700       0.02378
  27     28.12        4.2299        0.0008       16.3771       16.3779      12.147993       0.02160
  26     33.73        4.2298        0.0009       16.3641       16.3650      12.135212       0.01922
  25     40.54        4.2298        0.0011       16.3502       16.3513      12.121498       0.01701
  24     48.69        4.2298        0.0013       16.3354       16.3367      12.106926       0.01508
  23     57.69        4.2298        0.0016       16.3211       16.3227      12.092907       0.01314
  22     68.43        4.2297        0.0019       16.3062       16.3081      12.078369       0.01143
  21     81.20        4.2298        0.0022       16.2903       16.2925      12.062790       0.01029
  20     96.49        4.2298        0.0026       16.2726       16.2753      12.045485       0.00955
  19     114.6        4.2298        0.0031       16.2521       16.2552      12.025389       0.00938
  18     136.5        4.2299        0.0037       16.2245       16.2283      11.998381       0.01039
  17     162.9        4.2300        0.0044       16.1747       16.1791      11.949164       0.01573
  16     196.4        4.2302        0.0053       16.0518       16.0571      11.826963       0.03076
  15     218.7        4.2303        0.0059       15.8984       15.9042      11.673898       0.05811
  14     243.0        4.2306        0.0064       15.6153       15.6217      11.391099       0.09808
  13     269.0        4.2310        0.0070       15.1390       15.1460      10.914948       0.15446
  12     297.5        4.2317        0.0075       14.5779       14.5854      10.353667       0.16647
  11     328.5        4.2329        0.0080       13.8780       13.8860       9.653152       0.19047
  10     361.9        4.2346        0.0084       13.0814       13.0899       8.855239       0.20188
   9     398.1        4.2373        0.0088       12.2728       12.2817       8.044382       0.18891
   8     437.6        4.2413        0.0092       11.4776       11.4868       7.245461       0.17081
   7     480.5        4.2475        0.0095       10.7300       10.7395       6.491953       0.14799
   6     533.0        4.2587        0.0099       10.0326       10.0425       5.783796       0.11392
   5     589.8        4.2766        0.0104        9.5050        9.5155       5.238862       0.08089
   4     651.6        4.3054        0.0111        9.0814        9.0924       4.787088       0.06178
   3     718.7        4.3492        0.0118        8.7024        8.7142       4.364980       0.05305
   2     792.3        4.4136        0.0126        8.3379        8.3505       3.936913       0.04909
   1     891.5        1.1934        3.3581        1.4295        4.7877       3.594272       0.02916
   0    1013.0        1.2235        3.2365        1.3513        4.5878       3.364266       0.01597



 Wavenumbers:  6150. -  7700. cm-1, ATM      1
 LEVEL PRESSURE   UPWARD FLUX   DIFDOWN FLUX  DIRDOWN FLUX  DOWNWARD FLUX   NET FLUX    HEATING RATE
          mb          W/m2          W/m2          W/m2        W/m2          W/m2       degree/day
  51    .06700        6.5117        0.0000       30.4684       30.4684      23.956639       0.00000
  50    .07753        6.5117        0.0000       30.4683       30.4683      23.956587       0.04144
  49    .09103        6.5117        0.0000       30.4683       30.4683      23.956521       0.04174
  48    0.1069        6.5117        0.0000       30.4682       30.4682      23.956442       0.04202
  47    0.1255        6.5117        0.0000       30.4681       30.4681      23.956348       0.04227
  46    0.1487        6.5117        0.0000       30.4680       30.4680      23.956227       0.04411
  45    0.1794        6.5117        0.0000       30.4678       30.4678      23.956057       0.04669
  44    0.2165        6.5117        0.0000       30.4676       30.4676      23.955850       0.04715
  43    0.2613        6.5117        0.0000       30.4673       30.4673      23.955598       0.04744
  42    0.3336        6.5117        0.0000       30.4669       30.4669      23.955172       0.04974
  41    0.4307        6.5117        0.0000       30.4663       30.4663      23.954591       0.05052
  40    0.5894        6.5117        0.0001       30.4653       30.4653      23.953623       0.05146
  39     1.339        6.5116        0.0001       30.4604       30.4606      23.948939       0.05273
  38     1.782        6.5116        0.0002       30.4576       30.4578      23.946190       0.05235
  37     2.292        6.5115        0.0003       30.4543       30.4546      23.943031       0.05231
  36     2.964        6.5115        0.0003       30.4501       30.4504      23.938924       0.05156
  35     3.853        6.5114        0.0004       30.4445       30.4450      23.933567       0.05084
  34     5.035        6.5113        0.0006       30.4373       30.4378      23.926567       0.05000
  33     6.613        6.5111        0.0008       30.4278       30.4285      23.917419       0.04890
  32     8.786        6.5109        0.0010       30.4154       30.4164      23.905466       0.04642
  31     11.80        6.5106        0.0013       30.3984       30.3997      23.889081       0.04587
  30     15.07        6.5103        0.0017       30.3810       30.3827      23.872367       0.04315
  29     18.79        6.5100        0.0021       30.3623       30.3644      23.854466       0.04059
  28     23.16        6.5096        0.0026       30.3417       30.3443      23.834783       0.03806
  27     28.12        6.5091        0.0032       30.3196       30.3228      23.813682       0.03587
  26     33.73        6.5086        0.0038       30.2965       30.3003      23.791763       0.03296
  25     40.54        6.5079        0.0046       30.2708       30.2754      23.767424       0.03019
  24     48.69        6.5072        0.0055       30.2423       30.2478      23.740646       0.02771
  23     57.69        6.5063        0.0066       30.2139       30.2204      23.714078       0.02490
  22     68.43        6.5053        0.0078       30.1834       30.1911      23.685800       0.02223
  21     81.20        6.5042        0.0092       30.1500       30.1592      23.655067       0.02031
  20     96.49        6.5027        0.0110       30.1126       30.1236      23.620843       0.01889
  19     114.6        6.5011        0.0130       30.0695       30.0825      23.581450       0.01839
  18     136.5        6.4991        0.0154       30.0139       30.0293      23.530282       0.01968
  17     162.9        6.4967        0.0183       29.9225       29.9408      23.444075       0.02756
  16     196.4        6.4937        0.0220       29.7333       29.7554      23.261621       0.04593
  15     218.7        6.4918        0.0244       29.5259       29.5503      23.058420       0.07715
  14     243.0        6.4899        0.0269       29.1375       29.1643      22.674456       0.13317
  13     269.0        6.4881        0.0293       28.3800       28.4093      21.921154       0.24437
  12     297.5        6.4867        0.0315       27.3895       27.4211      20.934315       0.29269
  11     328.5        6.4862        0.0337       26.2257       26.2594      19.773205       0.31570
  10     361.9        6.4869        0.0357       24.8453       24.8810      18.394040       0.34894
   9     398.1        6.4898        0.0374       23.3471       23.3845      16.894655       0.34932
   8     437.6        6.4961        0.0389       21.7966       21.8355      15.339482       0.33251
   7     480.5        6.5083        0.0401       20.1977       20.2378      13.729580       0.31618
   6     533.0        6.5331        0.0414       18.4969       18.5383      12.005255       0.27739
   5     589.8        6.5753        0.0427       16.9754       17.0180      10.442748       0.23193
   4     651.6        6.6457        0.0439       15.6022       15.6461       9.000412       0.19724
   3     718.7        6.7543        0.0454       14.4232       14.4686       7.714241       0.16164
   2     792.3        6.9143        0.0471       13.4386       13.4857       6.571381       0.13107
   1     891.5        1.7918        5.2758        2.2376        7.5134       5.721569       0.07231
   0    1013.0        1.8700        4.9750        2.0418        7.0168       5.146852       0.03991



 Wavenumbers:  7700. -  8050. cm-1, ATM      1
 LEVEL PRESSURE   UPWARD FLUX   DIFDOWN FLUX  DIRDOWN FLUX  DOWNWARD FLUX   NET FLUX    HEATING RATE
          mb          W/m2          W/m2          W/m2        W/m2          W/m2       degree/day
  51    .06700        3.1679        0.0000        7.2006        7.2006       4.032678       0.00000
  50    .07753        3.1679        0.0000        7.2006        7.2006       4.032658       0.01588
  49    .09103        3.1679        0.0000        7.2005        7.2005       4.032633       0.01556
  48    0.1069        3.1679        0.0000        7.2005        7.2005       4.032604       0.01524
  47    0.1255        3.1679        0.0000        7.2005        7.2005       4.032571       0.01491
  46    0.1487        3.1679        0.0000        7.2004        7.2005       4.032530       0.01513
  45    0.1794        3.1679        0.0000        7.2004        7.2004       4.032473       0.01557
  44    0.2165        3.1679        0.0000        7.2003        7.2003       4.032406       0.01527
  43    0.2613        3.1679        0.0000        7.2003        7.2003       4.032326       0.01498
  42    0.3336        3.1680        0.0000        7.2001        7.2001       4.032195       0.01533
  41    0.4307        3.1680        0.0000        7.2000        7.2000       4.032021       0.01516
  40    0.5894        3.1680        0.0000        7.1997        7.1997       4.031736       0.01515
  39     1.339        3.1681        0.0001        7.1984        7.1985       4.030389       0.01517
  38     1.782        3.1682        0.0001        7.1977        7.1978       4.029598       0.01506
  37     2.292        3.1683        0.0001        7.1968        7.1969       4.028682       0.01516
  36     2.964        3.1684        0.0001        7.1957        7.1958       4.027481       0.01508
  35     3.853        3.1685        0.0002        7.1942        7.1944       4.025894       0.01506
  34     5.035        3.1687        0.0002        7.1922        7.1925       4.023788       0.01505
  33     6.613        3.1689        0.0003        7.1896        7.1899       4.020977       0.01503
  32     8.786        3.1693        0.0004        7.1860        7.1865       4.017194       0.01469
  31     11.80        3.1697        0.0006        7.1810        7.1815       4.011794       0.01512
  30     15.07        3.1703        0.0007        7.1755        7.1763       4.006010       0.01493
  29     18.79        3.1709        0.0009        7.1694        7.1703       3.999496       0.01477
  28     23.16        3.1715        0.0011        7.1623        7.1635       3.991914       0.01466
  27     28.12        3.1723        0.0014        7.1542        7.1556       3.983279       0.01468
  26     33.73        3.1732        0.0016        7.1452        7.1469       3.973660       0.01446
  25     40.54        3.1743        0.0019        7.1344        7.1364       3.962105       0.01434
  24     48.69        3.1756        0.0023        7.1215        7.1239       3.948267       0.01432
  23     57.69        3.1770        0.0028        7.1074        7.1102       3.933186       0.01414
  22     68.43        3.1788        0.0033        7.0909        7.0941       3.915385       0.01399
  21     81.20        3.1808        0.0039        7.0713        7.0752       3.894400       0.01387
  20     96.49        3.1833        0.0046        7.0484        7.0530       3.869706       0.01363
  19     114.6        3.1863        0.0055        7.0217        7.0271       3.840810       0.01349
  18     136.5        3.1899        0.0065        6.9906        6.9970       3.807131       0.01295
  17     162.9        3.1943        0.0077        6.9544        6.9621       3.767782       0.01258
  16     196.4        3.2000        0.0092        6.9087        6.9179       3.717915       0.01255
  15     218.7        3.2039        0.0102        6.8794        6.8896       3.685764       0.01221
  14     243.0        3.2081        0.0113        6.8481        6.8594       3.651298       0.01195
  13     269.0        3.2128        0.0125        6.8147        6.8272       3.614373       0.01198
  12     297.5        3.2181        0.0138        6.7791        6.7928       3.574776       0.01174
  11     328.5        3.2239        0.0152        6.7409        6.7561       3.532176       0.01158
  10     361.9        3.2305        0.0166        6.7002        6.7168       3.486291       0.01161
   9     398.1        3.2379        0.0182        6.6563        6.6745       3.436561       0.01159
   8     437.6        3.2464        0.0199        6.6089        6.6288       3.382391       0.01158
   7     480.5        3.2562        0.0217        6.5570        6.5787       3.322564       0.01175
   6     533.0        3.2693        0.0239        6.4915        6.5154       3.246123       0.01230
   5     589.8        3.2850        0.0263        6.4182        6.4445       3.159539       0.01285
   4     651.6        3.3039        0.0288        6.3359        6.3647       3.060747       0.01351
   3     718.7        3.3266        0.0315        6.2441        6.2756       2.948996       0.01404
   2     792.3        3.3533        0.0343        6.1437        6.1780       2.824707       0.01425
   1     891.5        0.9394        2.5668        1.0861        3.6529       2.713459       0.00947
   0    1013.0        0.9540        2.5237        1.0537        3.5773       2.623271       0.00626



 Wavenumbers:  8050. - 12850. cm-1, ATM      1
 LEVEL PRESSURE   UPWARD FLUX   DIFDOWN FLUX  DIRDOWN FLUX  DOWNWARD FLUX   NET FLUX    HEATING RATE
          mb          W/m2          W/m2          W/m2        W/m2          W/m2       degree/day
  51    .06700       41.0014        0.0000      100.8135      100.8135      59.812104       0.00000
  50    .07753       41.0014        0.0000      100.8135      100.8135      59.812104       0.00000
  49    .09103       41.0014        0.0001      100.8134      100.8135      59.812104      -0.00000
  48    0.1069       41.0013        0.0001      100.8134      100.8135      59.812104       0.00000
  47    0.1255       41.0013        0.0001      100.8133      100.8134      59.812104       0.00000
  46    0.1487       41.0013        0.0002      100.8132      100.8134      59.812104      -0.00000
  45    0.1794       41.0012        0.0003      100.8131      100.8133      59.812104       0.00000
  44    0.2165       41.0012        0.0004      100.8129      100.8133      59.812104      -0.00000
  43    0.2613       41.0011        0.0005      100.8127      100.8132      59.812104       0.00000
  42    0.3336       41.0010        0.0006      100.8125      100.8131      59.812104       0.00000
  41    0.4307       41.0008        0.0009      100.8121      100.8129      59.812104      -0.00000
  40    0.5894       41.0006        0.0012      100.8115      100.8127      59.812104      -0.00000
  39     1.339       40.9994        0.0030      100.8085      100.8115      59.812104       0.00000
  38     1.782       40.9987        0.0040      100.8068      100.8108      59.812104       0.00000
  37     2.292       40.9979        0.0052      100.8047      100.8100      59.812104       0.00000
  36     2.964       40.9968        0.0068      100.8021      100.8089      59.812104      -0.00000
  35     3.853       40.9954        0.0089      100.7986      100.8075      59.812104       0.00000
  34     5.035       40.9935        0.0116      100.7940      100.8056      59.812104      -0.00000
  33     6.613       40.9910        0.0153      100.7878      100.8031      59.812104      -0.00000
  32     8.786       40.9876        0.0203      100.7794      100.7997      59.812104       0.00000
  31     11.80       40.9828        0.0274      100.7674      100.7949      59.812104      -0.00000
  30     15.07       40.9776        0.0351      100.7546      100.7897      59.812104       0.00000
  29     18.79       40.9717        0.0438      100.7400      100.7838      59.812104      -0.00000
  28     23.16       40.9648        0.0539      100.7230      100.7769      59.812104       0.00000
  27     28.12       40.9569        0.0655      100.7035      100.7690      59.812104       0.00000
  26     33.73       40.9480        0.0785      100.6817      100.7601      59.812104       0.00000
  25     40.54       40.9373        0.0942      100.6552      100.7495      59.812104       0.00000
  24     48.69       40.9244        0.1132      100.6234      100.7365      59.812104      -0.00000
  23     57.69       40.9102        0.1341      100.5883      100.7223      59.812104       0.00000
  22     68.43       40.8933        0.1590      100.5464      100.7054      59.812104       0.00000
  21     81.20       40.8731        0.1887      100.4965      100.6852      59.812104      -0.00000
  20     96.49       40.8489        0.2241      100.4370      100.6610      59.812104      -0.00000
  19     114.6       40.8204        0.2662      100.3585      100.6247      59.804364       0.00361
  18     136.5       40.7864        0.3163      100.2634      100.5796      59.793230       0.00428
  17     162.9       40.7460        0.3760      100.1407      100.5166      59.770657       0.00722
  16     196.4       40.6935        0.4535       99.9505      100.4040      59.710435       0.01516
  15     218.7       40.6591        0.5044       99.7889      100.2933      59.634227       0.02893
  14     243.0       40.6220        0.5597       99.5472      100.1069      59.484908       0.05179
  13     269.0       40.5827        0.6193       99.1452       99.7645      59.181743       0.09835
  12     297.5       40.5423        0.6832       98.5975       99.2807      58.738351       0.13151
  11     328.5       40.5020        0.7517       97.8659       98.6175      58.115518       0.16935
  10     361.9       40.4641        0.8244       96.8848       97.7092      57.245144       0.22021
   9     398.1       40.4314        0.9013       95.6330       96.5343      56.102880       0.26612
   8     437.6       40.4094        0.9818       94.0655       95.0472      54.637838       0.31323
   7     480.5       40.4088        1.0649       92.0807       93.1457      52.736823       0.37335
   6     533.0       40.4475        1.1632       89.4449       90.6080      50.160548       0.41444
   5     589.8       40.5487        1.2646       86.5544       87.8190      47.270274       0.42901
   4     651.6       40.7492        1.3688       83.4174       84.7862      44.036924       0.44217
   3     718.7       41.0782        1.4764       80.2037       81.6801      40.601855       0.43169
   2     792.3       41.5700        1.5881       77.0811       78.6692      37.099254       0.40171
   1     891.5       11.3633       32.3310       13.2479       45.5789      34.215591       0.24539
   0    1013.0       11.6314       31.2291       12.4663       43.6954      32.064034       0.14939



 Wavenumbers: 12850. - 16000. cm-1, ATM      1
 LEVEL PRESSURE   UPWARD FLUX   DIFDOWN FLUX  DIRDOWN FLUX  DOWNWARD FLUX   NET FLUX    HEATING RATE
          mb          W/m2          W/m2          W/m2        W/m2          W/m2       degree/day
  51    .06700       37.8859        0.0000       63.1686       63.1686      25.282643       0.00000
  50    .07753       37.8859        0.0001       63.1677       63.1678      25.281863       0.62543
  49    .09103       37.8859        0.0001       63.1666       63.1668      25.280890       0.60792
  48    0.1069       37.8858        0.0002       63.1654       63.1656      25.279783       0.58962
  47    0.1255       37.8858        0.0003       63.1640       63.1643      25.278522       0.57127
  46    0.1487       37.8858        0.0004       63.1623       63.1627      25.276950       0.57300
  45    0.1794       37.8857        0.0006       63.1600       63.1606      25.274842       0.57885
  44    0.2165       37.8857        0.0008       63.1573       63.1581      25.272403       0.55488
  43    0.2613       37.8856        0.0010       63.1542       63.1552      25.269588       0.53056
  42    0.3336       37.8856        0.0014       63.1493       63.1507      25.265101       0.52313
  41    0.4307       37.8856        0.0019       63.1431       63.1451      25.259486       0.48823
  40    0.5894       37.8856        0.0027       63.1338       63.1366      25.250972       0.45276
  39     1.339       37.8872        0.0067       63.0956       63.1023      25.215090       0.40396
  38     1.782       37.8891        0.0090       63.0740       63.0830      25.193901       0.40341
  37     2.292       37.8923        0.0117       63.0477       63.0593      25.166989       0.44573
  36     2.964       37.8980        0.0152       63.0095       63.0247      25.126652       0.50635
  35     3.853       37.9077        0.0198       62.9533       62.9731      25.065396       0.58133
  34     5.035       37.9225        0.0259       62.8725       62.8984      24.975967       0.63884
  33     6.613       37.9433        0.0341       62.7621       62.7962      24.852880       0.65802
  32     8.786       37.9703        0.0452       62.6182       62.6634      24.693097       0.62054
  31     11.80       38.0049        0.0609       62.4284       62.4893      24.484372       0.58437
  30     15.07       38.0373        0.0777       62.2426       62.3204      24.283062       0.51974
  29     18.79       38.0697        0.0967       62.0493       62.1460      24.076365       0.46865
  28     23.16       38.1026        0.1189       61.8424       61.9613      23.858707       0.42088
  27     28.12       38.1346        0.1441       61.6278       61.7719      23.637352       0.37629
  26     33.73       38.1622        0.1723       61.4177       61.5900      23.427779       0.31510
  25     40.54       38.1862        0.2064       61.1983       61.4047      23.218469       0.25967
  24     48.69       38.2059        0.2473       60.9680       61.2153      23.009377       0.21638
  23     57.69       38.2188        0.2923       60.7478       61.0401      22.821312       0.17628
  22     68.43       38.2244        0.3457       60.5202       60.8659      22.641498       0.14136
  21     81.20       38.2180        0.4094       60.2938       60.7032      22.485195       0.10328
  20     96.49       38.1983        0.4852       60.0643       60.5495      22.351236       0.07394
  19     114.6       38.1750        0.5758       59.8078       60.3836      22.208600       0.06660
  18     136.5       38.1420        0.6830       59.5157       60.1987      22.056690       0.05841
  17     162.9       38.0978        0.8102       59.1770       59.9873      21.889513       0.05344
  16     196.4       38.0299        0.9749       58.7604       59.7353      21.705384       0.04635
  15     218.7       37.9817        1.0827       58.4948       59.5775      21.595880       0.04157
  14     243.0       37.9276        1.1997       58.2089       59.4086      21.481026       0.03984
  13     269.0       37.8677        1.3263       57.9006       59.2268      21.359103       0.03955
  12     297.5       37.8022        1.4627       57.5668       59.0294      21.227282       0.03910
  11     328.5       37.7320        1.6097       57.2005       58.8102      21.078159       0.04055
  10     361.9       37.6581        1.7675       56.7963       58.5638      20.905743       0.04362
   9     398.1       37.5813        1.9367       56.3475       58.2842      20.702925       0.04725
   8     437.6       37.5038        2.1176       55.8422       57.9598      20.455942       0.05281
   7     480.5       37.4298        2.3102       55.2625       57.5727      20.142920       0.06148
   6     533.0       37.3538        2.5452       54.4972       57.0424      19.688601       0.07309
   5     589.8       37.2910        2.7952       53.6307       56.4259      19.134936       0.08218
   4     651.6       37.2501        3.0594       52.6606       55.7199      18.469839       0.09095
   3     718.7       37.2364        3.3380       51.6100       54.9480      17.711637       0.09529
   2     792.3       37.2568        3.6309       50.5019       54.1328      16.876008       0.09584
   1     891.5       19.6938       26.9043        8.8651       35.7694      16.075608       0.06811
   0    1013.0       19.8229       26.6139        8.5412       35.1551      15.332153       0.05162



 Wavenumbers: 16000. - 22650. cm-1, ATM      1
 LEVEL PRESSURE   UPWARD FLUX   DIFDOWN FLUX  DIRDOWN FLUX  DOWNWARD FLUX   NET FLUX    HEATING RATE
          mb          W/m2          W/m2          W/m2        W/m2          W/m2       degree/day
  51    .06700       76.4936        0.0000      100.7153      100.7153      24.221661       0.00000
  50    .07753       76.4935        0.0003      100.7147      100.7151      24.221544       0.09429
  49    .09103       76.4934        0.0007      100.7140      100.7147      24.221373       0.10694
  48    0.1069       76.4932        0.0012      100.7131      100.7143      24.221143       0.12195
  47    0.1255       76.4930        0.0018      100.7121      100.7139      24.220837       0.13901
  46    0.1487       76.4928        0.0024      100.7108      100.7132      24.220385       0.16472
  45    0.1794       76.4926        0.0034      100.7089      100.7123      24.219678       0.19395
  44    0.2165       76.4923        0.0045      100.7066      100.7110      24.218720       0.21797
  43    0.2613       76.4920        0.0058      100.7037      100.7095      24.217420       0.24505
  42    0.3336       76.4917        0.0080      100.6987      100.7067      24.214949       0.28817
  41    0.4307       76.4914        0.0108      100.6918      100.7026      24.211223       0.32392
  40    0.5894       76.4912        0.0155      100.6797      100.6953      24.204118       0.37783
  39     1.339       76.4957        0.0378      100.6095      100.6473      24.151637       0.59084
  38     1.782       76.5024        0.0509      100.5585      100.6093      24.106943       0.85090
  37     2.292       76.5140        0.0660      100.4903      100.5562      24.042269       1.07118
  36     2.964       76.5350        0.0858      100.3868      100.4726      23.937544       1.31461
  35     3.853       76.5711        0.1120      100.2306      100.3426      23.771492       1.57587
  34     5.035       76.6271        0.1467      100.0045      100.1512      23.524022       1.76782
  33     6.613       76.7062        0.1930       99.6939       99.8868      23.180638       1.83573
  32     8.786       76.8085        0.2552       99.2881       99.5432      22.734733       1.73174
  31     11.80       76.9389        0.3438       98.7496       99.0934      22.154504       1.62446
  30     15.07       77.0605        0.4387       98.2198       98.6586      21.598026       1.43672
  29     18.79       77.1813        0.5455       97.6651       98.2107      21.029417       1.28921
  28     23.16       77.3031        0.6699       97.0671       97.7370      20.433865       1.15161
  27     28.12       77.4201        0.8115       96.4406       97.2520      19.831903       1.02330
  26     33.73       77.5189        0.9694       95.8179       96.7873      19.268383       0.84727
  25     40.54       77.6011        1.1596       95.1548       96.3144      18.713305       0.68864
  24     48.69       77.6642        1.3879       94.4420       95.8299      18.165701       0.56668
  23     57.69       77.6988        1.6378       93.7416       95.3794      17.680532       0.45477
  22     68.43       77.7028        1.9341       92.9954       94.9294      17.226662       0.35680
  21     81.20       77.6564        2.2857       92.2231       94.5089      16.852503       0.24724
  20     96.49       77.5539        2.7028       91.4110       94.1138      16.559878       0.16151
  19     114.6       77.4091        3.1946       90.5070       93.7017      16.292590       0.12480
  18     136.5       77.2223        3.7727       89.4803       93.2530      16.030634       0.10073
  17     162.9       76.9871        4.4542       88.3022       92.7564      15.769325       0.08352
  16     196.4       76.6530        5.3278       86.8606       92.1884      15.535405       0.05888
  15     218.7       76.4238        5.8952       85.9492       91.8444      15.420647       0.04357
  14     243.0       76.1710        6.5064       84.9789       91.4854      15.314399       0.03685
  13     269.0       75.8935        7.1623       83.9493       91.1116      15.218151       0.03122
  12     297.5       75.5907        7.8637       82.8589       90.7227      15.132015       0.02555
  11     328.5       75.2639        8.6131       81.6982       90.3113      15.047412       0.02300
  10     361.9       74.9133        9.4101       80.4669       89.8771      14.963802       0.02115
   9     398.1       74.5379       10.2568       79.1611       89.4179      14.879957       0.01953
   8     437.6       74.1384       11.1532       77.7777       88.9310      14.792534       0.01869
   7     480.5       73.7151       12.0998       76.3136       88.4135      14.698338       0.01850
   6     533.0       73.2020       13.2450       74.5359       87.7809      14.578836       0.01922
   5     589.8       72.6601       14.4549       72.6469       87.1019      14.441745       0.02035
   4     651.6       72.0918       15.7276       70.6456       86.3731      14.281288       0.02194
   3     718.7       71.4978       17.0607       68.5367       85.5974      14.099562       0.02284
   2     792.3       70.8810       18.4490       66.3287       84.7777      13.896762       0.02326
   1     891.5       50.2864       52.4950       11.4699       63.9648      13.678469       0.01858
   0    1013.0       50.0605       52.6486       10.8593       63.5079      13.447376       0.01605



 Wavenumbers: 22650. - 29000. cm-1, ATM      1
 LEVEL PRESSURE   UPWARD FLUX   DIFDOWN FLUX  DIRDOWN FLUX  DOWNWARD FLUX   NET FLUX    HEATING RATE
          mb          W/m2          W/m2          W/m2        W/m2          W/m2       degree/day
  51    .06700       32.7874        0.0000       38.0063       38.0063       5.218839       0.00000
  50    .07753       32.7873        0.0004       38.0057       38.0061       5.218839       0.00000
  49    .09103       32.7871        0.0009       38.0050       38.0059       5.218839       0.00000
  48    0.1069       32.7868        0.0014       38.0042       38.0057       5.218839       0.00000
  47    0.1255       32.7865        0.0020       38.0033       38.0054       5.218839       0.00000
  46    0.1487       32.7862        0.0028       38.0022       38.0050       5.218839      -0.00000
  45    0.1794       32.7857        0.0039       38.0006       38.0045       5.218839       0.00000
  44    0.2165       32.7851        0.0052       37.9987       38.0039       5.218839      -0.00000
  43    0.2613       32.7844        0.0067       37.9965       38.0033       5.218839       0.00000
  42    0.3336       32.7833        0.0093       37.9928       38.0021       5.218839      -0.00000
  41    0.4307       32.7818        0.0126       37.9880       38.0006       5.218839       0.00000
  40    0.5894       32.7793        0.0181       37.9800       37.9981       5.218839       0.00000
  39     1.339       32.7676        0.0440       37.9425       37.9865       5.218839       0.00000
  38     1.782       32.7608        0.0592       37.9204       37.9796       5.218839      -0.00000
  37     2.292       32.7528        0.0768       37.8949       37.9717       5.218839       0.00000
  36     2.964       32.7424        0.0998       37.8614       37.9613       5.218839       0.00000
  35     3.853       32.7287        0.1303       37.8172       37.9475       5.218839      -0.00000
  34     5.035       32.7105        0.1707       37.7586       37.9293       5.218839       0.00000
  33     6.613       32.6861        0.2247       37.6803       37.9050       5.218839       0.00000
  32     8.786       32.6534        0.2972       37.5750       37.8722       5.218839       0.00000
  31     11.80       32.6067        0.4007       37.4249       37.8255       5.218839       0.00000
  30     15.07       32.5567        0.5113       37.2642       37.7755       5.218839      -0.00000
  29     18.79       32.5004        0.6359       37.0833       37.7192       5.218839       0.00000
  28     23.16       32.4348        0.7807       36.8730       37.6537       5.218839      -0.00000
  27     28.12       32.3603        0.9453       36.6338       37.5791       5.218839       0.00000
  26     33.73       32.2772        1.1284       36.3677       37.4961       5.218839       0.00000
  25     40.54       32.1776        1.3479       36.0486       37.3964       5.218839       0.00000
  24     48.69       32.0584        1.6100       35.6672       37.2772       5.218839      -0.00000
  23     57.69       31.9286        1.8948       35.2527       37.1475       5.218839      -0.00000
  22     68.43       31.7757        2.2296       34.7649       36.9946       5.218839      -0.00000
  21     81.20       31.5959        2.6225       34.1922       36.8147       5.218839       0.00000
  20     96.49       31.3849        3.0820       33.5217       36.6038       5.218839      -0.00000
  19     114.6       31.1391        3.6155       32.7424       36.3579       5.218839       0.00000
  18     136.5       30.8540        4.2312       31.8416       36.0728       5.218839       0.00000
  17     162.9       30.5234        4.9414       30.8008       35.7422       5.218839      -0.00000
  16     196.4       30.1083        5.8265       29.5007       35.3272       5.218839       0.00000
  15     218.7       29.8440        6.3862       28.6767       35.0629       5.218839       0.00000
  14     243.0       29.5639        6.9759       27.8068       34.7827       5.218839      -0.00000
  13     269.0       29.2683        7.5938       26.8933       34.4872       5.218839       0.00000
  12     297.5       28.9581        8.2376       25.9393       34.1769       5.218839       0.00000
  11     328.5       28.6330        8.9067       24.9451       33.8518       5.218839       0.00000
  10     361.9       28.2943        9.5971       23.9160       33.5131       5.218839       0.00000
   9     398.1       27.9423       10.3070       22.8541       33.1612       5.218839      -0.00000
   8     437.6       27.5783       11.0326       21.7645       32.7971       5.218839       0.00000
   7     480.5       27.2032       11.7699       20.6521       32.4221       5.218839       0.00000
   6     533.0       26.7617       12.6237       19.3569       31.9806       5.218839      -0.00000
   5     589.8       26.3092       13.4813       18.0467       31.5280       5.218839       0.00000
   4     651.6       25.8480       14.3352       16.7316       31.0668       5.218839      -0.00000
   3     718.7       25.3803       15.1778       15.4214       30.5992       5.218839       0.00000
   2     792.3       24.9092       16.0004       14.1276       30.1280       5.218839       0.00000
   1     891.5       19.4757       22.4257        2.2687       24.6944       5.218786       0.00000
   0    1013.0       19.2107       22.4636        1.9659       24.4295       5.218786      -0.00000



 Wavenumbers: 29000. - 38000. cm-1, ATM      1
 LEVEL PRESSURE   UPWARD FLUX   DIFDOWN FLUX  DIRDOWN FLUX  DOWNWARD FLUX   NET FLUX    HEATING RATE
          mb          W/m2          W/m2          W/m2        W/m2          W/m2       degree/day
  51    .06700        4.7645        0.0000       13.4026       13.4026       8.638096       0.00000
  50    .07753        4.7643        0.0003       13.3983       13.3986       8.634298       3.04427
  49    .09103        4.7640        0.0007       13.3921       13.3928       8.628779       3.44953
  48    0.1069        4.7637        0.0011       13.3840       13.3851       8.621402       3.92661
  47    0.1255        4.7634        0.0016       13.3733       13.3749       8.611558       4.46300
  46    0.1487        4.7629        0.0022       13.3579       13.3600       8.597116       5.26416
  45    0.1794        4.7623        0.0030       13.3340       13.3371       8.574718       6.14901
  44    0.2165        4.7617        0.0040       13.3024       13.3064       8.544700       6.82847
  43    0.2613        4.7609        0.0051       13.2604       13.2655       8.504647       7.54976
  42    0.3336        4.7597        0.0070       13.1833       13.1903       8.430644       8.62801
  41    0.4307        4.7581        0.0095       13.0729       13.0824       8.324278       9.24832
  40    0.5894        4.7557        0.0133       12.8796       12.8929       8.137246       9.94614
  39     1.339        4.7471        0.0296       11.9165       11.9461       7.198990      10.56306
  38     1.782        4.7437        0.0378       11.4399       11.4778       6.734079       8.85115
  37     2.292        4.7410        0.0467       10.9796       11.0263       6.285245       7.43386
  36     2.964        4.7394        0.0575       10.4786       10.5362       5.796769       6.13185
  35     3.853        4.7397        0.0710        9.9429       10.0138       5.274150       4.95975
  34     5.035        4.7426        0.0877        9.4007        9.4884       4.745765       3.77457
  33     6.613        4.7483        0.1089        8.8752        8.9841       4.235845       2.72603
  32     8.786        4.7561        0.1363        8.3786        8.5148       3.758721       1.85298
  31     11.80        4.7656        0.1738        7.8897        8.0635       3.297857       1.29027
  30     15.07        4.7736        0.2125        7.5108        7.7233       2.949706       0.89886
  29     18.79        4.7809        0.2547        7.1776        7.4323       2.651415       0.67632
  28     23.16        4.7873        0.3022        6.8664        7.1686       2.381287       0.52234
  27     28.12        4.7922        0.3547        6.5780        6.9327       2.140525       0.40928
  26     33.73        4.7931        0.4118        6.3195        6.7313       1.938249       0.30413
  25     40.54        4.7887        0.4792        6.0663        6.5455       1.756795       0.22511
  24     48.69        4.7786        0.5582        5.8128        6.3711       1.592474       0.17005
  23     57.69        4.7627        0.6425        5.5777        6.2202       1.457418       0.12659
  22     68.43        4.7388        0.7399        5.3379        6.0778       1.339007       0.09309
  21     81.20        4.7026        0.8529        5.0965        5.9494       1.246878       0.06088
  20     96.49        4.6528        0.9834        4.8476        5.8311       1.178301       0.03785
  19     114.6        4.5924        1.1312        4.5799        5.7111       1.118635       0.02786
  18     136.5        4.5225        1.2962        4.2891        5.5853       1.062739       0.02149
  17     162.9        4.4426        1.4789        3.9732        5.4521       1.009484       0.01702
  16     196.4        4.3415        1.6975        3.6080        5.3055       0.963997       0.01145
  15     218.7        4.2777        1.8303        3.3898        5.2201       0.942357       0.00822
  14     243.0        4.2113        1.9655        3.1686        5.1341       0.922739       0.00680
  13     269.0        4.1426        2.1020        2.9461        5.0481       0.905448       0.00561
  12     297.5        4.0720        2.2385        2.7239        4.9625       0.890498       0.00443
  11     328.5        4.0002        2.3737        2.5029        4.8766       0.876467       0.00381
  10     361.9        3.9276        2.5064        2.2846        4.7910       0.863376       0.00331
   9     398.1        3.8548        2.6352        2.0708        4.7060       0.851218       0.00283
   8     437.6        3.7820        2.7592        1.8626        4.6218       0.839732       0.00246
   7     480.5        3.7098        2.8767        1.6621        4.5388       0.829043       0.00210
   6     533.0        3.6282        3.0021        1.4437        4.4458       0.817633       0.00184
   5     589.8        3.5483        3.1161        1.2390        4.3551       0.806829       0.00160
   4     651.6        3.4706        3.2171        1.0500        4.2671       0.796482       0.00141
   3     718.7        3.3955        3.3042        0.8778        4.1820       0.786558       0.00125
   2     792.3        3.3231        3.3764        0.7237        4.1001       0.777037       0.00109
   1     891.5        2.8185        3.4844        0.1006        3.5850       0.766463       0.00090
   0    1013.0        2.7614        3.4441        0.0731        3.5171       0.755719       0.00075



 Wavenumbers: 38000. - 50000. cm-1, ATM      1
 LEVEL PRESSURE   UPWARD FLUX   DIFDOWN FLUX  DIRDOWN FLUX  DOWNWARD FLUX   NET FLUX    HEATING RATE
          mb          W/m2          W/m2          W/m2        W/m2          W/m2       degree/day
  51    .06700        0.0051        0.0000        0.8267        0.8267       0.821528       0.00000
  50    .07753        0.0051        0.0001        0.8242        0.8243       0.819196       1.86936
  49    .09103        0.0050        0.0002        0.8207        0.8209       0.815872       2.07705
  48    0.1069        0.0049        0.0002        0.8162        0.8164       0.811514       2.31984
  47    0.1255        0.0048        0.0004        0.8103        0.8106       0.805801       2.59006
  46    0.1487        0.0047        0.0005        0.8018        0.8023       0.797567       3.00143
  45    0.1794        0.0045        0.0007        0.7889        0.7896       0.785013       3.44648
  44    0.2165        0.0044        0.0009        0.7720        0.7729       0.768507       3.75474
  43    0.2613        0.0042        0.0011        0.7500        0.7511       0.746955       4.06246
  42    0.3336        0.0039        0.0015        0.7106        0.7121       0.708267       4.51071
  41    0.4307        0.0035        0.0019        0.6566        0.6584       0.654972       4.63387
  40    0.5894        0.0029        0.0024        0.5680        0.5704       0.567464       4.65357
  39     1.339        0.0015        0.0030        0.2422        0.2452       0.243720       3.64476
  38     1.782        0.0010        0.0026        0.1493        0.1519       0.150889       1.76735
  37     2.292        0.0007        0.0022        0.0924        0.0946       0.093932       0.94336
  36     2.964        0.0005        0.0018        0.0539        0.0557       0.055224       0.48589
  35     3.853        0.0003        0.0013        0.0295        0.0308       0.030502       0.23462
  34     5.035        0.0002        0.0010        0.0154        0.0164       0.016181       0.10230
  33     6.613        0.0001        0.0007        0.0073        0.0080       0.007912       0.04420
  32     8.786        0.0000        0.0004        0.0030        0.0034       0.003390       0.01756
  31     11.80        0.0000        0.0003        0.0010        0.0012       0.001199       0.00613
  30     15.07        0.0000        0.0001        0.0003        0.0005       0.000463       0.00190
  29     18.79        0.0000        0.0001        0.0001        0.0002       0.000182       0.00064
  28     23.16        0.0000        0.0000        0.0000        0.0001       0.000071       0.00022
  27     28.12        0.0000        0.0000        0.0000        0.0000       0.000028       0.00007
  26     33.73        0.0000        0.0000        0.0000        0.0000       0.000011       0.00002
  25     40.54        0.0000        0.0000        0.0000        0.0000       0.000005       0.00001
  24     48.69        0.0000        0.0000        0.0000        0.0000       0.000002       0.00000
  23     57.69        0.0000        0.0000        0.0000        0.0000       0.000001       0.00000
  22     68.43        0.0000        0.0000        0.0000        0.0000       0.000000       0.00000
  21     81.20        0.0000        0.0000        0.0000        0.0000       0.000000       0.00000
  20     96.49        0.0000        0.0000        0.0000        0.0000       0.000000       0.00000
  19     114.6        0.0000        0.0000        0.0000        0.0000       0.000000       0.00000
  18     136.5        0.0000        0.0000        0.0000        0.0000       0.000000       0.00000
  17     162.9        0.0000        0.0000        0.0000        0.0000       0.000000       0.00000
  16     196.4        0.0000        0.0000        0.0000        0.0000       0.000000       0.00000
  15     218.7        0.0000        0.0000        0.0000        0.0000       0.000000       0.00000
  14     243.0        0.0000        0.0000        0.0000        0.0000       0.000000       0.00000
  13     269.0        0.0000        0.0000        0.0000        0.0000       0.000000       0.00000
  12     297.5        0.0000        0.0000        0.0000        0.0000       0.000000       0.00000
  11     328.5        0.0000        0.0000        0.0000        0.0000       0.000000       0.00000
  10     361.9        0.0000        0.0000        0.0000        0.0000       0.000000       0.00000
   9     398.1        0.0000        0.0000        0.0000        0.0000       0.000000       0.00000
   8     437.6        0.0000        0.0000        0.0000        0.0000       0.000000       0.00000
   7     480.5        0.0000        0.0000        0.0000        0.0000       0.000000       0.00000
   6     533.0        0.0000        0.0000        0.0000        0.0000       0.000000       0.00000
   5     589.8        0.0000        0.0000        0.0000        0.0000       0.000000       0.00000
   4     651.6        0.0000        0.0000        0.0000        0.0000       0.000000       0.00000
   3     718.7        0.0000        0.0000        0.0000        0.0000       0.000000       0.00000
   2     792.3        0.0000        0.0000        0.0000        0.0000       0.000000       0.00000
   1     891.5        0.0000        0.0000        0.0000        0.0000       0.000000       0.00000
   0    1013.0        0.0000        0.0000        0.0000        0.0000       0.000000       0.00000



 Wavenumbers:   820. -  2600. cm-1, ATM      1
 LEVEL PRESSURE   UPWARD FLUX   DIFDOWN FLUX  DIRDOWN FLUX  DOWNWARD FLUX   NET FLUX    HEATING RATE
          mb          W/m2          W/m2          W/m2        W/m2          W/m2       degree/day
  51    .06700        0.4847        0.0000        3.8670        3.8670       3.382302       0.00000
  50    .07753        0.4847        0.0000        3.8643        3.8643       3.379585       2.17770
  49    .09103        0.4847        0.0000        3.8635        3.8635       3.378775       0.50639
  48    0.1069        0.4847        0.0000        3.8626        3.8626       3.377884       0.47416
  47    0.1255        0.4847        0.0000        3.8616        3.8616       3.376923       0.43560
  46    0.1487        0.4847        0.0000        3.8605        3.8605       3.375814       0.40438
  45    0.1794        0.4847        0.0000        3.8592        3.8592       3.374479       0.36649
  44    0.2165        0.4847        0.0000        3.8578        3.8578       3.373101       0.31347
  43    0.2613        0.4847        0.0000        3.8564        3.8564       3.371640       0.27523
  42    0.3336        0.4847        0.0000        3.8541        3.8541       3.369409       0.26013
  41    0.4307        0.4847        0.0000        3.8512        3.8512       3.366527       0.25064
  40    0.5894        0.4847        0.0000        3.8465        3.8465       3.361800       0.25135
  39     1.339        0.4847        0.0000        3.8251        3.8251       3.340424       0.24066
  38     1.782        0.4847        0.0000        3.8133        3.8133       3.328611       0.22491
  37     2.292        0.4847        0.0000        3.8003        3.8003       3.315549       0.21634
  36     2.964        0.4847        0.0000        3.7841        3.7841       3.299419       0.20248
  35     3.853        0.4847        0.0000        3.7642        3.7642       3.279504       0.18900
  34     5.035        0.4847        0.0000        3.7395        3.7395       3.254811       0.17639
  33     6.613        0.4847        0.0000        3.7090        3.7090       3.224274       0.16325
  32     8.786        0.4847        0.0000        3.6726        3.6726       3.187878       0.14135
  31     11.80        0.4847        0.0000        3.6320        3.6320       3.147279       0.11366
  30     15.07        0.4847        0.0000        3.6016        3.6016       3.116891       0.07846
  29     18.79        0.4848        0.0000        3.5777        3.5777       3.092988       0.05420
  28     23.16        0.4848        0.0000        3.5564        3.5564       3.071628       0.04130
  27     28.12        0.4848        0.0000        3.5348        3.5348       3.050075       0.03664
  26     33.73        0.4848        0.0000        3.5118        3.5118       3.027034       0.03464
  25     40.54        0.4848        0.0000        3.4849        3.4849       3.000136       0.03337
  24     48.69        0.4848        0.0000        3.4537        3.4537       2.968872       0.03235
  23     57.69        0.4848        0.0000        3.4210        3.4210       2.936185       0.03064
  22     68.43        0.4849        0.0000        3.3844        3.3844       2.899582       0.02877
  21     81.20        0.4849        0.0000        3.3441        3.3441       2.859263       0.02664
  20     96.49        0.4849        0.0000        3.2998        3.2998       2.814874       0.02450
  19     114.6        0.4850        0.0000        3.2506        3.2506       2.765694       0.02296
  18     136.5        0.4850        0.0000        3.1936        3.1936       2.708600       0.02195
  17     162.9        0.4851        0.0000        3.1181        3.1181       2.633019       0.02416
  16     196.4        0.4853        0.0000        3.0090        3.0090       2.523680       0.02752
  15     218.7        0.4854        0.0000        2.9420        2.9420       2.456564       0.02548
  14     243.0        0.4856        0.0000        2.8605        2.8605       2.374838       0.02835
  13     269.0        0.4860        0.0000        2.7419        2.7420       2.255979       0.03856
  12     297.5        0.4866        0.0000        2.5729        2.5729       2.086314       0.05032
  11     328.5        0.4875        0.0000        2.3602        2.3602       1.872703       0.05808
  10     361.9        0.4889        0.0000        2.1524        2.1524       1.663523       0.05292
   9     398.1        0.4909        0.0000        1.9974        1.9974       1.506507       0.03658
   8     437.6        0.4937        0.0000        1.8835        1.8835       1.389787       0.02496
   7     480.5        0.4978        0.0000        1.7734        1.7734       1.275682       0.02241
   6     533.0        0.5044        0.0000        1.6397        1.6398       1.135378       0.02257
   5     589.8        0.5139        0.0000        1.5068        1.5069       0.992966       0.02114
   4     651.6        0.5280        0.0000        1.3807        1.3807       0.852780       0.01917
   3     718.7        0.5467        0.0000        1.2680        1.2681       0.721348       0.01652
   2     792.3        0.5701        0.0000        1.1659        1.1660       0.595870       0.01439
   1     891.5        0.1331        0.4368        0.1876        0.6244       0.491272       0.00890
   0    1013.0        0.1468        0.3937        0.1577        0.5513       0.404538       0.00602

  Modules and versions used in this calculation:

       rrtmg_sw.1col.f90:  $Revision$                    rrtmg_sw_init.f90:  $Revision$        
     rrtmgsw_cldprop.f90:  $Revision$                  rrtmgsw_cldprmc.f90:  NOT USED          
     rrtmg_sw_reftra.f90:  $Revision$                  rrtmg_sw_spcvrt.f90:  NOT USED          
     rrtmg_sw_spcvmc.f90:  NOT USED                    rrtmgsw_setcoef.f90:  NOT USED          
     rrtmg_sw_taumol.f90:  $Revision$                  rrtmg_sw_vrtqdr.f90:  NOT USED          
                rrtatm.f:  NOT USED                             util_xxx.f:  NOT USED          
                 extra.f:  NOT USED                       rrtmg_sw_k_g.f90:  $Revision$        

