

 Wavenumbers:   820. - 50000. cm-1, ATM      1
 LEVEL PRESSURE   UPWARD FLUX   DIFDOWN FLUX  DIRDOWN FLUX  DOWNWARD FLUX   NET FLUX    HEATING RATE
          mb          W/m2          W/m2          W/m2        W/m2          W/m2       degree/day
  51    .06700      273.5933        0.0000      397.8738      397.8738     124.280442       0.00000
  50    .07753      273.5928        0.0012      397.8577      397.8589     124.266148      11.45664
  49    .09103      273.5920        0.0027      397.8418      397.8445     124.252456       8.55789
  48    0.1069      273.5912        0.0044      397.8230      397.8273     124.236103       8.70450
  47    0.1255      273.5903        0.0063      397.7997      397.8060     124.215655       9.27035
  46    0.1487      273.5892        0.0088      397.7676      397.7764     124.187189      10.37602
  45    0.1794      273.5878        0.0122      397.7205      397.7327     124.144885      11.61352
  44    0.2165      273.5861        0.0161      397.6602      397.6764     124.090221      12.43515
  43    0.2613      273.5843        0.0208      397.5829      397.6037     124.019403      13.34887
  42    0.3336      273.5814        0.0285      397.4449      397.4734     123.891926      14.86261
  41    0.4307      273.5780        0.0386      397.2524      397.2910     123.713000      15.55719
  40    0.5894      273.5729        0.0548      396.9253      396.9801     123.407177      16.26328
  39     1.339      273.5610        0.1274      395.4254      395.5527     121.991696      15.93574
  38     1.782      273.5620        0.1681      394.7288      394.8969     121.334828      12.50571
  37     2.292      273.5702        0.2145      394.0572      394.2716     120.701366      10.49178
  36     2.964      273.5915        0.2746      393.3007      393.5753     119.983837       9.00716
  35     3.853      273.6341        0.3533      392.4318      392.7851     119.151038       7.90342
  34     5.035      273.7051        0.4569      391.4441      391.9009     118.195862       6.82338
  33     6.613      273.8078        0.5940      390.3268      390.9208     117.112982       5.78908
  32     8.786      273.9404        0.7775      389.0624      389.8399     115.899515       4.71267
  31     11.80      274.1055        1.0380      387.5500      388.5880     114.482471       3.96728
  30     15.07      274.2539        1.3154      386.1556      387.4710     113.217061       3.26704
  29     18.79      274.3959        1.6264      384.7502      386.3765     111.980589       2.80346
  28     23.16      274.5322        1.9867      383.2686      385.2553     110.723073       2.43163
  27     28.12      274.6535        2.3954      381.7329      384.1283     109.474841       2.12191
  26     33.73      274.7385        2.8496      380.1982      383.0478     108.309244       1.75251
  25     40.54      274.7826        3.3944      378.5384      381.9327     107.150117       1.43803
  24     48.69      274.7796        4.0454      376.7214      380.7669     105.987263       1.20337
  23     57.69      274.7224        4.7540      374.8959      379.6499     104.927471       0.99340
  22     68.43      274.5966        5.5896      372.8999      378.4895     103.892912       0.81330
  21     81.20      274.3668        6.5747      370.7496      377.3243     102.957446       0.61814
  20     96.49      274.0210        7.7339      368.4056      376.1395     102.118459       0.46306
  19     114.6      273.5874        9.0885      365.7513      374.8398     101.252346       0.40441
  18     136.5      273.0579       10.6624      362.7231      373.3855     100.327597       0.35559
  17     162.9      272.4194       12.4931      359.1748      371.6679      99.248441       0.34494
  16     196.4      271.5627       14.8027      354.5718      369.3745      97.811841       0.36161
  15     218.7      270.9960       16.2809      351.4437      367.7246      96.728518       0.41130
  14     243.0      270.3859       17.8539      347.7111      365.5651      95.179156       0.53737
  13     269.0      269.7353       19.5203      342.9441      362.4644      92.729151       0.79477
  12     297.5      269.0483       21.2778      337.4137      358.6915      89.643192       0.91526
  11     328.5      268.3346       23.1285      331.1302      354.2587      85.924118       1.01121
  10     361.9      267.6045       25.0669      324.1219      349.1888      81.584268       1.09803
   9     398.1      266.8695       27.0927      316.6066      343.6993      76.829771       1.10769
   8     437.6      266.1524       29.2014      308.5895      337.7909      71.638491       1.10993
   7     480.5      265.4952       31.3875      299.9349      331.3224      65.827202       1.14132
   6     533.0      264.8684       33.9797      289.7021      323.6819      58.813478       1.12829
   5     589.8      264.4561       36.6588      279.3388      315.9976      51.541491       1.07940
   4     651.6      264.4037       39.4128      268.7786      308.1914      43.787681       1.06035
   3     718.7      264.8356       42.2331      258.2837      300.5168      35.681187       1.01876
   2     792.3      265.9152       45.1059      248.0774      293.1833      27.268081       0.96489
   1     891.5       46.9770       71.0480        0.0000       71.0480      24.071045       0.27205
   0    1013.0       46.9467       70.2626        0.0000       70.2626      23.315895       0.05243



 Wavenumbers:  2600. -  3250. cm-1, ATM      1
 LEVEL PRESSURE   UPWARD FLUX   DIFDOWN FLUX  DIRDOWN FLUX  DOWNWARD FLUX   NET FLUX    HEATING RATE
          mb          W/m2          W/m2          W/m2        W/m2          W/m2       degree/day
  51    .06700        1.1418        0.0000        3.5066        3.5066       2.364866       0.00000
  50    .07753        1.1418        0.0000        3.5066        3.5066       2.364858       0.00640
  49    .09103        1.1418        0.0000        3.5066        3.5066       2.364848       0.00627
  48    0.1069        1.1418        0.0000        3.5066        3.5066       2.364836       0.00613
  47    0.1255        1.1418        0.0000        3.5066        3.5066       2.364823       0.00599
  46    0.1487        1.1418        0.0000        3.5066        3.5066       2.364806       0.00607
  45    0.1794        1.1418        0.0000        3.5065        3.5065       2.364783       0.00624
  44    0.2165        1.1418        0.0000        3.5065        3.5065       2.364757       0.00611
  43    0.2613        1.1418        0.0000        3.5065        3.5065       2.364725       0.00598
  42    0.3336        1.1418        0.0000        3.5064        3.5064       2.364672       0.00615
  41    0.4307        1.1418        0.0000        3.5064        3.5064       2.364601       0.00618
  40    0.5894        1.1418        0.0000        3.5062        3.5062       2.364482       0.00633
  39     1.339        1.1418        0.0000        3.5055        3.5055       2.363783       0.00787
  38     1.782        1.1418        0.0000        3.5050        3.5050       2.363252       0.01011
  37     2.292        1.1418        0.0000        3.5043        3.5043       2.362560       0.01147
  36     2.964        1.1418        0.0000        3.5033        3.5033       2.361568       0.01245
  35     3.853        1.1418        0.0000        3.5019        3.5019       2.360191       0.01307
  34     5.035        1.1418        0.0000        3.5001        3.5001       2.358330       0.01329
  33     6.613        1.1418        0.0000        3.4977        3.4977       2.355920       0.01288
  32     8.786        1.1418        0.0000        3.4947        3.4947       2.352949       0.01154
  31     11.80        1.1418        0.0000        3.4911        3.4911       2.349313       0.01018
  30     15.07        1.1418        0.0000        3.4878        3.4878       2.346091       0.00832
  29     18.79        1.1418        0.0000        3.4848        3.4848       2.343026       0.00695
  28     23.16        1.1418        0.0000        3.4816        3.4816       2.339803       0.00623
  27     28.12        1.1418        0.0000        3.4779        3.4779       2.336182       0.00616
  26     33.73        1.1418        0.0000        3.4735        3.4735       2.331710       0.00672
  25     40.54        1.1418        0.0000        3.4671        3.4672       2.325376       0.00786
  24     48.69        1.1418        0.0000        3.4582        3.4583       2.316469       0.00922
  23     57.69        1.1418        0.0000        3.4472        3.4472       2.305404       0.01037
  22     68.43        1.1418        0.0000        3.4329        3.4330       2.291120       0.01123
  21     81.20        1.1419        0.0000        3.4152        3.4152       2.273356       0.01174
  20     96.49        1.1419        0.0000        3.3940        3.3941       2.252161       0.01170
  19     114.6        1.1420        0.0000        3.3692        3.3692       2.227200       0.01165
  18     136.5        1.1421        0.0001        3.3419        3.3420       2.199880       0.01051
  17     162.9        1.1423        0.0001        3.3129        3.3129       2.170650       0.00934
  16     196.4        1.1426        0.0001        3.2793        3.2794       2.136794       0.00852
  15     218.7        1.1429        0.0001        3.2578        3.2579       2.114903       0.00831
  14     243.0        1.1435        0.0001        3.2320        3.2321       2.088600       0.00912
  13     269.0        1.1443        0.0001        3.1968        3.1969       2.052650       0.01166
  12     297.5        1.1456        0.0001        3.1489        3.1491       2.003487       0.01458
  11     328.5        1.1475        0.0001        3.0821        3.0822       1.934661       0.01871
  10     361.9        1.1504        0.0001        2.9902        2.9904       1.839966       0.02396
   9     398.1        1.1546        0.0001        2.8715        2.8716       1.717055       0.02864
   8     437.6        1.1606        0.0002        2.7276        2.7278       1.567201       0.03204
   7     480.5        1.1697        0.0002        2.5595        2.5597       1.390000       0.03480
   6     533.0        1.1851        0.0002        2.3617        2.3619       1.176859       0.03429
   5     589.8        1.2077        0.0002        2.1649        2.1651       0.957371       0.03258
   4     651.6        1.2416        0.0002        1.9608        1.9609       0.719311       0.03256
   3     718.7        1.2904        0.0002        1.7593        1.7595       0.469079       0.03145
   2     792.3        1.3592        0.0002        1.5761        1.5762       0.217070       0.02890
   1     891.5        0.0091        0.1403        0.0000        0.1403       0.131209       0.00731
   0    1013.0        0.0099        0.1274        0.0000        0.1274       0.117584       0.00095



 Wavenumbers:  3250. -  4000. cm-1, ATM      1
 LEVEL PRESSURE   UPWARD FLUX   DIFDOWN FLUX  DIRDOWN FLUX  DOWNWARD FLUX   NET FLUX    HEATING RATE
          mb          W/m2          W/m2          W/m2        W/m2          W/m2       degree/day
  51    .06700        0.0103        0.0000        5.9117        5.9117       5.901362       0.00000
  50    .07753        0.0103        0.0000        5.9075        5.9075       5.897173       3.35808
  49    .09103        0.0103        0.0000        5.9050        5.9050       5.894730       1.52677
  48    0.1069        0.0103        0.0000        5.9032        5.9032       5.892864       0.99346
  47    0.1255        0.0103        0.0000        5.9014        5.9014       5.891105       0.79708
  46    0.1487        0.0103        0.0000        5.8995        5.8995       5.889217       0.68848
  45    0.1794        0.0103        0.0000        5.8974        5.8974       5.887068       0.58983
  44    0.2165        0.0103        0.0000        5.8952        5.8952       5.884951       0.48155
  43    0.2613        0.0103        0.0000        5.8931        5.8931       5.882792       0.40696
  42    0.3336        0.0103        0.0000        5.8899        5.8899       5.879634       0.36820
  41    0.4307        0.0103        0.0000        5.8861        5.8861       5.875797       0.33365
  40    0.5894        0.0103        0.0000        5.8803        5.8803       5.869994       0.30857
  39     1.339        0.0103        0.0000        5.8597        5.8597       5.849397       0.23189
  38     1.782        0.0103        0.0000        5.8513        5.8513       5.840972       0.16039
  37     2.292        0.0103        0.0000        5.8431        5.8431       5.832801       0.13533
  36     2.964        0.0103        0.0000        5.8334        5.8334       5.823162       0.12100
  35     3.853        0.0103        0.0000        5.8213        5.8213       5.810986       0.11555
  34     5.035        0.0103        0.0000        5.8052        5.8052       5.794891       0.11498
  33     6.613        0.0103        0.0000        5.7833        5.7834       5.773070       0.11666
  32     8.786        0.0103        0.0000        5.7531        5.7531       5.742868       0.11729
  31     11.80        0.0103        0.0000        5.7090        5.7090       5.698699       0.12366
  30     15.07        0.0103        0.0000        5.6615        5.6615       5.651235       0.12254
  29     18.79        0.0103        0.0000        5.6093        5.6094       5.599099       0.11821
  28     23.16        0.0103        0.0000        5.5524        5.5524       5.542173       0.11008
  27     28.12        0.0103        0.0000        5.4935        5.4935       5.483294       0.10009
  26     33.73        0.0102        0.0000        5.4348        5.4349       5.424605       0.08824
  25     40.54        0.0102        0.0001        5.3707        5.3708       5.360544       0.07948
  24     48.69        0.0102        0.0001        5.2985        5.2985       5.288311       0.07475
  23     57.69        0.0102        0.0001        5.2215        5.2216       5.211372       0.07212
  22     68.43        0.0102        0.0001        5.1318        5.1319       5.121712       0.07048
  21     81.20        0.0102        0.0001        5.0284        5.0285       5.018282       0.06834
  20     96.49        0.0102        0.0001        4.9122        4.9123       4.902148       0.06410
  19     114.6        0.0101        0.0001        4.7780        4.7782       4.768037       0.06262
  18     136.5        0.0101        0.0002        4.6285        4.6287       4.618559       0.05748
  17     162.9        0.0101        0.0002        4.4406        4.4407       4.430646       0.06006
  16     196.4        0.0101        0.0002        4.1548        4.1550       4.144971       0.07191
  15     218.7        0.0100        0.0002        3.9564        3.9566       3.946588       0.07532
  14     243.0        0.0100        0.0002        3.7055        3.7058       3.695748       0.08700
  13     269.0        0.0100        0.0002        3.3399        3.3401       3.330096       0.11862
  12     297.5        0.0100        0.0002        2.8954        2.8956       2.885578       0.13184
  11     328.5        0.0101        0.0002        2.4388        2.4390       2.428980       0.12415
  10     361.9        0.0102        0.0002        2.0269        2.0271       2.016936       0.10425
   9     398.1        0.0103        0.0002        1.6753        1.6755       1.665165       0.08195
   8     437.6        0.0106        0.0002        1.3592        1.3594       1.348726       0.06766
   7     480.5        0.0112        0.0002        1.0616        1.0618       1.050563       0.05856
   6     533.0        0.0124        0.0001        0.7543        0.7544       0.742033       0.04963
   5     589.8        0.0146        0.0001        0.4951        0.4952       0.480637       0.03880
   4     651.6        0.0189        0.0001        0.2943        0.2943       0.275447       0.02806
   3     718.7        0.0274        0.0001        0.1528        0.1529       0.125504       0.01884
   2     792.3        0.0447        0.0000        0.0658        0.0658       0.021153       0.01197
   1     891.5        0.0000        0.0011        0.0000        0.0011       0.001114       0.00171
   0    1013.0        0.0000        0.0003        0.0000        0.0003       0.000251       0.00006



 Wavenumbers:  4000. -  4650. cm-1, ATM      1
 LEVEL PRESSURE   UPWARD FLUX   DIFDOWN FLUX  DIRDOWN FLUX  DOWNWARD FLUX   NET FLUX    HEATING RATE
          mb          W/m2          W/m2          W/m2        W/m2          W/m2       degree/day
  51    .06700        4.0430        0.0000        6.9421        6.9421       2.899112       0.00000
  50    .07753        4.0430        0.0000        6.9421        6.9421       2.899111       0.00079
  49    .09103        4.0430        0.0000        6.9421        6.9421       2.899110       0.00078
  48    0.1069        4.0430        0.0000        6.9421        6.9421       2.899109       0.00076
  47    0.1255        4.0430        0.0000        6.9421        6.9421       2.899107       0.00074
  46    0.1487        4.0430        0.0000        6.9421        6.9421       2.899105       0.00075
  45    0.1794        4.0430        0.0000        6.9421        6.9421       2.899102       0.00077
  44    0.2165        4.0430        0.0000        6.9421        6.9421       2.899099       0.00076
  43    0.2613        4.0430        0.0000        6.9420        6.9420       2.899095       0.00074
  42    0.3336        4.0430        0.0000        6.9420        6.9420       2.899088       0.00076
  41    0.4307        4.0430        0.0000        6.9420        6.9420       2.899080       0.00077
  40    0.5894        4.0430        0.0000        6.9420        6.9420       2.899065       0.00079
  39     1.339        4.0430        0.0000        6.9419        6.9419       2.898976       0.00100
  38     1.782        4.0430        0.0000        6.9418        6.9419       2.898906       0.00132
  37     2.292        4.0429        0.0000        6.9418        6.9418       2.898813       0.00155
  36     2.964        4.0429        0.0000        6.9416        6.9416       2.898673       0.00175
  35     3.853        4.0429        0.0000        6.9414        6.9414       2.898467       0.00196
  34     5.035        4.0429        0.0000        6.9411        6.9411       2.898162       0.00218
  33     6.613        4.0429        0.0000        6.9406        6.9407       2.897714       0.00240
  32     8.786        4.0429        0.0000        6.9399        6.9400       2.897053       0.00257
  31     11.80        4.0429        0.0001        6.9389        6.9389       2.896016       0.00290
  30     15.07        4.0429        0.0001        6.9377        6.9377       2.894804       0.00313
  29     18.79        4.0429        0.0001        6.9362        6.9363       2.893342       0.00331
  28     23.16        4.0429        0.0001        6.9343        6.9344       2.891533       0.00350
  27     28.12        4.0429        0.0001        6.9321        6.9323       2.889351       0.00371
  26     33.73        4.0429        0.0001        6.9294        6.9296       2.886673       0.00403
  25     40.54        4.0429        0.0002        6.9258        6.9260       2.883059       0.00448
  24     48.69        4.0429        0.0002        6.9210        6.9212       2.878272       0.00495
  23     57.69        4.0430        0.0003        6.9154        6.9156       2.872633       0.00529
  22     68.43        4.0430        0.0003        6.9083        6.9086       2.865615       0.00552
  21     81.20        4.0431        0.0004        6.8998        6.9001       2.857021       0.00568
  20     96.49        4.0432        0.0004        6.8894        6.8899       2.846622       0.00574
  19     114.6        4.0435        0.0005        6.8765        6.8770       2.833574       0.00609
  18     136.5        4.0438        0.0006        6.8610        6.8616       2.817791       0.00607
  17     162.9        4.0443        0.0007        6.8417        6.8424       2.798086       0.00630
  16     196.4        4.0452        0.0009        6.8147        6.8155       2.770323       0.00699
  15     218.7        4.0460        0.0010        6.7948        6.7958       2.749790       0.00780
  14     243.0        4.0472        0.0011        6.7698        6.7708       2.723652       0.00907
  13     269.0        4.0491        0.0012        6.7349        6.7360       2.686947       0.01191
  12     297.5        4.0519        0.0013        6.6869        6.6881       2.636240       0.01504
  11     328.5        4.0559        0.0014        6.6194        6.6208       2.564863       0.01941
  10     361.9        4.0612        0.0015        6.5295        6.5310       2.469768       0.02406
   9     398.1        4.0683        0.0017        6.4202        6.4219       2.353630       0.02706
   8     437.6        4.0777        0.0018        6.2962        6.2980       2.220295       0.02851
   7     480.5        4.0909        0.0020        6.1555        6.1575       2.066594       0.03019
   6     533.0        4.1125        0.0021        5.9675        5.9697       1.857157       0.03369
   5     589.8        4.1445        0.0023        5.7368        5.7391       1.594555       0.03898
   4     651.6        4.1924        0.0025        5.4662        5.4687       1.276263       0.04353
   3     718.7        4.2612        0.0026        5.1912        5.1938       0.932582       0.04319
   2     792.3        4.3571        0.0028        4.9395        4.9423       0.585181       0.03984
   1     891.5        0.0247        0.4864        0.0000        0.4864       0.461717       0.01051
   0    1013.0        0.0256        0.4665        0.0000        0.4665       0.440941       0.00144



 Wavenumbers:  4650. -  5150. cm-1, ATM      1
 LEVEL PRESSURE   UPWARD FLUX   DIFDOWN FLUX  DIRDOWN FLUX  DOWNWARD FLUX   NET FLUX    HEATING RATE
          mb          W/m2          W/m2          W/m2        W/m2          W/m2       degree/day
  51    .06700        2.8375        0.0000        6.5710        6.5710       3.733506       0.00000
  50    .07753        2.8375        0.0000        6.5708        6.5708       3.733270       0.18887
  49    .09103        2.8375        0.0000        6.5705        6.5705       3.732977       0.18362
  48    0.1069        2.8375        0.0000        6.5701        6.5701       3.732642       0.17806
  47    0.1255        2.8375        0.0000        6.5697        6.5697       3.732262       0.17238
  46    0.1487        2.8375        0.0000        6.5693        6.5693       3.731788       0.17268
  45    0.1794        2.8375        0.0000        6.5686        6.5686       3.731152       0.17474
  44    0.2165        2.8375        0.0000        6.5679        6.5679       3.730414       0.16788
  43    0.2613        2.8375        0.0000        6.5670        6.5670       3.729561       0.16078
  42    0.3336        2.8375        0.0000        6.5657        6.5657       3.728198       0.15894
  41    0.4307        2.8375        0.0000        6.5640        6.5640       3.726476       0.14971
  40    0.5894        2.8375        0.0000        6.5613        6.5613       3.723859       0.13913
  39     1.339        2.8375        0.0000        6.5516        6.5516       3.714081       0.11008
  38     1.782        2.8375        0.0000        6.5473        6.5473       3.709865       0.08027
  37     2.292        2.8375        0.0000        6.5434        6.5435       3.705978       0.06439
  36     2.964        2.8375        0.0000        6.5395        6.5395       3.702023       0.04965
  35     3.853        2.8375        0.0000        6.5355        6.5356       3.698079       0.03743
  34     5.035        2.8375        0.0000        6.5315        6.5315       3.694074       0.02861
  33     6.613        2.8375        0.0000        6.5271        6.5271       3.689676       0.02351
  32     8.786        2.8375        0.0001        6.5216        6.5216       3.684175       0.02137
  31     11.80        2.8375        0.0001        6.5135        6.5136       3.676085       0.02265
  30     15.07        2.8375        0.0001        6.5041        6.5042       3.666700       0.02423
  29     18.79        2.8375        0.0001        6.4925        6.4926       3.655162       0.02616
  28     23.16        2.8375        0.0001        6.4779        6.4780       3.640539       0.02828
  27     28.12        2.8375        0.0002        6.4599        6.4601       3.622521       0.03063
  26     33.73        2.8376        0.0002        6.4384        6.4386       3.601033       0.03231
  25     40.54        2.8377        0.0003        6.4112        6.4115       3.573828       0.03375
  24     48.69        2.8378        0.0003        6.3775        6.3778       3.540079       0.03493
  23     57.69        2.8379        0.0004        6.3404        6.3407       3.502844       0.03490
  22     68.43        2.8381        0.0004        6.2971        6.2976       3.459457       0.03411
  21     81.20        2.8384        0.0005        6.2483        6.2488       3.410370       0.03244
  20     96.49        2.8388        0.0006        6.1948        6.1954       3.356626       0.02966
  19     114.6        2.8394        0.0007        6.1381        6.1389       3.299478       0.02668
  18     136.5        2.8402        0.0008        6.0790        6.0798       3.239664       0.02300
  17     162.9        2.8413        0.0010        6.0160        6.0170       3.175724       0.02044
  16     196.4        2.8431        0.0012        5.9399        5.9411       3.097966       0.01957
  15     218.7        2.8445        0.0013        5.8896        5.8910       3.046435       0.01956
  14     243.0        2.8464        0.0015        5.8322        5.8336       2.987255       0.02053
  13     269.0        2.8490        0.0016        5.7624        5.7640       2.914956       0.02345
  12     297.5        2.8528        0.0017        5.6767        5.6785       2.825665       0.02648
  11     328.5        2.8580        0.0019        5.5726        5.5745       2.716546       0.02967
  10     361.9        2.8649        0.0021        5.4473        5.4494       2.584495       0.03341
   9     398.1        2.8742        0.0022        5.2995        5.3017       2.427498       0.03658
   8     437.6        2.8867        0.0024        5.1275        5.1299       2.243137       0.03942
   7     480.5        2.9038        0.0026        4.9290        4.9315       2.027706       0.04231
   6     533.0        2.9309        0.0028        4.6794        4.6821       1.751205       0.04448
   5     589.8        2.9689        0.0029        4.4188        4.4217       1.452777       0.04430
   4     651.6        3.0231        0.0031        4.1521        4.1552       1.132123       0.04385
   3     718.7        3.0972        0.0033        3.8929        3.8962       0.798981       0.04187
   2     792.3        3.1971        0.0034        3.6469        3.6503       0.453185       0.03966
   1     891.5        0.0177        0.3473        0.0000        0.3473       0.329533       0.01052
   0    1013.0        0.0186        0.3286        0.0000        0.3286       0.309979       0.00136



 Wavenumbers:  5150. -  6150. cm-1, ATM      1
 LEVEL PRESSURE   UPWARD FLUX   DIFDOWN FLUX  DIRDOWN FLUX  DOWNWARD FLUX   NET FLUX    HEATING RATE
          mb          W/m2          W/m2          W/m2        W/m2          W/m2       degree/day
  51    .06700        6.9922        0.0000       16.4735       16.4735       9.481328       0.00000
  50    .07753        6.9922        0.0000       16.4735       16.4735       9.481293       0.02764
  49    .09103        6.9922        0.0000       16.4734       16.4734       9.481248       0.02814
  48    0.1069        6.9922        0.0000       16.4734       16.4734       9.481194       0.02862
  47    0.1255        6.9922        0.0000       16.4733       16.4733       9.481130       0.02907
  46    0.1487        6.9922        0.0000       16.4732       16.4732       9.481046       0.03063
  45    0.1794        6.9922        0.0000       16.4731       16.4731       9.480927       0.03272
  44    0.2165        6.9922        0.0000       16.4730       16.4730       9.480780       0.03334
  43    0.2613        6.9922        0.0000       16.4728       16.4728       9.480601       0.03379
  42    0.3336        6.9922        0.0000       16.4725       16.4725       9.480295       0.03567
  41    0.4307        6.9922        0.0000       16.4720       16.4720       9.479876       0.03648
  40    0.5894        6.9922        0.0000       16.4713       16.4713       9.479174       0.03732
  39     1.339        6.9922        0.0000       16.4679       16.4679       9.475761       0.03842
  38     1.782        6.9922        0.0001       16.4659       16.4659       9.473759       0.03812
  37     2.292        6.9922        0.0001       16.4635       16.4636       9.471464       0.03802
  36     2.964        6.9921        0.0001       16.4605       16.4606       9.468489       0.03735
  35     3.853        6.9921        0.0001       16.4567       16.4568       9.464627       0.03665
  34     5.035        6.9921        0.0001       16.4516       16.4517       9.459617       0.03579
  33     6.613        6.9921        0.0002       16.4451       16.4453       9.453138       0.03464
  32     8.786        6.9921        0.0003       16.4367       16.4369       9.444799       0.03239
  31     11.80        6.9921        0.0003       16.4254       16.4257       9.433605       0.03134
  30     15.07        6.9921        0.0004       16.4141       16.4146       9.422467       0.02876
  29     18.79        6.9921        0.0006       16.4024       16.4030       9.410884       0.02626
  28     23.16        6.9921        0.0007       16.3900       16.3907       9.398546       0.02386
  27     28.12        6.9921        0.0008       16.3771       16.3779       9.385788       0.02169
  26     33.73        6.9922        0.0010       16.3641       16.3651       9.372945       0.01931
  25     40.54        6.9922        0.0012       16.3502       16.3514       9.359146       0.01712
  24     48.69        6.9923        0.0014       16.3354       16.3368       9.344458       0.01520
  23     57.69        6.9925        0.0017       16.3211       16.3228       9.330302       0.01327
  22     68.43        6.9927        0.0020       16.3062       16.3082       9.315588       0.01157
  21     81.20        6.9929        0.0024       16.2903       16.2927       9.299789       0.01044
  20     96.49        6.9932        0.0028       16.2726       16.2754       9.282214       0.00970
  19     114.6        6.9936        0.0033       16.2521       16.2554       9.261786       0.00954
  18     136.5        6.9941        0.0040       16.2245       16.2285       9.234369       0.01054
  17     162.9        6.9948        0.0047       16.1747       16.1794       9.184644       0.01589
  16     196.4        6.9958        0.0057       16.0518       16.0575       9.061739       0.03094
  15     218.7        6.9965        0.0063       15.8984       15.9046       8.908182       0.05830
  14     243.0        6.9973        0.0069       15.6153       15.6221       8.624794       0.09829
  13     269.0        6.9986        0.0075       15.1390       15.1465       8.147878       0.15471
  12     297.5        7.0004        0.0080       14.5779       14.5859       7.585561       0.16678
  11     328.5        7.0030        0.0086       13.8780       13.8866       6.883592       0.19086
  10     361.9        7.0069        0.0091       13.0814       13.0905       6.083603       0.20241
   9     398.1        7.0126        0.0096       12.2728       12.2824       5.269791       0.18960
   8     437.6        7.0210        0.0100       11.4776       11.4876       4.466549       0.17174
   7     480.5        7.0339        0.0104       10.7300       10.7404       3.706413       0.14929
   6     533.0        7.0571        0.0109       10.0326       10.0435       2.986387       0.11583
   5     589.8        7.0941        0.0115        9.5050        9.5165       2.422422       0.08371
   4     651.6        7.1539        0.0122        9.0814        9.0936       1.939682       0.06602
   3     718.7        7.2461        0.0131        8.7024        8.7155       1.469437       0.05910
   2     792.3        7.3827        0.0140        8.3379        8.3519       0.969170       0.05738
   1     891.5        0.0478        0.8393        0.0000        0.8393       0.791523       0.01512
   0    1013.0        0.0488        0.8137        0.0000        0.8137       0.764918       0.00185



 Wavenumbers:  6150. -  7700. cm-1, ATM      1
 LEVEL PRESSURE   UPWARD FLUX   DIFDOWN FLUX  DIRDOWN FLUX  DOWNWARD FLUX   NET FLUX    HEATING RATE
          mb          W/m2          W/m2          W/m2        W/m2          W/m2       degree/day
  51    .06700       10.9264        0.0000       30.4684       30.4684      19.541991       0.00000
  50    .07753       10.9264        0.0000       30.4683       30.4683      19.541939       0.04144
  49    .09103       10.9264        0.0000       30.4683       30.4683      19.541873       0.04174
  48    0.1069       10.9264        0.0000       30.4682       30.4682      19.541794       0.04202
  47    0.1255       10.9264        0.0000       30.4681       30.4681      19.541701       0.04227
  46    0.1487       10.9264        0.0000       30.4680       30.4680      19.541580       0.04411
  45    0.1794       10.9264        0.0000       30.4678       30.4678      19.541409       0.04669
  44    0.2165       10.9264        0.0000       30.4676       30.4676      19.541202       0.04715
  43    0.2613       10.9264        0.0000       30.4673       30.4673      19.540951       0.04744
  42    0.3336       10.9264        0.0000       30.4669       30.4669      19.540524       0.04974
  41    0.4307       10.9264        0.0000       30.4663       30.4663      19.539943       0.05052
  40    0.5894       10.9263        0.0001       30.4653       30.4653      19.538975       0.05146
  39     1.339       10.9263        0.0002       30.4604       30.4606      19.534291       0.05273
  38     1.782       10.9262        0.0002       30.4576       30.4578      19.531542       0.05235
  37     2.292       10.9262        0.0003       30.4543       30.4546      19.528383       0.05231
  36     2.964       10.9261        0.0004       30.4501       30.4504      19.524276       0.05156
  35     3.853       10.9261        0.0005       30.4445       30.4450      19.518919       0.05084
  34     5.035       10.9260        0.0006       30.4373       30.4379      19.511919       0.05000
  33     6.613       10.9258        0.0008       30.4278       30.4286      19.502771       0.04890
  32     8.786       10.9256        0.0011       30.4154       30.4164      19.490818       0.04642
  31     11.80       10.9254        0.0014       30.3984       30.3998      19.474432       0.04588
  30     15.07       10.9251        0.0018       30.3810       30.3828      19.457718       0.04315
  29     18.79       10.9248        0.0023       30.3623       30.3646      19.439817       0.04059
  28     23.16       10.9244        0.0028       30.3417       30.3445      19.420132       0.03806
  27     28.12       10.9239        0.0034       30.3196       30.3230      19.399031       0.03587
  26     33.73       10.9235        0.0041       30.2965       30.3006      19.377110       0.03296
  25     40.54       10.9229        0.0049       30.2708       30.2756      19.352769       0.03020
  24     48.69       10.9222        0.0059       30.2423       30.2482      19.325989       0.02771
  23     57.69       10.9214        0.0069       30.2139       30.2208      19.299417       0.02491
  22     68.43       10.9205        0.0082       30.1834       30.1916      19.271135       0.02223
  21     81.20       10.9194        0.0098       30.1500       30.1598      19.240396       0.02031
  20     96.49       10.9181        0.0116       30.1126       30.1242      19.206164       0.01889
  19     114.6       10.9165        0.0138       30.0695       30.0833      19.166757       0.01840
  18     136.5       10.9147        0.0163       30.0139       30.0303      19.115568       0.01968
  17     162.9       10.9126        0.0194       29.9225       29.9419      19.029319       0.02757
  16     196.4       10.9099        0.0233       29.7333       29.7567      18.846769       0.04595
  15     218.7       10.9082        0.0259       29.5259       29.5517      18.643463       0.07719
  14     243.0       10.9067        0.0285       29.1375       29.1660      18.259300       0.13324
  13     269.0       10.9055        0.0310       28.3800       28.4111      17.505534       0.24452
  12     297.5       10.9053        0.0335       27.3895       27.4230      16.517754       0.29296
  11     328.5       10.9067        0.0358       26.2257       26.2616      15.354859       0.31619
  10     361.9       10.9109        0.0381       24.8453       24.8834      13.972536       0.34974
   9     398.1       10.9192        0.0400       23.3471       23.3871      12.467892       0.35055
   8     437.6       10.9344        0.0418       21.7966       21.8384      10.904033       0.33436
   7     480.5       10.9616        0.0433       20.1977       20.2410       9.279391       0.31907
   6     533.0       11.0147        0.0449       18.4969       18.5418       7.527102       0.28189
   5     589.8       11.1034        0.0465       16.9754       17.0219       5.918491       0.23877
   4     651.6       11.2504        0.0482       15.6022       15.6503       4.399953       0.20766
   3     718.7       11.4785        0.0500       14.4232       14.4732       2.994677       0.17660
   2     792.3       11.8198        0.0521       13.4386       13.4907       1.670881       0.15182
   1     891.5        0.0761        1.3050        0.0000        1.3050       1.228932       0.03761
   0    1013.0        0.0790        1.2405        0.0000        1.2405       1.161452       0.00469



 Wavenumbers:  7700. -  8050. cm-1, ATM      1
 LEVEL PRESSURE   UPWARD FLUX   DIFDOWN FLUX  DIRDOWN FLUX  DOWNWARD FLUX   NET FLUX    HEATING RATE
          mb          W/m2          W/m2          W/m2        W/m2          W/m2       degree/day
  51    .06700        5.1851        0.0000        7.2006        7.2006       2.015522       0.00000
  50    .07753        5.1851        0.0000        7.2006        7.2006       2.015501       0.01698
  49    .09103        5.1851        0.0000        7.2005        7.2005       2.015474       0.01664
  48    0.1069        5.1851        0.0000        7.2005        7.2005       2.015444       0.01629
  47    0.1255        5.1851        0.0000        7.2005        7.2005       2.015408       0.01594
  46    0.1487        5.1851        0.0000        7.2004        7.2005       2.015364       0.01618
  45    0.1794        5.1851        0.0000        7.2004        7.2004       2.015303       0.01665
  44    0.2165        5.1851        0.0000        7.2003        7.2003       2.015232       0.01633
  43    0.2613        5.1851        0.0000        7.2003        7.2003       2.015147       0.01602
  42    0.3336        5.1851        0.0000        7.2001        7.2001       2.015006       0.01639
  41    0.4307        5.1852        0.0000        7.2000        7.2000       2.014820       0.01621
  40    0.5894        5.1852        0.0000        7.1997        7.1997       2.014515       0.01620
  39     1.339        5.1854        0.0001        7.1984        7.1985       2.013074       0.01622
  38     1.782        5.1856        0.0001        7.1977        7.1978       2.012229       0.01611
  37     2.292        5.1857        0.0001        7.1968        7.1970       2.011250       0.01621
  36     2.964        5.1859        0.0002        7.1957        7.1959       2.009964       0.01613
  35     3.853        5.1861        0.0002        7.1942        7.1944       2.008268       0.01610
  34     5.035        5.1865        0.0003        7.1922        7.1925       2.006014       0.01610
  33     6.613        5.1869        0.0004        7.1896        7.1899       2.003007       0.01608
  32     8.786        5.1875        0.0005        7.1860        7.1865       1.998959       0.01572
  31     11.80        5.1884        0.0006        7.1810        7.1816       1.993178       0.01618
  30     15.07        5.1894        0.0008        7.1755        7.1764       1.986986       0.01599
  29     18.79        5.1904        0.0010        7.1694        7.1704       1.980008       0.01582
  28     23.16        5.1917        0.0012        7.1623        7.1636       1.971883       0.01571
  27     28.12        5.1931        0.0015        7.1542        7.1557       1.962624       0.01574
  26     33.73        5.1947        0.0018        7.1452        7.1470       1.952306       0.01551
  25     40.54        5.1967        0.0021        7.1344        7.1366       1.939901       0.01539
  24     48.69        5.1991        0.0026        7.1215        7.1241       1.925034       0.01538
  23     57.69        5.2017        0.0031        7.1074        7.1105       1.908816       0.01520
  22     68.43        5.2048        0.0036        7.0909        7.0945       1.889652       0.01507
  21     81.20        5.2086        0.0043        7.0713        7.0756       1.867033       0.01495
  20     96.49        5.2131        0.0051        7.0484        7.0535       1.840374       0.01471
  19     114.6        5.2186        0.0060        7.0217        7.0277       1.809122       0.01459
  18     136.5        5.2251        0.0071        6.9906        6.9977       1.772618       0.01404
  17     162.9        5.2330        0.0085        6.9544        6.9629       1.729859       0.01367
  16     196.4        5.2434        0.0102        6.9087        6.9189       1.675494       0.01368
  15     218.7        5.2504        0.0113        6.8794        6.8907       1.640340       0.01335
  14     243.0        5.2581        0.0125        6.8481        6.8606       1.602560       0.01310
  13     269.0        5.2666        0.0138        6.8147        6.8286       1.561976       0.01317
  12     297.5        5.2760        0.0153        6.7791        6.7943       1.518330       0.01294
  11     328.5        5.2865        0.0168        6.7409        6.7577       1.471221       0.01281
  10     361.9        5.2983        0.0184        6.7002        6.7186       1.420294       0.01288
   9     398.1        5.3116        0.0202        6.6563        6.6765       1.364898       0.01291
   8     437.6        5.3266        0.0221        6.6089        6.6309       1.304324       0.01295
   7     480.5        5.3439        0.0241        6.5570        6.5811       1.237147       0.01319
   6     533.0        5.3671        0.0266        6.4915        6.5180       1.150906       0.01387
   5     589.8        5.3948        0.0292        6.4182        6.4475       1.052695       0.01458
   4     651.6        5.4279        0.0320        6.3359        6.3679       0.939982       0.01541
   3     718.7        5.4675        0.0350        6.2441        6.2792       0.811661       0.01613
   2     792.3        5.5140        0.0382        6.1437        6.1819       0.667936       0.01648
   1     891.5        0.0456        0.6538        0.0000        0.6538       0.608206       0.00508
   0    1013.0        0.0461        0.6427        0.0000        0.6427       0.596544       0.00081



 Wavenumbers:  8050. - 12850. cm-1, ATM      1
 LEVEL PRESSURE   UPWARD FLUX   DIFDOWN FLUX  DIRDOWN FLUX  DOWNWARD FLUX   NET FLUX    HEATING RATE
          mb          W/m2          W/m2          W/m2        W/m2          W/m2       degree/day
  51    .06700       67.5377        0.0000      100.8135      100.8135      33.275771       0.00000
  50    .07753       67.5377        0.0000      100.8135      100.8135      33.275771       0.00000
  49    .09103       67.5377        0.0001      100.8134      100.8135      33.275771       0.00000
  48    0.1069       67.5377        0.0001      100.8134      100.8135      33.275771      -0.00000
  47    0.1255       67.5377        0.0002      100.8133      100.8134      33.275771       0.00000
  46    0.1487       67.5376        0.0002      100.8132      100.8134      33.275771      -0.00000
  45    0.1794       67.5376        0.0003      100.8131      100.8134      33.275771       0.00000
  44    0.2165       67.5375        0.0004      100.8129      100.8133      33.275771      -0.00000
  43    0.2613       67.5375        0.0005      100.8127      100.8133      33.275771      -0.00000
  42    0.3336       67.5374        0.0007      100.8125      100.8132      33.275771       0.00000
  41    0.4307       67.5372        0.0009      100.8121      100.8130      33.275771      -0.00000
  40    0.5894       67.5370        0.0014      100.8115      100.8128      33.275771      -0.00000
  39     1.339       67.5360        0.0033      100.8085      100.8118      33.275771       0.00000
  38     1.782       67.5354        0.0044      100.8068      100.8112      33.275771       0.00000
  37     2.292       67.5347        0.0058      100.8047      100.8105      33.275771       0.00000
  36     2.964       67.5338        0.0075      100.8021      100.8096      33.275771      -0.00000
  35     3.853       67.5326        0.0098      100.7986      100.8084      33.275771       0.00000
  34     5.035       67.5310        0.0128      100.7940      100.8068      33.275771      -0.00000
  33     6.613       67.5289        0.0169      100.7878      100.8047      33.275771       0.00000
  32     8.786       67.5260        0.0224      100.7794      100.8018      33.275771       0.00000
  31     11.80       67.5219        0.0303      100.7674      100.7977      33.275771       0.00000
  30     15.07       67.5175        0.0387      100.7546      100.7933      33.275771      -0.00000
  29     18.79       67.5125        0.0483      100.7400      100.7883      33.275771       0.00000
  28     23.16       67.5066        0.0594      100.7230      100.7824      33.275771       0.00000
  27     28.12       67.5000        0.0722      100.7035      100.7757      33.275771       0.00000
  26     33.73       67.4924        0.0866      100.6817      100.7682      33.275771      -0.00000
  25     40.54       67.4834        0.1039      100.6552      100.7591      33.275771      -0.00000
  24     48.69       67.4724        0.1248      100.6234      100.7482      33.275771       0.00000
  23     57.69       67.4604        0.1479      100.5883      100.7361      33.275771      -0.00000
  22     68.43       67.4460        0.1753      100.5464      100.7218      33.275771       0.00000
  21     81.20       67.4288        0.2081      100.4965      100.7046      33.275771      -0.00000
  20     96.49       67.4084        0.2472      100.4370      100.6841      33.275771      -0.00000
  19     114.6       67.3842        0.2937      100.3585      100.6522      33.267955       0.00365
  18     136.5       67.3555        0.3489      100.2634      100.6123      33.256717       0.00432
  17     162.9       67.3215        0.4148      100.1407      100.5554      33.233966       0.00727
  16     196.4       67.2774        0.5003       99.9505      100.4508      33.173416       0.01524
  15     218.7       67.2486        0.5565       99.7889      100.3455      33.096923       0.02904
  14     243.0       67.2178        0.6176       99.5472      100.1648      32.947023       0.05199
  13     269.0       67.1864        0.6835       99.1452       99.8287      32.642320       0.09884
  12     297.5       67.1561        0.7542       98.5975       99.3517      32.195621       0.13249
  11     328.5       67.1296        0.8301       97.8659       98.6959      31.566305       0.17111
  10     361.9       67.1114        0.9108       96.8848       97.7956      30.684252       0.22317
   9     398.1       67.1069        0.9963       95.6330       96.6293      29.522322       0.27070
   8     437.6       67.1269        1.0860       94.0655       95.1515      28.024596       0.32022
   7     480.5       67.1920        1.1791       92.0807       93.2599      26.067925       0.38428
   6     533.0       67.3471        1.2896       89.4449       90.7345      23.387405       0.43121
   5     589.8       67.6293        1.4042       86.5544       87.9586      20.329312       0.45392
   4     651.6       68.1121        1.5224       83.4174       84.9398      16.827687       0.47886
   3     718.7       68.8586        1.6451       80.2037       81.8488      12.990123       0.48228
   2     792.3       69.9470        1.7729       77.0811       78.8540       8.906911       0.46830
   1     891.5        1.8715        9.2365        0.0000        9.2365       7.365018       0.13121
   0    1013.0        1.9115        8.9576        0.0000        8.9576       7.046025       0.02215



 Wavenumbers: 12850. - 16000. cm-1, ATM      1
 LEVEL PRESSURE   UPWARD FLUX   DIFDOWN FLUX  DIRDOWN FLUX  DOWNWARD FLUX   NET FLUX    HEATING RATE
          mb          W/m2          W/m2          W/m2        W/m2          W/m2       degree/day
  51    .06700       48.9402        0.0000       63.1686       63.1686      14.228344       0.00000
  50    .07753       48.9402        0.0001       63.1677       63.1678      14.227561       0.62763
  49    .09103       48.9402        0.0001       63.1666       63.1668      14.226584       0.61041
  48    0.1069       48.9402        0.0002       63.1654       63.1656      14.225471       0.59246
  47    0.1255       48.9401        0.0003       63.1640       63.1644      14.224204       0.57451
  46    0.1487       48.9401        0.0005       63.1623       63.1627      14.222622       0.57684
  45    0.1794       48.9401        0.0006       63.1600       63.1606      14.220497       0.58337
  44    0.2165       48.9401        0.0008       63.1573       63.1581      14.218035       0.55996
  43    0.2613       48.9401        0.0011       63.1542       63.1553      14.215190       0.53627
  42    0.3336       48.9401        0.0015       63.1493       63.1508      14.210645       0.52985
  41    0.4307       48.9402        0.0020       63.1431       63.1452      14.204943       0.49578
  40    0.5894       48.9405        0.0029       63.1338       63.1367      14.196264       0.46158
  39     1.339       48.9435        0.0071       63.0956       63.1027      14.159156       0.41776
  38     1.782       48.9466        0.0095       63.0740       63.0836      14.136922       0.42330
  37     2.292       48.9515        0.0124       63.0477       63.0600      14.108498       0.47078
  36     2.964       48.9599        0.0161       63.0095       63.0256      14.065710       0.53712
  35     3.853       48.9737        0.0210       62.9533       62.9743      14.000561       0.61827
  34     5.035       48.9947        0.0275       62.8725       62.9000      13.905318       0.68038
  33     6.613       49.0241        0.0362       62.7621       62.7983      13.774136       0.70130
  32     8.786       49.0624        0.0479       62.6182       62.6662      13.603788       0.66157
  31     11.80       49.1117        0.0646       62.4284       62.4930      13.381226       0.62310
  30     15.07       49.1586        0.0825       62.2426       62.3251      13.166547       0.55426
  29     18.79       49.2059        0.1027       62.0493       62.1520      12.946086       0.49985
  28     23.16       49.2547        0.1262       61.8424       61.9686      12.713894       0.44898
  27     28.12       49.3031        0.1530       61.6278       61.7808      12.477722       0.40148
  26     33.73       49.3465        0.1830       61.4177       61.6007      12.254151       0.33615
  25     40.54       49.3865        0.2192       61.1983       61.4175      12.030919       0.27694
  24     48.69       49.4227        0.2627       60.9680       61.2307      11.807950       0.23074
  23     57.69       49.4508        0.3105       60.7478       61.0583      11.607452       0.18794
  22     68.43       49.4717        0.3674       60.5202       60.8876      11.415874       0.15061
  21     81.20       49.4792        0.4351       60.2938       60.7290      11.249739       0.10978
  20     96.49       49.4722        0.5158       60.0643       60.5801      11.107929       0.07827
  19     114.6       49.4633        0.6123       59.8078       60.4201      10.956837       0.07055
  18     136.5       49.4458        0.7265       59.5157       60.2423      10.796449       0.06167
  17     162.9       49.4187        0.8622       59.1770       60.0393      10.620572       0.05622
  16     196.4       49.3701        1.0378       58.7604       59.7983      10.428150       0.04843
  15     218.7       49.3335        1.1529       58.4948       59.6477      10.314238       0.04325
  14     243.0       49.2917        1.2778       58.2089       59.4867      10.194979       0.04136
  13     269.0       49.2449        1.4129       57.9006       59.3135      10.068539       0.04102
  12     297.5       49.1935        1.5586       57.5668       59.1254       9.931883       0.04053
  11     328.5       49.1392        1.7157       57.2005       58.9162       9.777012       0.04211
  10     361.9       49.0833        1.8844       56.7963       58.6808       9.597452       0.04543
   9     398.1       49.0276        2.0655       56.3475       58.4130       9.385437       0.04939
   8     437.6       48.9753        2.2591       55.8422       58.1013       9.126027       0.05546
   7     480.5       48.9328        2.4655       55.2625       57.7280       8.795227       0.06497
   6     533.0       48.9031        2.7175       54.4972       57.2146       8.311514       0.07781
   5     589.8       48.9001        2.9859       53.6307       56.6166       7.716438       0.08833
   4     651.6       48.9376        3.2699       52.6606       55.9304       6.992849       0.09895
   3     718.7       49.0247        3.5699       51.6100       55.1799       6.155165       0.10527
   2     792.3       49.1737        3.8858       50.5019       54.3877       5.213919       0.10795
   1     891.5        5.5711       10.3554        0.0000       10.3554       4.784312       0.03656
   0    1013.0        5.6108       10.2274        0.0000       10.2274       4.616648       0.01164



 Wavenumbers: 16000. - 22650. cm-1, ATM      1
 LEVEL PRESSURE   UPWARD FLUX   DIFDOWN FLUX  DIRDOWN FLUX  DOWNWARD FLUX   NET FLUX    HEATING RATE
          mb          W/m2          W/m2          W/m2        W/m2          W/m2       degree/day
  51    .06700       83.9265        0.0000      100.7153      100.7153      16.788826       0.00000
  50    .07753       83.9264        0.0003      100.7147      100.7151      16.788705       0.09709
  49    .09103       83.9262        0.0008      100.7140      100.7148      16.788529       0.11012
  48    0.1069       83.9261        0.0012      100.7131      100.7144      16.788293       0.12558
  47    0.1255       83.9259        0.0018      100.7121      100.7139      16.787977       0.14314
  46    0.1487       83.9258        0.0025      100.7108      100.7133      16.787512       0.16962
  45    0.1794       83.9255        0.0035      100.7089      100.7123      16.786784       0.19971
  44    0.2165       83.9253        0.0046      100.7066      100.7111      16.785798       0.22445
  43    0.2613       83.9252        0.0059      100.7037      100.7096      16.784459       0.25233
  42    0.3336       83.9249        0.0082      100.6987      100.7069      16.781914       0.29674
  41    0.4307       83.9248        0.0111      100.6918      100.7029      16.778078       0.33356
  40    0.5894       83.9249        0.0159      100.6797      100.6957      16.770761       0.38906
  39     1.339       83.9315        0.0387      100.6095      100.6482      16.716719       0.60842
  38     1.782       83.9399        0.0521      100.5585      100.6106      16.670694       0.87624
  37     2.292       83.9538        0.0676      100.4903      100.5578      16.604092       1.10310
  36     2.964       83.9784        0.0879      100.3868      100.4747      16.496243       1.35383
  35     3.853       84.0201        0.1147      100.2306      100.3453      16.325227       1.62298
  34     5.035       84.0844        0.1503      100.0045      100.1547      16.070339       1.82081
  33     6.613       84.1749        0.1977       99.6939       99.8916      15.716620       1.89098
  32     8.786       84.2923        0.2614       99.2881       99.5495      15.257222       1.78414
  31     11.80       84.4426        0.3523       98.7496       99.1019      14.659313       1.67396
  30     15.07       84.5837        0.4496       98.2198       98.6694      14.085744       1.48084
  29     18.79       84.7247        0.5591       97.6651       98.2242      13.499533       1.32912
  28     23.16       84.8683        0.6865       97.0671       97.7536      12.885391       1.18755
  27     28.12       85.0078        0.8317       96.4406       97.2723      12.264475       1.05552
  26     33.73       85.1285        0.9937       95.8179       96.8116      11.683056       0.87418
  25     40.54       85.2334        1.1888       95.1548       96.3436      11.110191       0.71070
  24     48.69       85.3201        1.4231       94.4420       95.8650      10.544881       0.58501
  23     57.69       85.3771        1.6794       93.7416       95.4210      10.043882       0.46961
  22     68.43       85.4038        1.9836       92.9954       94.9789       9.575070       0.36855
  21     81.20       85.3792        2.3445       92.2231       94.5677       9.188485       0.25545
  20     96.49       85.2978        2.7728       91.4110       94.1838       8.886058       0.16692
  19     114.6       85.1752        3.2780       90.5070       93.7850       8.609805       0.12899
  18     136.5       85.0132        3.8720       89.4803       93.3522       8.338977       0.10414
  17     162.9       84.8059        4.5724       88.3022       92.8746       8.068725       0.08638
  16     196.4       84.5047        5.4707       86.8606       92.3314       7.826699       0.06092
  15     218.7       84.2958        6.0545       85.9492       92.0037       7.707918       0.04510
  14     243.0       84.0646        6.6836       84.9789       91.6625       7.597908       0.03816
  13     269.0       83.8099        7.3589       83.9493       91.3081       7.498205       0.03234
  12     297.5       83.5313        8.0813       82.8589       90.9403       7.408924       0.02648
  11     328.5       83.2306        8.8535       81.6982       90.5518       7.321162       0.02386
  10     361.9       82.9079        9.6753       80.4669       90.1422       7.234343       0.02197
   9     398.1       82.5626       10.5486       79.1611       89.7098       7.147167       0.02031
   8     437.6       82.1956       11.4740       77.7777       89.2517       7.056127       0.01947
   7     480.5       81.8076       12.4518       76.3136       88.7654       6.957820       0.01931
   6     533.0       81.3387       13.6356       74.5359       88.1715       6.832786       0.02011
   5     589.8       80.8456       14.8876       72.6469       87.5345       6.688934       0.02135
   4     651.6       80.3314       16.2059       70.6456       86.8514       6.520011       0.02310
   3     718.7       79.7972       17.5885       68.5367       86.1252       6.328049       0.02412
   2     792.3       79.2459       19.0304       66.3287       85.3590       6.113159       0.02465
   1     891.5       24.4230       30.4078        0.0000       30.4078       5.984798       0.01092
   0    1013.0       24.3932       30.2870        0.0000       30.2870       5.893859       0.00631



 Wavenumbers: 22650. - 29000. cm-1, ATM      1
 LEVEL PRESSURE   UPWARD FLUX   DIFDOWN FLUX  DIRDOWN FLUX  DOWNWARD FLUX   NET FLUX    HEATING RATE
          mb          W/m2          W/m2          W/m2        W/m2          W/m2       degree/day
  51    .06700       36.0472        0.0000       38.0063       38.0063       1.959073       0.00000
  50    .07753       36.0471        0.0004       38.0057       38.0061       1.959073      -0.00000
  49    .09103       36.0469        0.0009       38.0050       38.0059       1.959073       0.00000
  48    0.1069       36.0466        0.0014       38.0042       38.0057       1.959073       0.00000
  47    0.1255       36.0464        0.0021       38.0033       38.0054       1.959073      -0.00000
  46    0.1487       36.0460        0.0029       38.0022       38.0051       1.959073      -0.00000
  45    0.1794       36.0456        0.0040       38.0006       38.0046       1.959073       0.00000
  44    0.2165       36.0450        0.0054       37.9987       38.0041       1.959073       0.00000
  43    0.2613       36.0444        0.0069       37.9965       38.0034       1.959073       0.00000
  42    0.3336       36.0433        0.0095       37.9928       38.0024       1.959073      -0.00000
  41    0.4307       36.0419        0.0130       37.9880       38.0009       1.959073       0.00000
  40    0.5894       36.0396        0.0186       37.9800       37.9986       1.959073       0.00000
  39     1.339       36.0286        0.0452       37.9425       37.9877       1.959073       0.00000
  38     1.782       36.0221        0.0608       37.9204       37.9812       1.959073       0.00000
  37     2.292       36.0147        0.0789       37.8949       37.9738       1.959073       0.00000
  36     2.964       36.0049        0.1026       37.8614       37.9640       1.959073       0.00000
  35     3.853       35.9920        0.1338       37.8172       37.9511       1.959073       0.00000
  34     5.035       35.9749        0.1754       37.7586       37.9339       1.959073       0.00000
  33     6.613       35.9520        0.2308       37.6803       37.9111       1.959073      -0.00000
  32     8.786       35.9213        0.3053       37.5750       37.8803       1.959073       0.00000
  31     11.80       35.8774        0.4116       37.4249       37.8365       1.959073      -0.00000
  30     15.07       35.8304        0.5253       37.2642       37.7895       1.959073       0.00000
  29     18.79       35.7776        0.6533       37.0833       37.7366       1.959073       0.00000
  28     23.16       35.7161        0.8022       36.8730       37.6752       1.959073       0.00000
  27     28.12       35.6461        0.9714       36.6338       37.6052       1.959073      -0.00000
  26     33.73       35.5683        1.1597       36.3677       37.5274       1.959073       0.00000
  25     40.54       35.4749        1.3854       36.0486       37.4340       1.959073       0.00000
  24     48.69       35.3633        1.6551       35.6672       37.3224       1.959073      -0.00000
  23     57.69       35.2419        1.9482       35.2527       37.2009       1.959073       0.00000
  22     68.43       35.0989        2.2931       34.7649       37.0580       1.959073       0.00000
  21     81.20       34.9310        2.6978       34.1922       36.8900       1.959073       0.00000
  20     96.49       34.7342        3.1715       33.5217       36.6932       1.959073       0.00000
  19     114.6       34.5052        3.7219       32.7424       36.4642       1.959073       0.00000
  18     136.5       34.2402        4.3577       31.8416       36.1992       1.959073       0.00000
  17     162.9       33.9335        5.0918       30.8008       35.8926       1.959073       0.00000
  16     196.4       33.5497        6.0081       29.5007       35.5087       1.959073      -0.00000
  15     218.7       33.3059        6.5883       28.6767       35.2650       1.959073       0.00000
  14     243.0       33.0482        7.2004       27.8068       35.0072       1.959073       0.00000
  13     269.0       32.7770        7.8427       26.8933       34.7361       1.959073       0.00000
  12     297.5       32.4932        8.5130       25.9393       34.4522       1.959073       0.00000
  11     328.5       32.1967        9.2107       24.9451       34.1558       1.959073      -0.00000
  10     361.9       31.8891        9.9321       23.9160       33.8481       1.959073       0.00000
   9     398.1       31.5707       10.6756       22.8541       33.5297       1.959073      -0.00000
   8     437.6       31.2428       11.4375       21.7645       33.2019       1.959073       0.00000
   7     480.5       30.9069       12.2139       20.6521       32.8660       1.959073      -0.00000
   6     533.0       30.5140       13.1161       19.3569       32.4730       1.959073       0.00000
   5     589.8       30.1142       14.0266       18.0467       32.0733       1.959073       0.00000
   4     651.6       29.7103       14.9378       16.7316       31.6694       1.959073       0.00000
   3     718.7       29.3049       15.8426       15.4214       31.2640       1.959073      -0.00000
   2     792.3       28.9010       16.7325       14.1276       30.8601       1.959073       0.00000
   1     891.5       13.1280       15.0864        0.0000       15.0864       1.958423       0.00006
   0    1013.0       13.0602       15.0186        0.0000       15.0186       1.958423      -0.00000



 Wavenumbers: 29000. - 38000. cm-1, ATM      1
 LEVEL PRESSURE   UPWARD FLUX   DIFDOWN FLUX  DIRDOWN FLUX  DOWNWARD FLUX   NET FLUX    HEATING RATE
          mb          W/m2          W/m2          W/m2        W/m2          W/m2       degree/day
  51    .06700        5.1483        0.0000       13.4026       13.4026       8.254325       0.00000
  50    .07753        5.1481        0.0003       13.3983       13.3986       8.250526       3.04464
  49    .09103        5.1478        0.0007       13.3921       13.3928       8.245006       3.44996
  48    0.1069        5.1475        0.0011       13.3840       13.3851       8.237629       3.92710
  47    0.1255        5.1471        0.0016       13.3733       13.3749       8.227783       4.46357
  46    0.1487        5.1467        0.0022       13.3579       13.3601       8.213340       5.26485
  45    0.1794        5.1461        0.0030       13.3340       13.3371       8.190938       6.14983
  44    0.2165        5.1455        0.0040       13.3024       13.3064       8.160916       6.82941
  43    0.2613        5.1447        0.0052       13.2604       13.2656       8.120858       7.55084
  42    0.3336        5.1435        0.0071       13.1833       13.1904       8.046844       8.62931
  41    0.4307        5.1420        0.0096       13.0729       13.0825       7.940460       9.24981
  40    0.5894        5.1397        0.0135       12.8796       12.8931       7.753394       9.94792
  39     1.339        5.1315        0.0298       11.9165       11.9464       6.814884      10.56592
  38     1.782        5.1284        0.0382       11.4399       11.4781       6.349759       8.85524
  37     2.292        5.1262        0.0472       10.9796       11.0268       5.900621       7.43890
  36     2.964        5.1252        0.0582       10.4786       10.5368       5.411661       6.13793
  35     3.853        5.1264        0.0718        9.9429       10.0147       4.888285       4.96693
  34     5.035        5.1307        0.0888        9.4007        9.4895       4.358784       3.78254
  33     6.613        5.1383        0.1104        8.8752        8.9856       3.847326       2.73426
  32     8.786        5.1486        0.1382        8.3786        8.5168       3.368201       1.86075
  31     11.80        5.1614        0.1764        7.8897        8.0661       2.904716       1.29761
  30     15.07        5.1727        0.2159        7.5108        7.7267       2.554013       0.90545
  29     18.79        5.1834        0.2589        7.1776        7.4365       2.253066       0.68234
  28     23.16        5.1937        0.3073        6.8664        7.1738       1.980091       0.52784
  27     28.12        5.2026        0.3610        6.5780        6.9390       1.736371       0.41431
  26     33.73        5.2076        0.4194        6.3195        6.7389       1.531242       0.30842
  25     40.54        5.2078        0.4884        6.0663        6.5546       1.346889       0.22871
  24     48.69        5.2025        0.5692        5.8128        6.3821       1.179611       0.17311
  23     57.69        5.1914        0.6556        5.5777        6.2333       1.041846       0.12913
  22     68.43        5.1726        0.7556        5.3379        6.0934       0.920811       0.09515
  21     81.20        5.1417        0.8717        5.0965        5.9681       0.826443       0.06236
  20     96.49        5.0974        1.0058        4.8476        5.8535       0.756053       0.03885
  19     114.6        5.0432        1.1580        4.5799        5.7379       0.694676       0.02866
  18     136.5        4.9803        1.3283        4.2891        5.6174       0.637034       0.02216
  17     162.9        4.9086        1.5174        3.9732        5.4905       0.581957       0.01760
  16     196.4        4.8175        1.7442        3.6080        5.3522       0.534746       0.01188
  15     218.7        4.7601        1.8826        3.3898        5.2723       0.512214       0.00855
  14     243.0        4.7006        2.0238        3.1686        5.1924       0.491733       0.00710
  13     269.0        4.6393        2.1669        2.9461        5.1129       0.473629       0.00587
  12     297.5        4.5766        2.3105        2.7239        5.0345       0.457928       0.00466
  11     328.5        4.5133        2.4535        2.5029        4.9564       0.443142       0.00402
  10     361.9        4.4499        2.5946        2.2846        4.8792       0.429296       0.00350
   9     398.1        4.3870        2.7326        2.0708        4.8034       0.416385       0.00301
   8     437.6        4.3248        2.8664        1.8626        4.7290       0.404134       0.00262
   7     480.5        4.2641        2.9946        1.6621        4.6567       0.392678       0.00225
   6     533.0        4.1966        3.1333        1.4437        4.5770       0.380382       0.00198
   5     589.8        4.1321        3.2618        1.2390        4.5008       0.368663       0.00174
   4     651.6        4.0712        3.3786        1.0500        4.4286       0.357361       0.00155
   3     718.7        4.0142        3.4828        0.8778        4.3606       0.346437       0.00137
   2     792.3        3.9614        3.5736        0.7237        4.2973       0.335871       0.00121
   1     891.5        1.7564        2.0834        0.0000        2.0834       0.326964       0.00076
   0    1013.0        1.7363        2.0569        0.0000        2.0569       0.320677       0.00044



 Wavenumbers: 38000. - 50000. cm-1, ATM      1
 LEVEL PRESSURE   UPWARD FLUX   DIFDOWN FLUX  DIRDOWN FLUX  DOWNWARD FLUX   NET FLUX    HEATING RATE
          mb          W/m2          W/m2          W/m2        W/m2          W/m2       degree/day
  51    .06700        0.0051        0.0000        0.8267        0.8267       0.821528       0.00000
  50    .07753        0.0051        0.0001        0.8242        0.8243       0.819196       1.86936
  49    .09103        0.0050        0.0002        0.8207        0.8209       0.815872       2.07705
  48    0.1069        0.0049        0.0002        0.8162        0.8164       0.811514       2.31984
  47    0.1255        0.0048        0.0004        0.8103        0.8106       0.805801       2.59006
  46    0.1487        0.0047        0.0005        0.8018        0.8023       0.797567       3.00143
  45    0.1794        0.0045        0.0007        0.7889        0.7896       0.785013       3.44648
  44    0.2165        0.0044        0.0009        0.7720        0.7729       0.768507       3.75474
  43    0.2613        0.0042        0.0011        0.7500        0.7511       0.746955       4.06246
  42    0.3336        0.0039        0.0015        0.7106        0.7121       0.708267       4.51071
  41    0.4307        0.0035        0.0019        0.6566        0.6584       0.654972       4.63387
  40    0.5894        0.0029        0.0024        0.5680        0.5704       0.567464       4.65357
  39     1.339        0.0015        0.0030        0.2422        0.2452       0.243720       3.64476
  38     1.782        0.0010        0.0026        0.1493        0.1519       0.150889       1.76735
  37     2.292        0.0007        0.0022        0.0924        0.0946       0.093932       0.94336
  36     2.964        0.0005        0.0018        0.0539        0.0557       0.055224       0.48589
  35     3.853        0.0003        0.0013        0.0295        0.0308       0.030502       0.23462
  34     5.035        0.0002        0.0010        0.0154        0.0164       0.016181       0.10230
  33     6.613        0.0001        0.0007        0.0073        0.0080       0.007912       0.04420
  32     8.786        0.0000        0.0004        0.0030        0.0034       0.003390       0.01756
  31     11.80        0.0000        0.0003        0.0010        0.0012       0.001199       0.00613
  30     15.07        0.0000        0.0001        0.0003        0.0005       0.000463       0.00190
  29     18.79        0.0000        0.0001        0.0001        0.0002       0.000182       0.00064
  28     23.16        0.0000        0.0000        0.0000        0.0001       0.000071       0.00022
  27     28.12        0.0000        0.0000        0.0000        0.0000       0.000028       0.00007
  26     33.73        0.0000        0.0000        0.0000        0.0000       0.000011       0.00002
  25     40.54        0.0000        0.0000        0.0000        0.0000       0.000005       0.00001
  24     48.69        0.0000        0.0000        0.0000        0.0000       0.000002       0.00000
  23     57.69        0.0000        0.0000        0.0000        0.0000       0.000001       0.00000
  22     68.43        0.0000        0.0000        0.0000        0.0000       0.000000       0.00000
  21     81.20        0.0000        0.0000        0.0000        0.0000       0.000000       0.00000
  20     96.49        0.0000        0.0000        0.0000        0.0000       0.000000       0.00000
  19     114.6        0.0000        0.0000        0.0000        0.0000       0.000000       0.00000
  18     136.5        0.0000        0.0000        0.0000        0.0000       0.000000       0.00000
  17     162.9        0.0000        0.0000        0.0000        0.0000       0.000000       0.00000
  16     196.4        0.0000        0.0000        0.0000        0.0000       0.000000       0.00000
  15     218.7        0.0000        0.0000        0.0000        0.0000       0.000000       0.00000
  14     243.0        0.0000        0.0000        0.0000        0.0000       0.000000       0.00000
  13     269.0        0.0000        0.0000        0.0000        0.0000       0.000000       0.00000
  12     297.5        0.0000        0.0000        0.0000        0.0000       0.000000       0.00000
  11     328.5        0.0000        0.0000        0.0000        0.0000       0.000000       0.00000
  10     361.9        0.0000        0.0000        0.0000        0.0000       0.000000       0.00000
   9     398.1        0.0000        0.0000        0.0000        0.0000       0.000000       0.00000
   8     437.6        0.0000        0.0000        0.0000        0.0000       0.000000       0.00000
   7     480.5        0.0000        0.0000        0.0000        0.0000       0.000000       0.00000
   6     533.0        0.0000        0.0000        0.0000        0.0000       0.000000       0.00000
   5     589.8        0.0000        0.0000        0.0000        0.0000       0.000000       0.00000
   4     651.6        0.0000        0.0000        0.0000        0.0000       0.000000       0.00000
   3     718.7        0.0000        0.0000        0.0000        0.0000       0.000000       0.00000
   2     792.3        0.0000        0.0000        0.0000        0.0000       0.000000       0.00000
   1     891.5        0.0000        0.0000        0.0000        0.0000       0.000000       0.00000
   0    1013.0        0.0000        0.0000        0.0000        0.0000       0.000000       0.00000



 Wavenumbers:   820. -  2600. cm-1, ATM      1
 LEVEL PRESSURE   UPWARD FLUX   DIFDOWN FLUX  DIRDOWN FLUX  DOWNWARD FLUX   NET FLUX    HEATING RATE
          mb          W/m2          W/m2          W/m2        W/m2          W/m2       degree/day
  51    .06700        0.8521        0.0000        3.8670        3.8670       3.014887       0.00000
  50    .07753        0.8521        0.0000        3.8643        3.8643       3.012170       2.17771
  49    .09103        0.8521        0.0000        3.8635        3.8635       3.011360       0.50640
  48    0.1069        0.8521        0.0000        3.8626        3.8626       3.010469       0.47417
  47    0.1255        0.8521        0.0000        3.8616        3.8616       3.009508       0.43561
  46    0.1487        0.8521        0.0000        3.8605        3.8605       3.008399       0.40439
  45    0.1794        0.8521        0.0000        3.8592        3.8592       3.007064       0.36650
  44    0.2165        0.8521        0.0000        3.8578        3.8578       3.005686       0.31348
  43    0.2613        0.8521        0.0000        3.8564        3.8564       3.004225       0.27524
  42    0.3336        0.8521        0.0000        3.8541        3.8541       3.001994       0.26015
  41    0.4307        0.8521        0.0000        3.8512        3.8512       2.999111       0.25065
  40    0.5894        0.8521        0.0000        3.8465        3.8465       2.994385       0.25136
  39     1.339        0.8521        0.0000        3.8251        3.8251       2.973007       0.24067
  38     1.782        0.8521        0.0000        3.8133        3.8133       2.961193       0.22492
  37     2.292        0.8521        0.0000        3.8003        3.8003       2.948130       0.21635
  36     2.964        0.8521        0.0000        3.7841        3.7841       2.932000       0.20249
  35     3.853        0.8521        0.0000        3.7642        3.7642       2.912082       0.18902
  34     5.035        0.8521        0.0000        3.7395        3.7395       2.887388       0.17641
  33     6.613        0.8522        0.0000        3.7090        3.7090       2.856847       0.16327
  32     8.786        0.8522        0.0000        3.6726        3.6726       2.820448       0.14136
  31     11.80        0.8522        0.0000        3.6320        3.6320       2.779844       0.11368
  30     15.07        0.8522        0.0000        3.6016        3.6016       2.749449       0.07847
  29     18.79        0.8522        0.0000        3.5777        3.5777       2.725539       0.05421
  28     23.16        0.8522        0.0000        3.5564        3.5564       2.704171       0.04132
  27     28.12        0.8522        0.0000        3.5348        3.5348       2.682608       0.03666
  26     33.73        0.8523        0.0000        3.5118        3.5118       2.659556       0.03466
  25     40.54        0.8523        0.0000        3.4849        3.4849       2.632644       0.03339
  24     48.69        0.8523        0.0000        3.4537        3.4537       2.601363       0.03237
  23     57.69        0.8524        0.0000        3.4210        3.4210       2.568657       0.03066
  22     68.43        0.8524        0.0000        3.3844        3.3844       2.532033       0.02879
  21     81.20        0.8525        0.0000        3.3441        3.3441       2.491687       0.02666
  20     96.49        0.8525        0.0000        3.2998        3.2998       2.447265       0.02452
  19     114.6        0.8526        0.0000        3.2506        3.2507       2.398046       0.02298
  18     136.5        0.8527        0.0000        3.1936        3.1936       2.340896       0.02198
  17     162.9        0.8529        0.0000        3.1181        3.1181       2.265221       0.02419
  16     196.4        0.8533        0.0000        3.0090        3.0090       2.155702       0.02757
  15     218.7        0.8536        0.0000        2.9420        2.9420       2.088453       0.02553
  14     243.0        0.8540        0.0000        2.8605        2.8605       2.006531       0.02841
  13     269.0        0.8546        0.0000        2.7419        2.7420       1.887347       0.03866
  12     297.5        0.8557        0.0000        2.5729        2.5729       1.717148       0.05048
  11     328.5        0.8575        0.0000        2.3602        2.3602       1.502701       0.05831
  10     361.9        0.8602        0.0000        2.1524        2.1524       1.292255       0.05325
   9     398.1        0.8640        0.0000        1.9974        1.9974       1.133456       0.03700
   8     437.6        0.8693        0.0000        1.8835        1.8835       1.014269       0.02548
   7     480.5        0.8768        0.0000        1.7734        1.7734       0.896666       0.02310
   6     533.0        0.8891        0.0000        1.6397        1.6398       0.750668       0.02349
   5     589.8        0.9067        0.0000        1.5068        1.5069       0.600121       0.02235
   4     651.6        0.9328        0.0000        1.3807        1.3807       0.447938       0.02081
   3     718.7        0.9676        0.0000        1.2680        1.2681       0.300418       0.01854
   2     792.3        1.0114        0.0000        1.1659        1.1660       0.154571       0.01673
   1     891.5        0.0061        0.1054        0.0000        0.1054       0.099296       0.00470
   0    1013.0        0.0068        0.0953        0.0000        0.0953       0.088595       0.00074

  Modules and versions used in this calculation:

       rrtmg_sw.1col.f90:  $Revision$                    rrtmg_sw_init.f90:  $Revision$        
     rrtmgsw_cldprop.f90:  $Revision$                  rrtmgsw_cldprmc.f90:  NOT USED          
     rrtmg_sw_reftra.f90:  $Revision$                  rrtmg_sw_spcvrt.f90:  NOT USED          
     rrtmg_sw_spcvmc.f90:  NOT USED                    rrtmgsw_setcoef.f90:  NOT USED          
     rrtmg_sw_taumol.f90:  $Revision$                  rrtmg_sw_vrtqdr.f90:  NOT USED          
                rrtatm.f:  NOT USED                             util_xxx.f:  NOT USED          
                 extra.f:  NOT USED                       rrtmg_sw_k_g.f90:  $Revision$        

