

 Wavenumbers:   820. - 50000. cm-1, ATM      1
 LEVEL PRESSURE   UPWARD FLUX   DIFDOWN FLUX  DIRDOWN FLUX  DOWNWARD FLUX   NET FLUX    HEATING RATE
          mb          W/m2          W/m2          W/m2        W/m2          W/m2       degree/day
  51    .06700      287.7753        0.0000      397.8738      397.8738     110.098438       0.00000
  50    .07753      287.7748        0.0012      397.8577      397.8589     110.084142      11.45866
  49    .09103      287.7741        0.0027      397.8418      397.8445     110.070446       8.56015
  48    0.1069      287.7733        0.0044      397.8230      397.8274     110.054089       8.70705
  47    0.1255      287.7724        0.0064      397.7997      397.8060     110.033634       9.27323
  46    0.1487      287.7713        0.0089      397.7676      397.7765     110.005159      10.37940
  45    0.1794      287.7699        0.0122      397.7205      397.7327     109.962840      11.61748
  44    0.2165      287.7683        0.0162      397.6602      397.6765     109.908157      12.43957
  43    0.2613      287.7665        0.0209      397.5829      397.6038     109.837313      13.35382
  42    0.3336      287.7638        0.0287      397.4449      397.4736     109.709786      14.86840
  41    0.4307      287.7604        0.0388      397.2524      397.2912     109.530785      15.56369
  40    0.5894      287.7557        0.0552      396.9253      396.9805     109.224820      16.27084
  39     1.339      287.7454        0.1283      395.4254      395.5537     107.808296      15.94749
  38     1.782      287.7476        0.1694      394.7288      394.8981     107.150543      12.52254
  37     2.292      287.7574        0.2161      394.0572      394.2733     106.515807      10.51289
  36     2.964      287.7812        0.2768      393.3007      393.5775     105.796219       9.03301
  35     3.853      287.8278        0.3561      392.4318      392.7879     104.960157       7.93438
  34     5.035      287.9045        0.4605      391.4441      391.9046     104.000116       6.85814
  33     6.613      288.0152        0.5989      390.3268      390.9256     102.910465       5.82527
  32     8.786      288.1582        0.7839      389.0624      389.8463     101.688161       4.74699
  31     11.80      288.3371        1.0466      387.5500      388.5966     100.259530       3.99972
  30     15.07      288.4991        1.3264      386.1556      387.4820      98.982906       3.29600
  29     18.79      288.6554        1.6401      384.7502      386.3903      97.734864       2.82969
  28     23.16      288.8071        2.0036      383.2686      385.2722      96.465103       2.45531
  27     28.12      288.9446        2.4160      381.7329      384.1489      95.204349       2.14320
  26     33.73      289.0456        2.8743      380.1982      383.0725      94.026877       1.77036
  25     40.54      289.1066        3.4241      378.5384      381.9625      92.855887       1.45275
  24     48.69      289.1215        4.0812      376.7214      380.8026      91.681146       1.21567
  23     57.69      289.0817        4.7964      374.8959      379.6923      90.610641       1.00344
  22     68.43      288.9740        5.6399      372.8999      378.5399      89.565865       0.82133
  21     81.20      288.7624        6.6345      370.7496      377.3841      88.621742       0.62386
  20     96.49      288.4350        7.8052      368.4056      376.2108      87.775710       0.46695
  19     114.6      288.0221        9.1734      365.7513      374.9247      86.902539       0.40771
  18     136.5      287.5160       10.7635      362.7231      373.4866      85.970607       0.35835
  17     162.9      286.9043       12.6135      359.1748      371.7883      84.883951       0.34734
  16     196.4      286.0803       14.9484      354.5718      369.5202      83.439937       0.36348
  15     218.7      285.5343       16.4432      351.4437      367.8869      82.352545       0.41284
  14     243.0      284.9466       18.0344      347.7111      365.7456      80.798988       0.53883
  13     269.0      284.3203       19.7206      342.9441      362.6647      78.344398       0.79626
  12     297.5      283.6602       21.4996      337.4137      358.9133      75.253126       0.91684
  11     328.5      282.9765       23.3735      331.1302      354.5038      71.527248       1.01306
  10     361.9      282.2807       25.3371      324.1219      349.4591      67.178332       1.10032
   9     398.1      281.5854       27.3902      316.6066      343.9968      62.411442       1.11058
   8     437.6      280.9154       29.5285      308.5895      338.1179      57.202518       1.11370
   7     480.5      280.3165       31.7463      299.9349      331.6812      51.364664       1.14653
   6     533.0      279.7753       34.3780      289.7021      324.0801      44.304860       1.13570
   5     589.8      279.4762       37.0999      279.3388      316.4387      36.962557       1.08984
   4     651.6      279.5789       39.9004      268.7786      308.6790      29.100070       1.07522
   3     718.7      280.2219       42.7710      258.2837      301.0547      20.832755       1.03897
   2     792.3      281.5888       45.6982      248.0774      293.7756      12.186795       0.99159
   1     891.5       18.4583       28.1047        0.0000       28.1047       9.646474       0.21617
   0    1013.0       18.4245       27.8355        0.0000       27.8355       9.410909       0.01636



 Wavenumbers:  2600. -  3250. cm-1, ATM      1
 LEVEL PRESSURE   UPWARD FLUX   DIFDOWN FLUX  DIRDOWN FLUX  DOWNWARD FLUX   NET FLUX    HEATING RATE
          mb          W/m2          W/m2          W/m2        W/m2          W/m2       degree/day
  51    .06700        1.2328        0.0000        3.5066        3.5066       2.273853       0.00000
  50    .07753        1.2328        0.0000        3.5066        3.5066       2.273845       0.00640
  49    .09103        1.2328        0.0000        3.5066        3.5066       2.273835       0.00627
  48    0.1069        1.2328        0.0000        3.5066        3.5066       2.273824       0.00613
  47    0.1255        1.2328        0.0000        3.5066        3.5066       2.273811       0.00599
  46    0.1487        1.2328        0.0000        3.5066        3.5066       2.273794       0.00607
  45    0.1794        1.2328        0.0000        3.5065        3.5065       2.273771       0.00624
  44    0.2165        1.2328        0.0000        3.5065        3.5065       2.273744       0.00611
  43    0.2613        1.2328        0.0000        3.5065        3.5065       2.273713       0.00598
  42    0.3336        1.2328        0.0000        3.5064        3.5064       2.273660       0.00615
  41    0.4307        1.2328        0.0000        3.5064        3.5064       2.273589       0.00618
  40    0.5894        1.2328        0.0000        3.5062        3.5062       2.273470       0.00633
  39     1.339        1.2328        0.0000        3.5055        3.5055       2.272771       0.00787
  38     1.782        1.2328        0.0000        3.5050        3.5050       2.272240       0.01011
  37     2.292        1.2328        0.0000        3.5043        3.5043       2.271548       0.01147
  36     2.964        1.2328        0.0000        3.5033        3.5033       2.270556       0.01245
  35     3.853        1.2328        0.0000        3.5019        3.5019       2.269179       0.01307
  34     5.035        1.2328        0.0000        3.5001        3.5001       2.267318       0.01329
  33     6.613        1.2328        0.0000        3.4977        3.4977       2.264908       0.01288
  32     8.786        1.2328        0.0000        3.4947        3.4947       2.261937       0.01154
  31     11.80        1.2328        0.0000        3.4911        3.4911       2.258301       0.01018
  30     15.07        1.2328        0.0000        3.4878        3.4878       2.255078       0.00832
  29     18.79        1.2328        0.0000        3.4848        3.4848       2.252013       0.00695
  28     23.16        1.2328        0.0000        3.4816        3.4816       2.248790       0.00623
  27     28.12        1.2328        0.0000        3.4779        3.4779       2.245168       0.00616
  26     33.73        1.2328        0.0000        3.4735        3.4735       2.240696       0.00672
  25     40.54        1.2328        0.0000        3.4671        3.4672       2.234361       0.00786
  24     48.69        1.2328        0.0000        3.4582        3.4583       2.225453       0.00922
  23     57.69        1.2328        0.0000        3.4472        3.4472       2.214386       0.01037
  22     68.43        1.2329        0.0000        3.4329        3.4330       2.200099       0.01123
  21     81.20        1.2329        0.0000        3.4152        3.4152       2.182331       0.01174
  20     96.49        1.2330        0.0000        3.3940        3.3941       2.161130       0.01170
  19     114.6        1.2330        0.0000        3.3692        3.3692       2.136162       0.01166
  18     136.5        1.2332        0.0001        3.3419        3.3420       2.108830       0.01051
  17     162.9        1.2334        0.0001        3.3129        3.3129       2.079583       0.00935
  16     196.4        1.2337        0.0001        3.2793        3.2794       2.045697       0.00853
  15     218.7        1.2341        0.0001        3.2578        3.2579       2.023776       0.00832
  14     243.0        1.2346        0.0001        3.2320        3.2321       1.997428       0.00914
  13     269.0        1.2355        0.0001        3.1968        3.1969       1.961404       0.01169
  12     297.5        1.2369        0.0001        3.1489        3.1491       1.912124       0.01462
  11     328.5        1.2391        0.0001        3.0821        3.0822       1.843123       0.01876
  10     361.9        1.2422        0.0001        2.9902        2.9904       1.748167       0.02402
   9     398.1        1.2468        0.0001        2.8715        2.8716       1.624876       0.02872
   8     437.6        1.2533        0.0002        2.7276        2.7278       1.474468       0.03216
   7     480.5        1.2633        0.0002        2.5595        2.5597       1.296424       0.03497
   6     533.0        1.2801        0.0002        2.3617        2.3619       1.081843       0.03452
   5     589.8        1.3049        0.0002        2.1649        2.1651       0.860201       0.03290
   4     651.6        1.3421        0.0002        1.9608        1.9609       0.618859       0.03300
   3     718.7        1.3957        0.0002        1.7593        1.7595       0.363770       0.03206
   2     792.3        1.4716        0.0002        1.5761        1.5762       0.104663       0.02972
   1     891.5        0.0104        0.0480        0.0000        0.0480       0.037573       0.00571
   0    1013.0        0.0112        0.0445        0.0000        0.0445       0.033356       0.00029



 Wavenumbers:  3250. -  4000. cm-1, ATM      1
 LEVEL PRESSURE   UPWARD FLUX   DIFDOWN FLUX  DIRDOWN FLUX  DOWNWARD FLUX   NET FLUX    HEATING RATE
          mb          W/m2          W/m2          W/m2        W/m2          W/m2       degree/day
  51    .06700        0.0121        0.0000        5.9117        5.9117       5.899537       0.00000
  50    .07753        0.0121        0.0000        5.9075        5.9075       5.895347       3.35808
  49    .09103        0.0121        0.0000        5.9050        5.9050       5.892904       1.52677
  48    0.1069        0.0121        0.0000        5.9032        5.9032       5.891038       0.99346
  47    0.1255        0.0121        0.0000        5.9014        5.9014       5.889280       0.79708
  46    0.1487        0.0121        0.0000        5.8995        5.8995       5.887391       0.68848
  45    0.1794        0.0121        0.0000        5.8974        5.8974       5.885242       0.58983
  44    0.2165        0.0121        0.0000        5.8952        5.8952       5.883125       0.48155
  43    0.2613        0.0121        0.0000        5.8931        5.8931       5.880966       0.40696
  42    0.3336        0.0121        0.0000        5.8899        5.8899       5.877808       0.36820
  41    0.4307        0.0121        0.0000        5.8861        5.8861       5.873971       0.33365
  40    0.5894        0.0121        0.0000        5.8803        5.8803       5.868169       0.30857
  39     1.339        0.0121        0.0000        5.8597        5.8597       5.847571       0.23189
  38     1.782        0.0121        0.0000        5.8513        5.8513       5.839146       0.16039
  37     2.292        0.0121        0.0000        5.8431        5.8431       5.830975       0.13533
  36     2.964        0.0121        0.0000        5.8334        5.8334       5.821336       0.12100
  35     3.853        0.0121        0.0000        5.8213        5.8213       5.809160       0.11555
  34     5.035        0.0121        0.0000        5.8052        5.8052       5.793065       0.11498
  33     6.613        0.0121        0.0000        5.7833        5.7834       5.771244       0.11666
  32     8.786        0.0121        0.0000        5.7531        5.7531       5.741042       0.11729
  31     11.80        0.0121        0.0000        5.7090        5.7090       5.696873       0.12366
  30     15.07        0.0121        0.0000        5.6615        5.6615       5.649409       0.12254
  29     18.79        0.0121        0.0000        5.6093        5.6094       5.597273       0.11821
  28     23.16        0.0121        0.0000        5.5524        5.5524       5.540347       0.11008
  27     28.12        0.0121        0.0000        5.4935        5.4935       5.481468       0.10009
  26     33.73        0.0121        0.0000        5.4348        5.4349       5.422780       0.08824
  25     40.54        0.0121        0.0001        5.3707        5.3708       5.358718       0.07948
  24     48.69        0.0121        0.0001        5.2985        5.2985       5.286485       0.07475
  23     57.69        0.0120        0.0001        5.2215        5.2216       5.209546       0.07212
  22     68.43        0.0120        0.0001        5.1318        5.1319       5.119886       0.07048
  21     81.20        0.0120        0.0001        5.0284        5.0285       5.016457       0.06834
  20     96.49        0.0120        0.0001        4.9122        4.9123       4.900322       0.06410
  19     114.6        0.0120        0.0001        4.7780        4.7782       4.766211       0.06262
  18     136.5        0.0119        0.0002        4.6285        4.6287       4.616733       0.05748
  17     162.9        0.0119        0.0002        4.4406        4.4407       4.428820       0.06006
  16     196.4        0.0119        0.0002        4.1548        4.1550       4.143144       0.07191
  15     218.7        0.0119        0.0002        3.9564        3.9566       3.944761       0.07532
  14     243.0        0.0119        0.0002        3.7055        3.7058       3.693920       0.08700
  13     269.0        0.0119        0.0002        3.3399        3.3401       3.328266       0.11862
  12     297.5        0.0119        0.0002        2.8954        2.8956       2.883743       0.13184
  11     328.5        0.0119        0.0002        2.4388        2.4390       2.427134       0.12415
  10     361.9        0.0120        0.0002        2.0269        2.0271       2.015071       0.10426
   9     398.1        0.0122        0.0002        1.6753        1.6755       1.663265       0.08196
   8     437.6        0.0126        0.0002        1.3592        1.3594       1.346767       0.06767
   7     480.5        0.0133        0.0002        1.0616        1.0618       1.048497       0.05858
   6     533.0        0.0147        0.0001        0.7543        0.7544       0.739746       0.04967
   5     589.8        0.0173        0.0001        0.4951        0.4952       0.477942       0.03886
   4     651.6        0.0224        0.0001        0.2943        0.2943       0.271958       0.02817
   3     718.7        0.0324        0.0001        0.1528        0.1529       0.120451       0.01904
   2     792.3        0.0529        0.0000        0.0658        0.0658       0.012896       0.01234
   1     891.5        0.0000        0.0001        0.0000        0.0001       0.000072       0.00109
   0    1013.0        0.0000        0.0000        0.0000        0.0000       0.000013       0.00000



 Wavenumbers:  4000. -  4650. cm-1, ATM      1
 LEVEL PRESSURE   UPWARD FLUX   DIFDOWN FLUX  DIRDOWN FLUX  DOWNWARD FLUX   NET FLUX    HEATING RATE
          mb          W/m2          W/m2          W/m2        W/m2          W/m2       degree/day
  51    .06700        4.3510        0.0000        6.9421        6.9421       2.591082       0.00000
  50    .07753        4.3510        0.0000        6.9421        6.9421       2.591081       0.00079
  49    .09103        4.3510        0.0000        6.9421        6.9421       2.591080       0.00078
  48    0.1069        4.3510        0.0000        6.9421        6.9421       2.591078       0.00076
  47    0.1255        4.3510        0.0000        6.9421        6.9421       2.591077       0.00074
  46    0.1487        4.3510        0.0000        6.9421        6.9421       2.591074       0.00075
  45    0.1794        4.3510        0.0000        6.9421        6.9421       2.591072       0.00077
  44    0.2165        4.3510        0.0000        6.9421        6.9421       2.591068       0.00076
  43    0.2613        4.3510        0.0000        6.9420        6.9420       2.591064       0.00074
  42    0.3336        4.3510        0.0000        6.9420        6.9420       2.591058       0.00076
  41    0.4307        4.3510        0.0000        6.9420        6.9420       2.591049       0.00077
  40    0.5894        4.3510        0.0000        6.9420        6.9420       2.591034       0.00079
  39     1.339        4.3510        0.0000        6.9419        6.9419       2.590945       0.00100
  38     1.782        4.3510        0.0000        6.9418        6.9419       2.590876       0.00132
  37     2.292        4.3510        0.0000        6.9418        6.9418       2.590782       0.00155
  36     2.964        4.3510        0.0000        6.9416        6.9416       2.590643       0.00175
  35     3.853        4.3510        0.0000        6.9414        6.9414       2.590436       0.00196
  34     5.035        4.3510        0.0000        6.9411        6.9411       2.590131       0.00218
  33     6.613        4.3510        0.0000        6.9406        6.9407       2.589683       0.00240
  32     8.786        4.3510        0.0000        6.9399        6.9400       2.589022       0.00257
  31     11.80        4.3510        0.0001        6.9389        6.9389       2.587985       0.00290
  30     15.07        4.3510        0.0001        6.9377        6.9377       2.586772       0.00313
  29     18.79        4.3510        0.0001        6.9362        6.9363       2.585310       0.00332
  28     23.16        4.3510        0.0001        6.9343        6.9345       2.583500       0.00350
  27     28.12        4.3509        0.0001        6.9321        6.9323       2.581318       0.00371
  26     33.73        4.3510        0.0002        6.9294        6.9296       2.578638       0.00403
  25     40.54        4.3510        0.0002        6.9258        6.9260       2.575022       0.00449
  24     48.69        4.3510        0.0002        6.9210        6.9212       2.570230       0.00496
  23     57.69        4.3510        0.0003        6.9154        6.9156       2.564587       0.00529
  22     68.43        4.3511        0.0003        6.9083        6.9086       2.557561       0.00552
  21     81.20        4.3512        0.0004        6.8998        6.9001       2.548956       0.00569
  20     96.49        4.3513        0.0004        6.8894        6.8899       2.538542       0.00575
  19     114.6        4.3516        0.0005        6.8765        6.8770       2.525471       0.00610
  18     136.5        4.3519        0.0006        6.8610        6.8616       2.509656       0.00608
  17     162.9        4.3525        0.0007        6.8417        6.8424       2.489900       0.00631
  16     196.4        4.3535        0.0009        6.8147        6.8155       2.462052       0.00701
  15     218.7        4.3544        0.0010        6.7948        6.7958       2.441445       0.00782
  14     243.0        4.3556        0.0011        6.7698        6.7709       2.415203       0.00910
  13     269.0        4.3577        0.0012        6.7349        6.7360       2.378335       0.01196
  12     297.5        4.3608        0.0013        6.6869        6.6882       2.327384       0.01511
  11     328.5        4.3651        0.0014        6.6194        6.6208       2.255666       0.01950
  10     361.9        4.3709        0.0016        6.5295        6.5310       2.160117       0.02417
   9     398.1        4.3785        0.0017        6.4202        6.4219       2.043379       0.02720
   8     437.6        4.3888        0.0018        6.2962        6.2980       1.909230       0.02868
   7     480.5        4.4031        0.0020        6.1555        6.1575       1.754381       0.03041
   6     533.0        4.4267        0.0022        5.9675        5.9697       1.543032       0.03400
   5     589.8        4.4615        0.0023        5.7368        5.7391       1.277562       0.03940
   4     651.6        4.5139        0.0025        5.4662        5.4687       0.954878       0.04413
   3     718.7        4.5892        0.0027        5.1912        5.1939       0.604676       0.04401
   2     792.3        4.6946        0.0028        4.9395        4.9423       0.247693       0.04094
   1     891.5        0.0459        0.1940        0.0000        0.1940       0.148127       0.00847
   0    1013.0        0.0472        0.1881        0.0000        0.1881       0.140943       0.00050



 Wavenumbers:  4650. -  5150. cm-1, ATM      1
 LEVEL PRESSURE   UPWARD FLUX   DIFDOWN FLUX  DIRDOWN FLUX  DOWNWARD FLUX   NET FLUX    HEATING RATE
          mb          W/m2          W/m2          W/m2        W/m2          W/m2       degree/day
  51    .06700        3.0562        0.0000        6.5710        6.5710       3.514820       0.00000
  50    .07753        3.0562        0.0000        6.5708        6.5708       3.514584       0.18887
  49    .09103        3.0562        0.0000        6.5705        6.5705       3.514290       0.18362
  48    0.1069        3.0562        0.0000        6.5701        6.5701       3.513956       0.17806
  47    0.1255        3.0562        0.0000        6.5697        6.5697       3.513576       0.17238
  46    0.1487        3.0562        0.0000        6.5693        6.5693       3.513102       0.17268
  45    0.1794        3.0562        0.0000        6.5686        6.5686       3.512465       0.17474
  44    0.2165        3.0562        0.0000        6.5679        6.5679       3.511727       0.16788
  43    0.2613        3.0562        0.0000        6.5670        6.5670       3.510874       0.16078
  42    0.3336        3.0562        0.0000        6.5657        6.5657       3.509511       0.15894
  41    0.4307        3.0562        0.0000        6.5640        6.5640       3.507789       0.14971
  40    0.5894        3.0562        0.0000        6.5613        6.5613       3.505173       0.13913
  39     1.339        3.0562        0.0000        6.5516        6.5516       3.495395       0.11008
  38     1.782        3.0562        0.0000        6.5473        6.5473       3.491179       0.08027
  37     2.292        3.0562        0.0000        6.5434        6.5435       3.487291       0.06439
  36     2.964        3.0562        0.0000        6.5395        6.5395       3.483336       0.04965
  35     3.853        3.0562        0.0000        6.5355        6.5356       3.479392       0.03743
  34     5.035        3.0562        0.0000        6.5315        6.5315       3.475387       0.02861
  33     6.613        3.0562        0.0000        6.5271        6.5271       3.470989       0.02351
  32     8.786        3.0562        0.0001        6.5216        6.5216       3.465487       0.02137
  31     11.80        3.0562        0.0001        6.5135        6.5136       3.457395       0.02265
  30     15.07        3.0562        0.0001        6.5041        6.5042       3.448009       0.02423
  29     18.79        3.0562        0.0001        6.4925        6.4927       3.436468       0.02617
  28     23.16        3.0562        0.0002        6.4779        6.4780       3.421841       0.02828
  27     28.12        3.0562        0.0002        6.4599        6.4601       3.403819       0.03064
  26     33.73        3.0563        0.0002        6.4384        6.4386       3.382325       0.03232
  25     40.54        3.0564        0.0003        6.4112        6.4115       3.355110       0.03376
  24     48.69        3.0565        0.0003        6.3775        6.3778       3.321348       0.03494
  23     57.69        3.0567        0.0004        6.3404        6.3408       3.284096       0.03492
  22     68.43        3.0569        0.0004        6.2971        6.2976       3.240686       0.03413
  21     81.20        3.0572        0.0005        6.2483        6.2488       3.191568       0.03246
  20     96.49        3.0577        0.0006        6.1948        6.1954       3.137780       0.02969
  19     114.6        3.0583        0.0007        6.1381        6.1389       3.080573       0.02671
  18     136.5        3.0592        0.0009        6.0790        6.0799       3.020677       0.02303
  17     162.9        3.0604        0.0010        6.0160        6.0171       2.956622       0.02047
  16     196.4        3.0624        0.0012        5.9399        5.9411       2.878688       0.01962
  15     218.7        3.0640        0.0013        5.8896        5.8910       2.827019       0.01962
  14     243.0        3.0660        0.0015        5.8322        5.8337       2.767659       0.02059
  13     269.0        3.0689        0.0016        5.7624        5.7640       2.695110       0.02353
  12     297.5        3.0730        0.0018        5.6767        5.6785       2.605468       0.02659
  11     328.5        3.0787        0.0019        5.5726        5.5745       2.495876       0.02980
  10     361.9        3.0862        0.0021        5.4473        5.4494       2.363186       0.03357
   9     398.1        3.0964        0.0023        5.2995        5.3018       2.205336       0.03678
   8     437.6        3.1101        0.0024        5.1275        5.1299       2.019829       0.03966
   7     480.5        3.1287        0.0026        4.9290        4.9316       1.802831       0.04262
   6     533.0        3.1583        0.0028        4.6794        4.6822       1.523841       0.04488
   5     589.8        3.1998        0.0030        4.4188        4.4218       1.221907       0.04482
   4     651.6        3.2590        0.0031        4.1521        4.1552       0.896229       0.04454
   3     718.7        3.3401        0.0033        3.8929        3.8963       0.556135       0.04274
   2     792.3        3.4495        0.0035        3.6469        3.6504       0.200825       0.04075
   1     891.5        0.0309        0.1330        0.0000        0.1330       0.102136       0.00840
   0    1013.0        0.0320        0.1277        0.0000        0.1277       0.095670       0.00045



 Wavenumbers:  5150. -  6150. cm-1, ATM      1
 LEVEL PRESSURE   UPWARD FLUX   DIFDOWN FLUX  DIRDOWN FLUX  DOWNWARD FLUX   NET FLUX    HEATING RATE
          mb          W/m2          W/m2          W/m2        W/m2          W/m2       degree/day
  51    .06700        7.5224        0.0000       16.4735       16.4735       8.951073       0.00000
  50    .07753        7.5224        0.0000       16.4735       16.4735       8.951039       0.02764
  49    .09103        7.5224        0.0000       16.4734       16.4734       8.950994       0.02814
  48    0.1069        7.5224        0.0000       16.4734       16.4734       8.950940       0.02863
  47    0.1255        7.5224        0.0000       16.4733       16.4733       8.950876       0.02908
  46    0.1487        7.5224        0.0000       16.4732       16.4732       8.950792       0.03063
  45    0.1794        7.5224        0.0000       16.4731       16.4731       8.950673       0.03272
  44    0.2165        7.5224        0.0000       16.4730       16.4730       8.950526       0.03334
  43    0.2613        7.5224        0.0000       16.4728       16.4728       8.950347       0.03379
  42    0.3336        7.5224        0.0000       16.4725       16.4725       8.950041       0.03568
  41    0.4307        7.5224        0.0000       16.4720       16.4720       8.949621       0.03649
  40    0.5894        7.5224        0.0000       16.4713       16.4713       8.948919       0.03732
  39     1.339        7.5224        0.0000       16.4679       16.4679       8.945507       0.03842
  38     1.782        7.5224        0.0001       16.4659       16.4659       8.943504       0.03813
  37     2.292        7.5224        0.0001       16.4635       16.4636       8.941209       0.03802
  36     2.964        7.5224        0.0001       16.4605       16.4606       8.938233       0.03736
  35     3.853        7.5224        0.0001       16.4567       16.4568       8.934370       0.03666
  34     5.035        7.5224        0.0001       16.4516       16.4517       8.929359       0.03579
  33     6.613        7.5224        0.0002       16.4451       16.4453       8.922878       0.03465
  32     8.786        7.5224        0.0003       16.4367       16.4369       8.914536       0.03240
  31     11.80        7.5224        0.0004       16.4254       16.4257       8.903337       0.03135
  30     15.07        7.5224        0.0004       16.4141       16.4146       8.892194       0.02877
  29     18.79        7.5224        0.0006       16.4024       16.4030       8.880605       0.02628
  28     23.16        7.5224        0.0007       16.3900       16.3907       8.868259       0.02387
  27     28.12        7.5224        0.0008       16.3771       16.3779       8.855492       0.02170
  26     33.73        7.5225        0.0010       16.3641       16.3651       8.842637       0.01933
  25     40.54        7.5226        0.0012       16.3502       16.3514       8.828820       0.01714
  24     48.69        7.5227        0.0014       16.3354       16.3368       8.814111       0.01522
  23     57.69        7.5229        0.0017       16.3211       16.3228       8.799927       0.01329
  22     68.43        7.5231        0.0020       16.3062       16.3083       8.785180       0.01159
  21     81.20        7.5234        0.0024       16.2903       16.2927       8.769338       0.01047
  20     96.49        7.5238        0.0028       16.2726       16.2755       8.751711       0.00973
  19     114.6        7.5242        0.0034       16.2521       16.2555       8.731218       0.00957
  18     136.5        7.5248        0.0040       16.2245       16.2286       8.703723       0.01057
  17     162.9        7.5256        0.0048       16.1747       16.1795       8.653899       0.01593
  16     196.4        7.5267        0.0057       16.0518       16.0576       8.530857       0.03097
  15     218.7        7.5275        0.0063       15.8984       15.9047       8.377204       0.05834
  14     243.0        7.5285        0.0070       15.6153       15.6222       8.093702       0.09833
  13     269.0        7.5299        0.0076       15.1390       15.1465       7.616637       0.15476
  12     297.5        7.5319        0.0081       14.5779       14.5860       7.054118       0.16684
  11     328.5        7.5349        0.0087       13.8780       13.8867       6.351863       0.19094
  10     361.9        7.5392        0.0092       13.0814       13.0907       5.551463       0.20251
   9     398.1        7.5455        0.0097       12.2728       12.2825       4.737066       0.18974
   8     437.6        7.5547        0.0101       11.4776       11.4877       3.932964       0.17192
   7     480.5        7.5690        0.0106       10.7300       10.7405       3.171505       0.14955
   6     533.0        7.5946        0.0111       10.0326       10.0437       2.449103       0.11621
   5     589.8        7.6354        0.0117        9.5050        9.5167       1.881320       0.08428
   4     651.6        7.7015        0.0125        9.0814        9.0938       1.392349       0.06687
   3     718.7        7.8033        0.0133        8.7024        8.7157       0.912391       0.06032
   2     792.3        7.9547        0.0142        8.3379        8.3522       0.397504       0.05905
   1     891.5        0.0840        0.3465        0.0000        0.3465       0.262545       0.01148
   0    1013.0        0.0853        0.3401        0.0000        0.3401       0.254856       0.00053



 Wavenumbers:  6150. -  7700. cm-1, ATM      1
 LEVEL PRESSURE   UPWARD FLUX   DIFDOWN FLUX  DIRDOWN FLUX  DOWNWARD FLUX   NET FLUX    HEATING RATE
          mb          W/m2          W/m2          W/m2        W/m2          W/m2       degree/day
  51    .06700       11.7679        0.0000       30.4684       30.4684      18.700447       0.00000
  50    .07753       11.7679        0.0000       30.4683       30.4683      18.700395       0.04144
  49    .09103       11.7679        0.0000       30.4683       30.4683      18.700328       0.04174
  48    0.1069       11.7679        0.0000       30.4682       30.4682      18.700249       0.04202
  47    0.1255       11.7679        0.0000       30.4681       30.4681      18.700156       0.04227
  46    0.1487       11.7679        0.0000       30.4680       30.4680      18.700035       0.04411
  45    0.1794       11.7679        0.0000       30.4678       30.4678      18.699865       0.04669
  44    0.2165       11.7679        0.0000       30.4676       30.4676      18.699658       0.04715
  43    0.2613       11.7679        0.0000       30.4673       30.4673      18.699406       0.04744
  42    0.3336       11.7679        0.0000       30.4669       30.4669      18.698979       0.04974
  41    0.4307       11.7679        0.0000       30.4663       30.4663      18.698398       0.05052
  40    0.5894       11.7679        0.0001       30.4653       30.4653      18.697431       0.05146
  39     1.339       11.7678        0.0002       30.4604       30.4606      18.692747       0.05273
  38     1.782       11.7678        0.0002       30.4576       30.4578      18.689997       0.05235
  37     2.292       11.7677        0.0003       30.4543       30.4546      18.686839       0.05231
  36     2.964       11.7677        0.0004       30.4501       30.4504      18.682731       0.05156
  35     3.853       11.7676        0.0005       30.4445       30.4450      18.677374       0.05084
  34     5.035       11.7675        0.0006       30.4373       30.4379      18.670374       0.05000
  33     6.613       11.7674        0.0008       30.4278       30.4286      18.661227       0.04890
  32     8.786       11.7672        0.0011       30.4154       30.4165      18.649274       0.04642
  31     11.80       11.7669        0.0014       30.3984       30.3998      18.632888       0.04588
  30     15.07       11.7666        0.0018       30.3810       30.3828      18.616173       0.04315
  29     18.79       11.7663        0.0023       30.3623       30.3646      18.598272       0.04059
  28     23.16       11.7659        0.0028       30.3417       30.3445      18.578587       0.03806
  27     28.12       11.7655        0.0034       30.3196       30.3230      18.557486       0.03587
  26     33.73       11.7650        0.0041       30.2965       30.3006      18.535564       0.03296
  25     40.54       11.7645        0.0049       30.2708       30.2757      18.511224       0.03020
  24     48.69       11.7638        0.0059       30.2423       30.2482      18.484442       0.02771
  23     57.69       11.7630        0.0070       30.2139       30.2209      18.457870       0.02491
  22     68.43       11.7621        0.0083       30.1834       30.1917      18.429587       0.02223
  21     81.20       11.7610        0.0099       30.1500       30.1599      18.398847       0.02031
  20     96.49       11.7597        0.0117       30.1126       30.1243      18.364613       0.01889
  19     114.6       11.7582        0.0139       30.0695       30.0834      18.325204       0.01840
  18     136.5       11.7564        0.0165       30.0139       30.0304      18.274011       0.01968
  17     162.9       11.7543        0.0196       29.9225       29.9421      18.187753       0.02757
  16     196.4       11.7517        0.0236       29.7333       29.7569      18.005184       0.04595
  15     218.7       11.7501        0.0261       29.5259       29.5520      17.801858       0.07720
  14     243.0       11.7486        0.0288       29.1375       29.1663      17.417656       0.13325
  13     269.0       11.7476        0.0314       28.3800       28.4114      16.663799       0.24455
  12     297.5       11.7476        0.0339       27.3895       27.4234      15.675833       0.29302
  11     328.5       11.7494        0.0363       26.2257       26.2620      14.512585       0.31628
  10     361.9       11.7542        0.0385       24.8453       24.8838      13.129636       0.34990
   9     398.1       11.7637        0.0406       23.3471       23.3876      11.623949       0.35079
   8     437.6       11.7806        0.0424       21.7966       21.8390      10.058363       0.33473
   7     480.5       11.8108        0.0439       20.1977       20.2416       8.430783       0.31965
   6     533.0       11.8696        0.0456       18.4969       18.5425       6.672906       0.28279
   5     589.8       11.9676        0.0472       16.9754       17.0226       5.055048       0.24014
   4     651.6       12.1300        0.0490       15.6022       15.6511       3.521122       0.20977
   3     718.7       12.3826        0.0509       14.4232       14.4741       2.091512       0.17966
   2     792.3       12.7617        0.0531       13.4386       13.4917       0.729980       0.15615
   1     891.5        0.1210        0.5128        0.0000        0.5128       0.391841       0.02877
   0    1013.0        0.1244        0.4962        0.0000        0.4962       0.371778       0.00139



 Wavenumbers:  7700. -  8050. cm-1, ATM      1
 LEVEL PRESSURE   UPWARD FLUX   DIFDOWN FLUX  DIRDOWN FLUX  DOWNWARD FLUX   NET FLUX    HEATING RATE
          mb          W/m2          W/m2          W/m2        W/m2          W/m2       degree/day
  51    .06700        5.5676        0.0000        7.2006        7.2006       1.632993       0.00000
  50    .07753        5.5676        0.0000        7.2006        7.2006       1.632971       0.01719
  49    .09103        5.5676        0.0000        7.2005        7.2005       1.632944       0.01685
  48    0.1069        5.5676        0.0000        7.2005        7.2005       1.632913       0.01649
  47    0.1255        5.5676        0.0000        7.2005        7.2005       1.632878       0.01614
  46    0.1487        5.5676        0.0000        7.2004        7.2005       1.632833       0.01637
  45    0.1794        5.5676        0.0000        7.2004        7.2004       1.632771       0.01685
  44    0.2165        5.5676        0.0000        7.2003        7.2003       1.632699       0.01653
  43    0.2613        5.5677        0.0000        7.2003        7.2003       1.632613       0.01622
  42    0.3336        5.5677        0.0000        7.2001        7.2001       1.632470       0.01660
  41    0.4307        5.5677        0.0000        7.2000        7.2000       1.632282       0.01641
  40    0.5894        5.5678        0.0000        7.1997        7.1997       1.631973       0.01639
  39     1.339        5.5680        0.0001        7.1984        7.1985       1.630515       0.01642
  38     1.782        5.5681        0.0001        7.1977        7.1978       1.629659       0.01630
  37     2.292        5.5683        0.0001        7.1968        7.1970       1.628668       0.01641
  36     2.964        5.5685        0.0002        7.1957        7.1959       1.627367       0.01633
  35     3.853        5.5688        0.0002        7.1942        7.1944       1.625649       0.01630
  34     5.035        5.5691        0.0003        7.1922        7.1925       1.623368       0.01629
  33     6.613        5.5696        0.0004        7.1896        7.1900       1.620323       0.01628
  32     8.786        5.5703        0.0005        7.1860        7.1865       1.616225       0.01592
  31     11.80        5.5712        0.0006        7.1810        7.1816       1.610372       0.01639
  30     15.07        5.5723        0.0008        7.1755        7.1764       1.604102       0.01619
  29     18.79        5.5734        0.0010        7.1694        7.1705       1.597037       0.01602
  28     23.16        5.5748        0.0013        7.1623        7.1636       1.588809       0.01591
  27     28.12        5.5763        0.0015        7.1542        7.1558       1.579432       0.01594
  26     33.73        5.5781        0.0018        7.1452        7.1471       1.568981       0.01571
  25     40.54        5.5802        0.0022        7.1344        7.1366       1.556415       0.01559
  24     48.69        5.5828        0.0026        7.1215        7.1241       1.541353       0.01559
  23     57.69        5.5856        0.0031        7.1074        7.1106       1.524920       0.01540
  22     68.43        5.5890        0.0037        7.0909        7.0945       1.505498       0.01527
  21     81.20        5.5931        0.0044        7.0713        7.0757       1.482569       0.01515
  20     96.49        5.5981        0.0052        7.0484        7.0536       1.455538       0.01492
  19     114.6        5.6040        0.0061        7.0217        7.0278       1.423839       0.01480
  18     136.5        5.6111        0.0073        6.9906        6.9979       1.386800       0.01424
  17     162.9        5.6196        0.0086        6.9544        6.9630       1.343395       0.01387
  16     196.4        5.6309        0.0104        6.9087        6.9191       1.288178       0.01390
  15     218.7        5.6385        0.0115        6.8794        6.8909       1.252455       0.01356
  14     243.0        5.6468        0.0127        6.8481        6.8609       1.214047       0.01332
  13     269.0        5.6560        0.0141        6.8147        6.8288       1.172770       0.01339
  12     297.5        5.6663        0.0155        6.7791        6.7946       1.128357       0.01317
  11     328.5        5.6776        0.0171        6.7409        6.7580       1.080394       0.01304
  10     361.9        5.6904        0.0188        6.7002        6.7189       1.028512       0.01313
   9     398.1        5.7048        0.0206        6.6563        6.6768       0.972043       0.01316
   8     437.6        5.7211        0.0225        6.6089        6.6313       0.910256       0.01321
   7     480.5        5.7399        0.0246        6.5570        6.5815       0.841686       0.01347
   6     533.0        5.7650        0.0271        6.4915        6.5185       0.753589       0.01417
   5     589.8        5.7948        0.0298        6.4182        6.4480       0.653176       0.01490
   4     651.6        5.8307        0.0326        6.3359        6.3685       0.537826       0.01577
   3     718.7        5.8735        0.0357        6.2441        6.2798       0.406368       0.01652
   2     792.3        5.9237        0.0389        6.1437        6.1827       0.258962       0.01691
   1     891.5        0.0654        0.2691        0.0000        0.2691       0.203776       0.00470
   0    1013.0        0.0664        0.2648        0.0000        0.2648       0.198379       0.00037



 Wavenumbers:  8050. - 12850. cm-1, ATM      1
 LEVEL PRESSURE   UPWARD FLUX   DIFDOWN FLUX  DIRDOWN FLUX  DOWNWARD FLUX   NET FLUX    HEATING RATE
          mb          W/m2          W/m2          W/m2        W/m2          W/m2       degree/day
  51    .06700       72.4037        0.0000      100.8135      100.8135      28.409851       0.00000
  50    .07753       72.4037        0.0000      100.8135      100.8135      28.409851       0.00000
  49    .09103       72.4036        0.0001      100.8134      100.8135      28.409851       0.00000
  48    0.1069       72.4036        0.0001      100.8134      100.8135      28.409851      -0.00000
  47    0.1255       72.4036        0.0002      100.8133      100.8134      28.409851       0.00000
  46    0.1487       72.4036        0.0002      100.8132      100.8134      28.409851      -0.00000
  45    0.1794       72.4035        0.0003      100.8131      100.8134      28.409851       0.00000
  44    0.2165       72.4035        0.0004      100.8129      100.8133      28.409851      -0.00000
  43    0.2613       72.4034        0.0005      100.8127      100.8133      28.409851       0.00000
  42    0.3336       72.4033        0.0007      100.8125      100.8132      28.409851       0.00000
  41    0.4307       72.4032        0.0010      100.8121      100.8130      28.409851      -0.00000
  40    0.5894       72.4030        0.0014      100.8115      100.8128      28.409851       0.00000
  39     1.339       72.4020        0.0034      100.8085      100.8118      28.409851       0.00000
  38     1.782       72.4014        0.0045      100.8068      100.8113      28.409851      -0.00000
  37     2.292       72.4008        0.0059      100.8047      100.8106      28.409851       0.00000
  36     2.964       72.3999        0.0076      100.8021      100.8097      28.409851      -0.00000
  35     3.853       72.3987        0.0100      100.7986      100.8086      28.409851       0.00000
  34     5.035       72.3972        0.0131      100.7940      100.8070      28.409851      -0.00000
  33     6.613       72.3951        0.0172      100.7878      100.8050      28.409851       0.00000
  32     8.786       72.3923        0.0228      100.7794      100.8022      28.409851      -0.00000
  31     11.80       72.3884        0.0308      100.7674      100.7982      28.409851       0.00000
  30     15.07       72.3841        0.0394      100.7546      100.7939      28.409851       0.00000
  29     18.79       72.3792        0.0491      100.7400      100.7891      28.409851       0.00000
  28     23.16       72.3736        0.0605      100.7230      100.7834      28.409851      -0.00000
  27     28.12       72.3671        0.0735      100.7035      100.7770      28.409851       0.00000
  26     33.73       72.3599        0.0880      100.6817      100.7697      28.409851       0.00000
  25     40.54       72.3511        0.1057      100.6552      100.7609      28.409851      -0.00000
  24     48.69       72.3405        0.1270      100.6234      100.7503      28.409851       0.00000
  23     57.69       72.3288        0.1504      100.5883      100.7387      28.409851      -0.00000
  22     68.43       72.3149        0.1783      100.5464      100.7248      28.409851       0.00000
  21     81.20       72.2983        0.2116      100.4965      100.7082      28.409851       0.00000
  20     96.49       72.2785        0.2514      100.4370      100.6884      28.409851      -0.00000
  19     114.6       72.2552        0.2987      100.3585      100.6572      28.402020       0.00366
  18     136.5       72.2275        0.3549      100.2634      100.6182      28.390763       0.00433
  17     162.9       72.1946        0.4219      100.1407      100.5625      28.367980       0.00728
  16     196.4       72.1520        0.5089       99.9505      100.4594      28.307368       0.01526
  15     218.7       72.1242        0.5661       99.7889      100.3550      28.230822       0.02906
  14     243.0       72.0946        0.6282       99.5472      100.1754      28.080811       0.05203
  13     269.0       72.0647        0.6952       99.1452       99.8405      27.775814       0.09894
  12     297.5       72.0362        0.7672       98.5975       99.3647      27.328482       0.13267
  11     328.5       72.0124        0.8445       97.8659       98.7103      26.697927       0.17145
  10     361.9       71.9978        0.9267       96.8848       97.8114      25.813643       0.22373
   9     398.1       71.9987        1.0137       95.6330       96.6467      24.647956       0.27158
   8     437.6       72.0266        1.1052       94.0655       95.1706      23.143983       0.32156
   7     480.5       72.1042        1.2001       92.0807       93.2808      21.176667       0.38637
   6     533.0       72.2815        1.3128       89.4449       90.7577      18.476175       0.43442
   5     589.8       72.5984        1.4298       86.5544       87.9842      15.385827       0.45871
   4     651.6       73.1356        1.5506       83.4174       84.9680      11.832359       0.48595
   3     718.7       73.9633        1.6760       80.2037       81.8797       7.916329       0.49214
   2     792.3       75.1694        1.8067       77.0811       78.8878       3.718439       0.48145
   1     891.5        0.7944        3.2941        0.0000        3.2941       2.499728       0.10371
   0    1013.0        0.8073        3.2200        0.0000        3.2200       2.412743       0.00604



 Wavenumbers: 12850. - 16000. cm-1, ATM      1
 LEVEL PRESSURE   UPWARD FLUX   DIFDOWN FLUX  DIRDOWN FLUX  DOWNWARD FLUX   NET FLUX    HEATING RATE
          mb          W/m2          W/m2          W/m2        W/m2          W/m2       degree/day
  51    .06700       51.8424        0.0000       63.1686       63.1686      11.326154       0.00000
  50    .07753       51.8424        0.0001       63.1677       63.1678      11.325370       0.62819
  49    .09103       51.8424        0.0001       63.1666       63.1668      11.324392       0.61104
  48    0.1069       51.8424        0.0002       63.1654       63.1656      11.323278       0.59319
  47    0.1255       51.8423        0.0003       63.1640       63.1644      11.322009       0.57533
  46    0.1487       51.8423        0.0005       63.1623       63.1628      11.320424       0.57781
  45    0.1794       51.8423        0.0006       63.1600       63.1606      11.318294       0.58452
  44    0.2165       51.8423        0.0009       63.1573       63.1581      11.315827       0.56125
  43    0.2613       51.8423        0.0011       63.1542       63.1553      11.312975       0.53772
  42    0.3336       51.8424        0.0015       63.1493       63.1508      11.308415       0.53155
  41    0.4307       51.8425        0.0021       63.1431       63.1452      11.302691       0.49770
  40    0.5894       51.8428        0.0030       63.1338       63.1368      11.293969       0.46381
  39     1.339       51.8462        0.0072       63.0956       63.1028      11.256551       0.42127
  38     1.782       51.8497        0.0097       63.0740       63.0837      11.234052       0.42835
  37     2.292       51.8550        0.0126       63.0477       63.0602      11.205243       0.47714
  36     2.964       51.8640        0.0163       63.0095       63.0259      11.161833       0.54493
  35     3.853       51.8789        0.0213       62.9533       62.9746      11.095697       0.62764
  34     5.035       51.9015        0.0279       62.8725       62.9004      10.998979       0.69092
  33     6.613       51.9331        0.0368       62.7621       62.7988      10.865742       0.71228
  32     8.786       51.9742        0.0486       62.6182       62.6669      10.692714       0.67198
  31     11.80       52.0273        0.0656       62.4284       62.4939      10.466640       0.63294
  30     15.07       52.0778        0.0837       62.2426       62.3263      10.248569       0.56302
  29     18.79       52.1289        0.1042       62.0493       62.1535      10.024614       0.50777
  28     23.16       52.1818        0.1281       61.8424       61.9705       9.788735       0.45611
  27     28.12       52.2343        0.1553       61.6278       61.7831       9.548804       0.40787
  26     33.73       52.2817        0.1857       61.4177       61.6034       9.321681       0.34149
  25     40.54       52.3259        0.2225       61.1983       61.4208       9.094917       0.28133
  24     48.69       52.3663        0.2667       60.9680       61.2347       8.868428       0.23438
  23     57.69       52.3983        0.3152       60.7478       61.0630       8.664778       0.19089
  22     68.43       52.4230        0.3730       60.5202       60.8932       8.470218       0.15295
  21     81.20       52.4340        0.4418       60.2938       60.7356       8.301594       0.11142
  20     96.49       52.4303        0.5238       60.0643       60.5881       8.157799       0.07936
  19     114.6       52.4251        0.6218       59.8078       60.4296       8.004485       0.07159
  18     136.5       52.4117        0.7379       59.5157       60.2536       7.841874       0.06253
  17     162.9       52.3891        0.8758       59.1770       60.0528       7.663724       0.05694
  16     196.4       52.3455        1.0542       58.7604       59.8147       7.469154       0.04898
  15     218.7       52.3119        1.1712       58.4948       59.6660       7.354111       0.04368
  14     243.0       52.2733        1.2981       58.2089       59.5070       7.233734       0.04175
  13     269.0       52.2299        1.4355       57.9006       59.3360       7.106160       0.04138
  12     297.5       52.1821        1.5836       57.5668       59.1504       6.968311       0.04088
  11     328.5       52.1318        1.7434       57.2005       58.9439       6.812040       0.04249
  10     361.9       52.0805        1.9150       56.7963       58.7113       6.630761       0.04587
   9     398.1       52.0300        2.0991       56.3475       58.4466       6.416558       0.04990
   8     437.6       51.9841        2.2961       55.8422       58.1383       6.154212       0.05609
   7     480.5       51.9493        2.5060       55.2625       57.7686       5.819237       0.06579
   6     533.0       51.9310        2.7625       54.4972       57.2597       5.328646       0.07892
   5     589.8       51.9425        3.0357       53.6307       56.6664       4.723905       0.08976
   4     651.6       51.9989        3.3250       52.6606       55.9855       3.986696       0.10082
   3     718.7       52.1101        3.6306       51.6100       55.2406       3.130555       0.10759
   2     792.3       52.2897        3.9526       50.5019       54.4545       2.164849       0.11076
   1     891.5        2.2005        4.0117        0.0000        4.0117       1.811189       0.03009
   0    1013.0        2.2134        3.9687        0.0000        3.9687       1.755374       0.00388



 Wavenumbers: 16000. - 22650. cm-1, ATM      1
 LEVEL PRESSURE   UPWARD FLUX   DIFDOWN FLUX  DIRDOWN FLUX  DOWNWARD FLUX   NET FLUX    HEATING RATE
          mb          W/m2          W/m2          W/m2        W/m2          W/m2       degree/day
  51    .06700       86.9629        0.0000      100.7153      100.7153      13.752418       0.00000
  50    .07753       86.9628        0.0003      100.7147      100.7151      13.752296       0.09821
  49    .09103       86.9626        0.0008      100.7140      100.7148      13.752118       0.11139
  48    0.1069       86.9625        0.0013      100.7131      100.7144      13.751879       0.12703
  47    0.1255       86.9624        0.0018      100.7121      100.7139      13.751560       0.14479
  46    0.1487       86.9622        0.0025      100.7108      100.7133      13.751089       0.17157
  45    0.1794       86.9620        0.0035      100.7089      100.7124      13.750353       0.20202
  44    0.2165       86.9618        0.0046      100.7066      100.7112      13.749355       0.22704
  43    0.2613       86.9617        0.0060      100.7037      100.7097      13.748001       0.25525
  42    0.3336       86.9615        0.0082      100.6987      100.7069      13.745426       0.30016
  41    0.4307       86.9614        0.0112      100.6918      100.7030      13.741546       0.33741
  40    0.5894       86.9617        0.0161      100.6797      100.6958      13.734145       0.39355
  39     1.339       86.9691        0.0391      100.6095      100.6486      13.679479       0.61545
  38     1.782       86.9782        0.0526      100.5585      100.6111      13.632922       0.88636
  37     2.292       86.9930        0.0683      100.4903      100.5585      13.565550       1.11586
  36     2.964       87.0191        0.0888      100.3868      100.4755      13.456451       1.36951
  35     3.853       87.0630        0.1159      100.2306      100.3465      13.283451       1.64181
  34     5.035       87.1306        0.1518      100.0045      100.1562      13.025598       1.84200
  33     6.613       87.2258        0.1996       99.6939       99.8935      12.667748       1.91307
  32     8.786       87.3491        0.2640       99.2881       99.5521      12.202957       1.80508
  31     11.80       87.5074        0.3558       98.7496       99.1054      11.597981       1.69374
  30     15.07       87.6563        0.4540       98.2198       98.6739      11.017581       1.49848
  29     18.79       87.8054        0.5646       97.6651       98.2298      10.424336       1.34507
  28     23.16       87.9577        0.6934       97.0671       97.7605       9.802765       1.20192
  27     28.12       88.1063        0.8401       96.4406       97.2806       9.174274       1.06839
  26     33.73       88.2359        1.0037       95.8179       96.8216       8.585702       0.88493
  25     40.54       88.3499        1.2008       95.1548       96.3556       8.005731       0.71952
  24     48.69       88.4461        1.4375       94.4420       95.8795       7.433345       0.59233
  23     57.69       88.5122        1.6966       93.7416       95.4382       6.926020       0.47554
  22     68.43       88.5480        2.0039       92.9954       94.9993       6.451239       0.37324
  21     81.20       88.5322        2.3688       92.2231       94.5919       6.059689       0.25873
  20     96.49       88.4593        2.8017       91.4110       94.2127       5.753345       0.16908
  19     114.6       88.3459        3.3124       90.5070       93.8194       5.473492       0.13067
  18     136.5       88.1940        3.9128       89.4803       93.3931       5.199103       0.10551
  17     162.9       87.9981        4.6211       88.3022       92.9233       4.925260       0.08753
  16     196.4       87.7103        5.5296       86.8606       92.3903       4.679979       0.06174
  15     218.7       87.5098        6.1202       85.9492       92.0693       4.559583       0.04571
  14     243.0       87.2874        6.7565       84.9789       91.7355       4.448065       0.03868
  13     269.0       87.0421        7.4398       83.9493       91.3891       4.346981       0.03279
  12     297.5       86.7734        8.1709       82.8589       91.0299       4.256450       0.02685
  11     328.5       86.4833        8.9525       81.6982       90.6508       4.167444       0.02420
  10     361.9       86.1720        9.7845       80.4669       90.2514       4.079375       0.02228
   9     398.1       85.8390       10.6688       79.1611       89.8300       3.990925       0.02061
   8     437.6       85.4853       11.6061       77.7777       89.3838       3.898526       0.01976
   7     480.5       85.1116       12.5967       76.3136       88.9103       3.798715       0.01960
   6     533.0       84.6606       13.7964       74.5359       88.3323       3.671709       0.02043
   5     589.8       84.1872       15.0657       72.6469       87.7127       3.525500       0.02170
   4     651.6       83.6947       16.4029       70.6456       87.0484       3.353679       0.02350
   3     718.7       83.1843       17.8059       68.5367       86.3426       3.158255       0.02456
   2     792.3       82.6592       19.2698       66.3287       85.5985       2.939293       0.02511
   1     891.5       10.2121       13.0447        0.0000       13.0447       2.832624       0.00908
   0    1013.0       10.1944       12.9914        0.0000       12.9914       2.797050       0.00247



 Wavenumbers: 22650. - 29000. cm-1, ATM      1
 LEVEL PRESSURE   UPWARD FLUX   DIFDOWN FLUX  DIRDOWN FLUX  DOWNWARD FLUX   NET FLUX    HEATING RATE
          mb          W/m2          W/m2          W/m2        W/m2          W/m2       degree/day
  51    .06700       36.8507        0.0000       38.0063       38.0063       1.155590       0.00000
  50    .07753       36.8505        0.0004       38.0057       38.0061       1.155590       0.00000
  49    .09103       36.8503        0.0009       38.0050       38.0059       1.155590      -0.00000
  48    0.1069       36.8501        0.0015       38.0042       38.0057       1.155590       0.00000
  47    0.1255       36.8498        0.0021       38.0033       38.0054       1.155590       0.00000
  46    0.1487       36.8495        0.0029       38.0022       38.0051       1.155590       0.00000
  45    0.1794       36.8491        0.0041       38.0006       38.0047       1.155590      -0.00000
  44    0.2165       36.8485        0.0054       37.9987       38.0041       1.155590       0.00000
  43    0.2613       36.8479        0.0070       37.9965       38.0035       1.155590      -0.00000
  42    0.3336       36.8468        0.0096       37.9928       38.0024       1.155590       0.00000
  41    0.4307       36.8454        0.0130       37.9880       38.0010       1.155590       0.00000
  40    0.5894       36.8432        0.0187       37.9800       37.9987       1.155590      -0.00000
  39     1.339       36.8324        0.0455       37.9425       37.9880       1.155590       0.00000
  38     1.782       36.8260        0.0612       37.9204       37.9816       1.155590      -0.00000
  37     2.292       36.8187        0.0794       37.8949       37.9743       1.155590       0.00000
  36     2.964       36.8091        0.1032       37.8614       37.9647       1.155590      -0.00000
  35     3.853       36.7964        0.1347       37.8172       37.9520       1.155590      -0.00000
  34     5.035       36.7795        0.1765       37.7586       37.9351       1.155590       0.00000
  33     6.613       36.7570        0.2323       37.6803       37.9126       1.155590      -0.00000
  32     8.786       36.7268        0.3073       37.5750       37.8823       1.155590       0.00000
  31     11.80       36.6836        0.4143       37.4249       37.8392       1.155590       0.00000
  30     15.07       36.6374        0.5288       37.2642       37.7930       1.155590       0.00000
  29     18.79       36.5854        0.6577       37.0833       37.7410       1.155590      -0.00000
  28     23.16       36.5249        0.8075       36.8730       37.6805       1.155590       0.00000
  27     28.12       36.4561        0.9779       36.6338       37.6117       1.155590       0.00000
  26     33.73       36.3795        1.1674       36.3677       37.5351       1.155590       0.00000
  25     40.54       36.2877        1.3947       36.0486       37.4433       1.155590       0.00000
  24     48.69       36.1780        1.6663       35.6672       37.3335       1.155590       0.00000
  23     57.69       36.0586        1.9615       35.2527       37.2142       1.155590       0.00000
  22     68.43       35.9181        2.3088       34.7649       37.0737       1.155590       0.00000
  21     81.20       35.7531        2.7165       34.1922       36.9087       1.155590       0.00000
  20     96.49       35.5598        3.1937       33.5217       36.7154       1.155590       0.00000
  19     114.6       35.3350        3.7483       32.7424       36.4906       1.155590      -0.00000
  18     136.5       35.0750        4.3890       31.8416       36.2306       1.155590       0.00000
  17     162.9       34.7743        5.1291       30.8008       35.9298       1.155590      -0.00000
  16     196.4       34.3981        6.0531       29.5007       35.5537       1.155590      -0.00000
  15     218.7       34.1595        6.6384       28.6767       35.3151       1.155590       0.00000
  14     243.0       33.9073        7.2561       27.8068       35.0629       1.155590      -0.00000
  13     269.0       33.6422        7.9044       26.8933       34.7978       1.155590       0.00000
  12     297.5       33.3649        8.5812       25.9393       34.5205       1.155590      -0.00000
  11     328.5       33.0756        9.2861       24.9451       34.2312       1.155590       0.00000
  10     361.9       32.7756       10.0152       23.9160       33.9312       1.155590       0.00000
   9     398.1       32.4655       10.7670       22.8541       33.6211       1.155590       0.00000
   8     437.6       32.1467       11.5378       21.7645       33.3023       1.155590      -0.00000
   7     480.5       31.8205       12.3239       20.6521       32.9760       1.155590      -0.00000
   6     533.0       31.4395       13.2382       19.3569       32.5951       1.155590       0.00000
   5     589.8       31.0529       14.1617       18.0467       32.2085       1.155590       0.00000
   4     651.6       30.6632       15.0872       16.7316       31.8188       1.155590      -0.00000
   3     718.7       30.2732       16.0074       15.4214       31.4288       1.155590      -0.00000
   2     792.3       29.8860       16.9140       14.1276       31.0416       1.155590       0.00000
   1     891.5        4.2460        5.4000        0.0000        5.4000       1.154014       0.00013
   0    1013.0        4.2060        5.3600        0.0000        5.3600       1.154014      -0.00000



 Wavenumbers: 29000. - 38000. cm-1, ATM      1
 LEVEL PRESSURE   UPWARD FLUX   DIFDOWN FLUX  DIRDOWN FLUX  DOWNWARD FLUX   NET FLUX    HEATING RATE
          mb          W/m2          W/m2          W/m2        W/m2          W/m2       degree/day
  51    .06700        5.2813        0.0000       13.4026       13.4026       8.121279       0.00000
  50    .07753        5.2811        0.0003       13.3983       13.3986       8.117481       3.04477
  49    .09103        5.2808        0.0007       13.3921       13.3928       8.111961       3.45011
  48    0.1069        5.2805        0.0011       13.3840       13.3851       8.104583       3.92728
  47    0.1255        5.2802        0.0016       13.3733       13.3749       8.094737       4.46377
  46    0.1487        5.2798        0.0022       13.3579       13.3601       8.080292       5.26509
  45    0.1794        5.2792        0.0030       13.3340       13.3371       8.057890       6.15012
  44    0.2165        5.2786        0.0040       13.3024       13.3064       8.027866       6.82974
  43    0.2613        5.2778        0.0052       13.2604       13.2656       7.987806       7.55123
  42    0.3336        5.2766        0.0071       13.1833       13.1904       7.913788       8.62977
  41    0.4307        5.2751        0.0096       13.0729       13.0825       7.807398       9.25034
  40    0.5894        5.2728        0.0135       12.8796       12.8931       7.620321       9.94855
  39     1.339        5.2647        0.0299       11.9165       11.9465       6.681721      10.56693
  38     1.782        5.2618        0.0383       11.4399       11.4783       6.216519       8.85669
  37     2.292        5.2597        0.0473       10.9796       11.0270       5.767274       7.44068
  36     2.964        5.2589        0.0584       10.4786       10.5370       5.278142       6.14008
  35     3.853        5.2605        0.0721        9.9429       10.0150       4.754499       4.96947
  34     5.035        5.2653        0.0892        9.4007        9.4899       4.224602       3.78536
  33     6.613        5.2735        0.1109        8.8752        8.9861       3.712599       2.73717
  32     8.786        5.2847        0.1389        8.3786        8.5174       3.232766       1.86350
  31     11.80        5.2986        0.1773        7.8897        8.0670       2.768351       1.30022
  30     15.07        5.3111        0.2170        7.5108        7.7278       2.416742       0.90779
  29     18.79        5.3231        0.2603        7.1776        7.4379       2.114853       0.68448
  28     23.16        5.3347        0.3091        6.8664        7.1756       1.840867       0.52980
  27     28.12        5.3451        0.3631        6.5780        6.9412       1.596095       0.41610
  26     33.73        5.3516        0.4220        6.3195        6.7415       1.389951       0.30994
  25     40.54        5.3532        0.4915        6.0663        6.5578       1.204567       0.22999
  24     48.69        5.3497        0.5730        5.8128        6.3859       1.036237       0.17420
  23     57.69        5.3403        0.6601        5.5777        6.2378       0.897506       0.13004
  22     68.43        5.3233        0.7610        5.3379        6.0989       0.775535       0.09589
  21     81.20        5.2943        0.8782        5.0965        5.9746       0.680368       0.06288
  20     96.49        5.2519        1.0136        4.8476        5.8613       0.609332       0.03921
  19     114.6        5.1999        1.1674        4.5799        5.7472       0.547344       0.02894
  18     136.5        5.1395        1.3395        4.2891        5.6285       0.489078       0.02240
  17     162.9        5.0706        1.5307        3.9732        5.5039       0.433349       0.01781
  16     196.4        4.9830        1.7605        3.6080        5.3685       0.385522       0.01204
  15     218.7        4.9279        1.9008        3.3898        5.2905       0.362671       0.00868
  14     243.0        4.8708        2.0441        3.1686        5.2126       0.341881       0.00721
  13     269.0        4.8120        2.1894        2.9461        5.1355       0.323486       0.00597
  12     297.5        4.7520        2.3356        2.7239        5.0595       0.307517       0.00474
  11     328.5        4.6917        2.4813        2.5029        4.9842       0.292461       0.00409
  10     361.9        4.6316        2.6253        2.2846        4.9099       0.278345       0.00357
   9     398.1        4.5721        2.7665        2.0708        4.8372       0.265164       0.00307
   8     437.6        4.5137        2.9037        1.8626        4.7663       0.252639       0.00268
   7     480.5        4.4569        3.0357        1.6621        4.6978       0.240909       0.00230
   6     533.0        4.3944        3.1790        1.4437        4.6227       0.228296       0.00203
   5     589.8        4.3353        3.3125        1.2390        4.5515       0.216249       0.00179
   4     651.6        4.2802        3.4348        1.0500        4.4848       0.204605       0.00159
   3     718.7        4.2295        3.5450        0.8778        4.4228       0.193325       0.00142
   2     792.3        4.1836        3.6422        0.7237        4.3660       0.182384       0.00125
   1     891.5        0.6404        0.8154        0.0000        0.8154       0.174956       0.00063
   0    1013.0        0.6291        0.8017        0.0000        0.8017       0.172613       0.00016



 Wavenumbers: 38000. - 50000. cm-1, ATM      1
 LEVEL PRESSURE   UPWARD FLUX   DIFDOWN FLUX  DIRDOWN FLUX  DOWNWARD FLUX   NET FLUX    HEATING RATE
          mb          W/m2          W/m2          W/m2        W/m2          W/m2       degree/day
  51    .06700        0.0051        0.0000        0.8267        0.8267       0.821528       0.00000
  50    .07753        0.0051        0.0001        0.8242        0.8243       0.819196       1.86936
  49    .09103        0.0050        0.0002        0.8207        0.8209       0.815872       2.07705
  48    0.1069        0.0049        0.0002        0.8162        0.8164       0.811514       2.31984
  47    0.1255        0.0048        0.0004        0.8103        0.8106       0.805801       2.59006
  46    0.1487        0.0047        0.0005        0.8018        0.8023       0.797567       3.00143
  45    0.1794        0.0045        0.0007        0.7889        0.7896       0.785013       3.44648
  44    0.2165        0.0044        0.0009        0.7720        0.7729       0.768507       3.75474
  43    0.2613        0.0042        0.0011        0.7500        0.7511       0.746955       4.06246
  42    0.3336        0.0039        0.0015        0.7106        0.7121       0.708267       4.51071
  41    0.4307        0.0035        0.0019        0.6566        0.6584       0.654972       4.63387
  40    0.5894        0.0029        0.0024        0.5680        0.5704       0.567464       4.65357
  39     1.339        0.0015        0.0030        0.2422        0.2452       0.243720       3.64476
  38     1.782        0.0010        0.0026        0.1493        0.1519       0.150889       1.76735
  37     2.292        0.0007        0.0022        0.0924        0.0946       0.093932       0.94336
  36     2.964        0.0005        0.0018        0.0539        0.0557       0.055224       0.48589
  35     3.853        0.0003        0.0013        0.0295        0.0308       0.030502       0.23462
  34     5.035        0.0002        0.0010        0.0154        0.0164       0.016181       0.10230
  33     6.613        0.0001        0.0007        0.0073        0.0080       0.007912       0.04420
  32     8.786        0.0000        0.0004        0.0030        0.0034       0.003390       0.01756
  31     11.80        0.0000        0.0003        0.0010        0.0012       0.001199       0.00613
  30     15.07        0.0000        0.0001        0.0003        0.0005       0.000463       0.00190
  29     18.79        0.0000        0.0001        0.0001        0.0002       0.000182       0.00064
  28     23.16        0.0000        0.0000        0.0000        0.0001       0.000071       0.00022
  27     28.12        0.0000        0.0000        0.0000        0.0000       0.000028       0.00007
  26     33.73        0.0000        0.0000        0.0000        0.0000       0.000011       0.00002
  25     40.54        0.0000        0.0000        0.0000        0.0000       0.000005       0.00001
  24     48.69        0.0000        0.0000        0.0000        0.0000       0.000002       0.00000
  23     57.69        0.0000        0.0000        0.0000        0.0000       0.000001       0.00000
  22     68.43        0.0000        0.0000        0.0000        0.0000       0.000000       0.00000
  21     81.20        0.0000        0.0000        0.0000        0.0000       0.000000       0.00000
  20     96.49        0.0000        0.0000        0.0000        0.0000       0.000000       0.00000
  19     114.6        0.0000        0.0000        0.0000        0.0000       0.000000       0.00000
  18     136.5        0.0000        0.0000        0.0000        0.0000       0.000000       0.00000
  17     162.9        0.0000        0.0000        0.0000        0.0000       0.000000       0.00000
  16     196.4        0.0000        0.0000        0.0000        0.0000       0.000000       0.00000
  15     218.7        0.0000        0.0000        0.0000        0.0000       0.000000       0.00000
  14     243.0        0.0000        0.0000        0.0000        0.0000       0.000000       0.00000
  13     269.0        0.0000        0.0000        0.0000        0.0000       0.000000       0.00000
  12     297.5        0.0000        0.0000        0.0000        0.0000       0.000000       0.00000
  11     328.5        0.0000        0.0000        0.0000        0.0000       0.000000       0.00000
  10     361.9        0.0000        0.0000        0.0000        0.0000       0.000000       0.00000
   9     398.1        0.0000        0.0000        0.0000        0.0000       0.000000       0.00000
   8     437.6        0.0000        0.0000        0.0000        0.0000       0.000000       0.00000
   7     480.5        0.0000        0.0000        0.0000        0.0000       0.000000       0.00000
   6     533.0        0.0000        0.0000        0.0000        0.0000       0.000000       0.00000
   5     589.8        0.0000        0.0000        0.0000        0.0000       0.000000       0.00000
   4     651.6        0.0000        0.0000        0.0000        0.0000       0.000000       0.00000
   3     718.7        0.0000        0.0000        0.0000        0.0000       0.000000       0.00000
   2     792.3        0.0000        0.0000        0.0000        0.0000       0.000000       0.00000
   1     891.5        0.0000        0.0000        0.0000        0.0000       0.000000       0.00000
   0    1013.0        0.0000        0.0000        0.0000        0.0000       0.000000       0.00000



 Wavenumbers:   820. -  2600. cm-1, ATM      1
 LEVEL PRESSURE   UPWARD FLUX   DIFDOWN FLUX  DIRDOWN FLUX  DOWNWARD FLUX   NET FLUX    HEATING RATE
          mb          W/m2          W/m2          W/m2        W/m2          W/m2       degree/day
  51    .06700        0.9192        0.0000        3.8670        3.8670       2.947813       0.00000
  50    .07753        0.9192        0.0000        3.8643        3.8643       2.945096       2.17771
  49    .09103        0.9192        0.0000        3.8635        3.8635       2.944286       0.50640
  48    0.1069        0.9192        0.0000        3.8626        3.8626       2.943395       0.47417
  47    0.1255        0.9192        0.0000        3.8616        3.8616       2.942435       0.43561
  46    0.1487        0.9192        0.0000        3.8605        3.8605       2.941325       0.40439
  45    0.1794        0.9192        0.0000        3.8592        3.8592       2.939990       0.36650
  44    0.2165        0.9192        0.0000        3.8578        3.8578       2.938612       0.31348
  43    0.2613        0.9192        0.0000        3.8564        3.8564       2.937152       0.27524
  42    0.3336        0.9192        0.0000        3.8541        3.8541       2.934920       0.26015
  41    0.4307        0.9192        0.0000        3.8512        3.8512       2.932038       0.25065
  40    0.5894        0.9192        0.0000        3.8465        3.8465       2.927311       0.25136
  39     1.339        0.9192        0.0000        3.8251        3.8251       2.905933       0.24067
  38     1.782        0.9192        0.0000        3.8133        3.8133       2.894119       0.22492
  37     2.292        0.9192        0.0000        3.8003        3.8003       2.881056       0.21636
  36     2.964        0.9192        0.0000        3.7841        3.7841       2.864925       0.20249
  35     3.853        0.9192        0.0000        3.7642        3.7642       2.845008       0.18902
  34     5.035        0.9192        0.0000        3.7395        3.7395       2.820313       0.17641
  33     6.613        0.9192        0.0000        3.7090        3.7090       2.789772       0.16327
  32     8.786        0.9192        0.0000        3.6726        3.6726       2.753371       0.14137
  31     11.80        0.9193        0.0000        3.6320        3.6320       2.712766       0.11368
  30     15.07        0.9193        0.0000        3.6016        3.6016       2.682371       0.07848
  29     18.79        0.9193        0.0000        3.5777        3.5777       2.658459       0.05421
  28     23.16        0.9193        0.0000        3.5564        3.5564       2.637090       0.04132
  27     28.12        0.9193        0.0000        3.5348        3.5348       2.615525       0.03666
  26     33.73        0.9193        0.0000        3.5118        3.5118       2.592470       0.03466
  25     40.54        0.9194        0.0000        3.4849        3.4849       2.565556       0.03339
  24     48.69        0.9194        0.0000        3.4537        3.4537       2.534272       0.03237
  23     57.69        0.9195        0.0000        3.4210        3.4210       2.501563       0.03066
  22     68.43        0.9195        0.0000        3.3844        3.3844       2.464934       0.02879
  21     81.20        0.9196        0.0000        3.3441        3.3441       2.424584       0.02666
  20     96.49        0.9196        0.0000        3.2998        3.2998       2.380155       0.02452
  19     114.6        0.9197        0.0000        3.2506        3.2507       2.330929       0.02299
  18     136.5        0.9198        0.0000        3.1936        3.1936       2.273769       0.02198
  17     162.9        0.9201        0.0000        3.1181        3.1181       2.198076       0.02419
  16     196.4        0.9205        0.0000        3.0090        3.0090       2.088523       0.02758
  15     218.7        0.9208        0.0000        2.9420        2.9420       2.021249       0.02554
  14     243.0        0.9212        0.0000        2.8605        2.8605       1.939291       0.02843
  13     269.0        0.9219        0.0000        2.7419        2.7420       1.820047       0.03868
  12     297.5        0.9231        0.0000        2.5729        2.5729       1.649748       0.05051
  11     328.5        0.9251        0.0000        2.3602        2.3602       1.435146       0.05835
  10     361.9        0.9280        0.0000        2.1524        2.1524       1.224465       0.05330
   9     398.1        0.9321        0.0000        1.9974        1.9974       1.065335       0.03707
   8     437.6        0.9378        0.0000        1.8835        1.8835       0.945690       0.02558
   7     480.5        0.9460        0.0000        1.7734        1.7735       0.827438       0.02322
   6     533.0        0.9594        0.0000        1.6397        1.6398       0.680385       0.02366
   5     589.8        0.9785        0.0000        1.5068        1.5069       0.528329       0.02257
   4     651.6        1.0068        0.0000        1.3807        1.3807       0.373919       0.02112
   3     718.7        1.0447        0.0000        1.2680        1.2681       0.223398       0.01892
   2     792.3        1.0923        0.0000        1.1659        1.1660       0.073717       0.01717
   1     891.5        0.0074        0.0353        0.0000        0.0353       0.027892       0.00390
   0    1013.0        0.0081        0.0322        0.0000        0.0322       0.024121       0.00026

  Modules and versions used in this calculation:

       rrtmg_sw.1col.f90:  $Revision$                    rrtmg_sw_init.f90:  $Revision$        
     rrtmgsw_cldprop.f90:  $Revision$                  rrtmgsw_cldprmc.f90:  NOT USED          
     rrtmg_sw_reftra.f90:  $Revision$                  rrtmg_sw_spcvrt.f90:  NOT USED          
     rrtmg_sw_spcvmc.f90:  NOT USED                    rrtmgsw_setcoef.f90:  NOT USED          
     rrtmg_sw_taumol.f90:  $Revision$                  rrtmg_sw_vrtqdr.f90:  NOT USED          
                rrtatm.f:  NOT USED                             util_xxx.f:  NOT USED          
                 extra.f:  NOT USED                       rrtmg_sw_k_g.f90:  $Revision$        

