

 Wavenumbers:   820. - 50000. cm-1, ATM      1
 LEVEL PRESSURE   UPWARD FLUX   DIFDOWN FLUX  DIRDOWN FLUX  DOWNWARD FLUX   NET FLUX    HEATING RATE
          mb          W/m2          W/m2          W/m2        W/m2          W/m2       degree/day
  51    .06700      184.9076        0.0000      397.8738      397.8738     212.966147       0.00000
  50    .07753      184.9070        0.0012      397.8577      397.8589     212.951864      11.44821
  49    .09103      184.9063        0.0026      397.8418      397.8444     212.938187       8.54864
  48    0.1069      184.9054        0.0043      397.8230      397.8272     212.921853       8.69426
  47    0.1255      184.9044        0.0062      397.7997      397.8059     212.901430       9.25898
  46    0.1487      184.9032        0.0086      397.7676      397.7762     212.873000      10.36286
  45    0.1794      184.9017        0.0119      397.7205      397.7324     212.830752      11.59830
  44    0.2165      184.8999        0.0158      397.6602      397.6760     212.776162      12.41831
  43    0.2613      184.8978        0.0204      397.5829      397.6033     212.705443      13.33019
  42    0.3336      184.8946        0.0279      397.4449      397.4728     212.578152      14.84091
  41    0.4307      184.8906        0.0378      397.2524      397.2901     212.399504      15.53304
  40    0.5894      184.8847        0.0536      396.9253      396.9789     212.094205      16.23539
  39     1.339      184.8674        0.1246      395.4254      395.5499     210.682511      15.89312
  38     1.782      184.8643        0.1643      394.7288      394.8931     210.028823      12.44516
  37     2.292      184.8668        0.2095      394.0572      394.2667     209.399934      10.41605
  36     2.964      184.8791        0.2682      393.3007      393.5689     208.689774       8.91465
  35     3.853      184.9081        0.3450      392.4318      392.7768     207.868631       7.79280
  34     5.035      184.9591        0.4459      391.4441      391.8900     206.930829       6.69926
  33     6.613      185.0342        0.5796      390.3268      390.9064     205.872128       5.65982
  32     8.786      185.1306        0.7584      389.0624      389.8208     204.690233       4.59005
  31     11.80      185.2475        1.0121      387.5500      388.5621     203.314626       3.85127
  30     15.07      185.3485        1.2823      386.1556      387.4379     202.089367       3.16338
  29     18.79      185.4409        1.5851      384.7502      386.3353     200.894353       2.70946
  28     23.16      185.5237        1.9358      383.2686      385.2044     199.680768       2.34668
  27     28.12      185.5890        2.3336      381.7329      384.0665     198.477522       2.04544
  26     33.73      185.6189        2.7755      380.1982      382.9736     197.354709       1.68818
  25     40.54      185.6051        3.3053      378.5384      381.8437     196.238514       1.38477
  24     48.69      185.5408        3.9383      376.7214      380.6597     195.118909       1.15861
  23     57.69      185.4245        4.6270      374.8959      379.5229     194.098389       0.95658
  22     68.43      185.2370        5.4387      372.8999      378.3387     193.101683       0.78354
  21     81.20      184.9459        6.3953      370.7496      377.1450     192.199011       0.59647
  20     96.49      184.5384        7.5205      368.4056      375.9261     191.387699       0.44779
  19     114.6      184.0356        8.8344      365.7513      374.5857     190.550061       0.39112
  18     136.5      183.4279       10.3599      362.7231      373.0830     189.655104       0.34413
  17     162.9      182.6992       12.1326      359.1748      371.3073     188.608099       0.33467
  16     196.4      181.7327       14.3667      354.5718      368.9385     187.205824       0.35297
  15     218.7      181.0959       15.7950      351.4437      367.2387     186.142795       0.40359
  14     243.0      180.4093       17.3138      347.7111      365.0249     184.615632       0.52967
  13     269.0      179.6731       18.9210      342.9441      361.8651     182.192071       0.78619
  12     297.5      178.8886       20.6144      337.4137      358.0281     179.139564       0.90534
  11     328.5      178.0597       22.3955      331.1302      353.5257     175.465998       0.99883
  10     361.9      177.1908       24.2586      324.1219      348.3805     171.189716       1.08194
   9     398.1      176.2845       26.2030      316.6066      342.8095     166.525041       1.08676
   8     437.6      175.3488       28.2238      308.5895      336.8133     161.464465       1.08198
   7     480.5      174.3971       30.3152      299.9349      330.2501     155.852973       1.10208
   6     533.0      173.3037       32.7902      289.7021      322.4924     149.188694       1.07207
   5     589.8      172.2289       35.3422      279.3388      314.6810     142.452091       0.99993
   4     651.6      171.2123       37.9587      268.7786      306.7373     135.525025       0.94729
   3     718.7      170.2810       40.6304      258.2837      298.9140     128.633047       0.86613
   2     792.3      169.4689       43.3429      248.0774      291.4203     121.951379       0.76631
   1     891.5      140.1329       87.4056      167.3021      254.7076     114.574755       0.62772
   0    1013.0      139.4987       89.1211      157.3231      246.4442     106.945512       0.52974



 Wavenumbers:  2600. -  3250. cm-1, ATM      1
 LEVEL PRESSURE   UPWARD FLUX   DIFDOWN FLUX  DIRDOWN FLUX  DOWNWARD FLUX   NET FLUX    HEATING RATE
          mb          W/m2          W/m2          W/m2        W/m2          W/m2       degree/day
  51    .06700        0.3406        0.0000        3.5066        3.5066       3.165995       0.00000
  50    .07753        0.3406        0.0000        3.5066        3.5066       3.165987       0.00640
  49    .09103        0.3406        0.0000        3.5066        3.5066       3.165977       0.00627
  48    0.1069        0.3406        0.0000        3.5066        3.5066       3.165965       0.00613
  47    0.1255        0.3406        0.0000        3.5066        3.5066       3.165952       0.00599
  46    0.1487        0.3406        0.0000        3.5066        3.5066       3.165935       0.00607
  45    0.1794        0.3406        0.0000        3.5065        3.5065       3.165913       0.00624
  44    0.2165        0.3406        0.0000        3.5065        3.5065       3.165886       0.00611
  43    0.2613        0.3406        0.0000        3.5065        3.5065       3.165854       0.00598
  42    0.3336        0.3406        0.0000        3.5064        3.5064       3.165801       0.00615
  41    0.4307        0.3406        0.0000        3.5064        3.5064       3.165730       0.00618
  40    0.5894        0.3406        0.0000        3.5062        3.5062       3.165611       0.00633
  39     1.339        0.3406        0.0000        3.5055        3.5055       3.164912       0.00787
  38     1.782        0.3406        0.0000        3.5050        3.5050       3.164382       0.01011
  37     2.292        0.3406        0.0000        3.5043        3.5043       3.163689       0.01147
  36     2.964        0.3406        0.0000        3.5033        3.5033       3.162698       0.01245
  35     3.853        0.3406        0.0000        3.5019        3.5019       3.161321       0.01307
  34     5.035        0.3406        0.0000        3.5001        3.5001       3.159460       0.01329
  33     6.613        0.3406        0.0000        3.4977        3.4977       3.157050       0.01288
  32     8.786        0.3406        0.0000        3.4947        3.4947       3.154079       0.01154
  31     11.80        0.3406        0.0000        3.4911        3.4911       3.150444       0.01018
  30     15.07        0.3406        0.0000        3.4878        3.4878       3.147223       0.00832
  29     18.79        0.3406        0.0000        3.4848        3.4848       3.144159       0.00695
  28     23.16        0.3406        0.0000        3.4816        3.4816       3.140939       0.00623
  27     28.12        0.3406        0.0000        3.4779        3.4779       3.137321       0.00615
  26     33.73        0.3406        0.0000        3.4735        3.4735       3.132854       0.00672
  25     40.54        0.3406        0.0000        3.4671        3.4671       3.126527       0.00785
  24     48.69        0.3406        0.0000        3.4582        3.4583       3.117631       0.00921
  23     57.69        0.3406        0.0000        3.4472        3.4472       3.106582       0.01036
  22     68.43        0.3406        0.0000        3.4329        3.4329       3.092320       0.01121
  21     81.20        0.3406        0.0000        3.4152        3.4152       3.074588       0.01172
  20     96.49        0.3406        0.0000        3.3940        3.3941       3.053439       0.01167
  19     114.6        0.3407        0.0000        3.3692        3.3692       3.028543       0.01162
  18     136.5        0.3407        0.0001        3.3419        3.3420       3.001315       0.01047
  17     162.9        0.3407        0.0001        3.3129        3.3129       2.972225       0.00930
  16     196.4        0.3408        0.0001        3.2793        3.2794       2.938622       0.00846
  15     218.7        0.3409        0.0001        3.2578        3.2578       2.916976       0.00822
  14     243.0        0.3410        0.0001        3.2320        3.2320       2.891056       0.00899
  13     269.0        0.3412        0.0001        3.1968        3.1969       2.855731       0.01146
  12     297.5        0.3415        0.0001        3.1489        3.1490       2.807530       0.01430
  11     328.5        0.3420        0.0001        3.0821        3.0822       2.740165       0.01832
  10     361.9        0.3427        0.0001        2.9902        2.9904       2.647632       0.02341
   9     398.1        0.3438        0.0001        2.8715        2.8716       2.527861       0.02790
   8     437.6        0.3452        0.0001        2.7276        2.7278       2.382556       0.03107
   7     480.5        0.3474        0.0001        2.5595        2.5597       2.212235       0.03345
   6     533.0        0.3511        0.0002        2.3617        2.3619       2.010788       0.03241
   5     589.8        0.3565        0.0002        2.1649        2.1651       1.808628       0.03001
   4     651.6        0.3643        0.0002        1.9608        1.9609       1.596627       0.02899
   3     718.7        0.3753        0.0002        1.7593        1.7595       1.384222       0.02669
   2     792.3        0.3901        0.0002        1.5761        1.5762       1.186096       0.02272
   1     891.5        0.2069        0.2171        0.9741        1.1912       0.984255       0.01718
   0    1013.0        0.2250        0.1954        0.8227        1.0181       0.793140       0.01327



 Wavenumbers:  3250. -  4000. cm-1, ATM      1
 LEVEL PRESSURE   UPWARD FLUX   DIFDOWN FLUX  DIRDOWN FLUX  DOWNWARD FLUX   NET FLUX    HEATING RATE
          mb          W/m2          W/m2          W/m2        W/m2          W/m2       degree/day
  51    .06700        0.0013        0.0000        5.9117        5.9117       5.910339       0.00000
  50    .07753        0.0013        0.0000        5.9075        5.9075       5.906149       3.35808
  49    .09103        0.0013        0.0000        5.9050        5.9050       5.903706       1.52677
  48    0.1069        0.0013        0.0000        5.9032        5.9032       5.901840       0.99346
  47    0.1255        0.0013        0.0000        5.9014        5.9014       5.900082       0.79708
  46    0.1487        0.0013        0.0000        5.8995        5.8995       5.898193       0.68848
  45    0.1794        0.0013        0.0000        5.8974        5.8974       5.896044       0.58983
  44    0.2165        0.0013        0.0000        5.8952        5.8952       5.893928       0.48155
  43    0.2613        0.0013        0.0000        5.8931        5.8931       5.891769       0.40696
  42    0.3336        0.0013        0.0000        5.8899        5.8899       5.888611       0.36820
  41    0.4307        0.0013        0.0000        5.8861        5.8861       5.884773       0.33365
  40    0.5894        0.0013        0.0000        5.8803        5.8803       5.878971       0.30857
  39     1.339        0.0013        0.0000        5.8597        5.8597       5.858373       0.23189
  38     1.782        0.0013        0.0000        5.8513        5.8513       5.849949       0.16039
  37     2.292        0.0013        0.0000        5.8431        5.8431       5.841778       0.13533
  36     2.964        0.0013        0.0000        5.8334        5.8334       5.832138       0.12100
  35     3.853        0.0013        0.0000        5.8213        5.8213       5.819962       0.11555
  34     5.035        0.0013        0.0000        5.8052        5.8052       5.803867       0.11498
  33     6.613        0.0013        0.0000        5.7833        5.7834       5.782046       0.11666
  32     8.786        0.0013        0.0000        5.7531        5.7531       5.751844       0.11729
  31     11.80        0.0013        0.0000        5.7090        5.7090       5.707676       0.12366
  30     15.07        0.0013        0.0000        5.6615        5.6615       5.660211       0.12254
  29     18.79        0.0013        0.0000        5.6093        5.6094       5.608075       0.11821
  28     23.16        0.0013        0.0000        5.5524        5.5524       5.551150       0.11008
  27     28.12        0.0013        0.0000        5.4935        5.4935       5.492271       0.10009
  26     33.73        0.0013        0.0000        5.4348        5.4349       5.433582       0.08824
  25     40.54        0.0013        0.0001        5.3707        5.3708       5.369520       0.07948
  24     48.69        0.0013        0.0001        5.2985        5.2985       5.297287       0.07475
  23     57.69        0.0012        0.0001        5.2215        5.2216       5.220348       0.07212
  22     68.43        0.0012        0.0001        5.1318        5.1319       5.130688       0.07048
  21     81.20        0.0012        0.0001        5.0284        5.0285       5.027259       0.06834
  20     96.49        0.0012        0.0001        4.9122        4.9123       4.911124       0.06410
  19     114.6        0.0012        0.0001        4.7780        4.7782       4.777013       0.06262
  18     136.5        0.0011        0.0002        4.6285        4.6287       4.627535       0.05748
  17     162.9        0.0011        0.0002        4.4406        4.4407       4.439623       0.06006
  16     196.4        0.0011        0.0002        4.1548        4.1550       4.153949       0.07191
  15     218.7        0.0011        0.0002        3.9564        3.9566       3.955568       0.07532
  14     243.0        0.0010        0.0002        3.7055        3.7058       3.704733       0.08700
  13     269.0        0.0010        0.0002        3.3399        3.3401       3.339093       0.11861
  12     297.5        0.0010        0.0002        2.8954        2.8956       2.894601       0.13183
  11     328.5        0.0010        0.0002        2.4388        2.4390       2.438055       0.12413
  10     361.9        0.0010        0.0002        2.0269        2.0271       2.026107       0.10423
   9     398.1        0.0010        0.0002        1.6753        1.6755       1.674502       0.08192
   8     437.6        0.0010        0.0002        1.3592        1.3594       1.358355       0.06759
   7     480.5        0.0011        0.0002        1.0616        1.0618       1.060720       0.05845
   6     533.0        0.0012        0.0001        0.7543        0.7544       0.753278       0.04946
   5     589.8        0.0013        0.0001        0.4951        0.4952       0.493886       0.03850
   4     651.6        0.0017        0.0001        0.2943        0.2943       0.292601       0.02753
   3     718.7        0.0025        0.0001        0.1528        0.1529       0.150342       0.01788
   2     792.3        0.0041        0.0000        0.0658        0.0658       0.061742       0.01016
   1     891.5        0.0002        0.0031        0.0111        0.0142       0.013996       0.00406
   0    1013.0        0.0009        0.0007        0.0010        0.0017       0.000747       0.00092



 Wavenumbers:  4000. -  4650. cm-1, ATM      1
 LEVEL PRESSURE   UPWARD FLUX   DIFDOWN FLUX  DIRDOWN FLUX  DOWNWARD FLUX   NET FLUX    HEATING RATE
          mb          W/m2          W/m2          W/m2        W/m2          W/m2       degree/day
  51    .06700        1.0894        0.0000        6.9421        6.9421       5.852653       0.00000
  50    .07753        1.0894        0.0000        6.9421        6.9421       5.852652       0.00079
  49    .09103        1.0894        0.0000        6.9421        6.9421       5.852651       0.00078
  48    0.1069        1.0894        0.0000        6.9421        6.9421       5.852650       0.00076
  47    0.1255        1.0894        0.0000        6.9421        6.9421       5.852648       0.00074
  46    0.1487        1.0894        0.0000        6.9421        6.9421       5.852646       0.00075
  45    0.1794        1.0894        0.0000        6.9421        6.9421       5.852643       0.00077
  44    0.2165        1.0894        0.0000        6.9421        6.9421       5.852640       0.00076
  43    0.2613        1.0894        0.0000        6.9420        6.9420       5.852636       0.00074
  42    0.3336        1.0894        0.0000        6.9420        6.9420       5.852629       0.00076
  41    0.4307        1.0894        0.0000        6.9420        6.9420       5.852620       0.00077
  40    0.5894        1.0894        0.0000        6.9420        6.9420       5.852605       0.00079
  39     1.339        1.0894        0.0000        6.9419        6.9419       5.852517       0.00100
  38     1.782        1.0894        0.0000        6.9418        6.9419       5.852447       0.00132
  37     2.292        1.0894        0.0000        6.9418        6.9418       5.852354       0.00155
  36     2.964        1.0894        0.0000        6.9416        6.9416       5.852214       0.00175
  35     3.853        1.0894        0.0000        6.9414        6.9414       5.852008       0.00196
  34     5.035        1.0894        0.0000        6.9411        6.9411       5.851703       0.00218
  33     6.613        1.0894        0.0000        6.9406        6.9406       5.851256       0.00239
  32     8.786        1.0894        0.0000        6.9399        6.9400       5.850596       0.00256
  31     11.80        1.0894        0.0000        6.9389        6.9389       5.849561       0.00290
  30     15.07        1.0894        0.0001        6.9377        6.9377       5.848352       0.00312
  29     18.79        1.0894        0.0001        6.9362        6.9362       5.846894       0.00331
  28     23.16        1.0893        0.0001        6.9343        6.9344       5.845091       0.00349
  27     28.12        1.0893        0.0001        6.9321        6.9322       5.842918       0.00369
  26     33.73        1.0893        0.0001        6.9294        6.9296       5.840252       0.00401
  25     40.54        1.0893        0.0002        6.9258        6.9260       5.836659       0.00446
  24     48.69        1.0893        0.0002        6.9210        6.9212       5.831902       0.00492
  23     57.69        1.0893        0.0002        6.9154        6.9156       5.826308       0.00524
  22     68.43        1.0892        0.0003        6.9083        6.9086       5.819354       0.00547
  21     81.20        1.0892        0.0003        6.8998        6.9001       5.810853       0.00562
  20     96.49        1.0892        0.0004        6.8894        6.8898       5.800589       0.00567
  19     114.6        1.0892        0.0004        6.8765        6.8770       5.787744       0.00600
  18     136.5        1.0892        0.0005        6.8610        6.8615       5.772256       0.00596
  17     162.9        1.0893        0.0006        6.8417        6.8423       5.752999       0.00616
  16     196.4        1.0894        0.0007        6.8147        6.8154       5.726004       0.00679
  15     218.7        1.0895        0.0008        6.7948        6.7957       5.706134       0.00754
  14     243.0        1.0897        0.0009        6.7698        6.7707       5.680946       0.00874
  13     269.0        1.0901        0.0010        6.7349        6.7358       5.645738       0.01142
  12     297.5        1.0907        0.0011        6.6869        6.6879       5.597249       0.01438
  11     328.5        1.0916        0.0012        6.6194        6.6206       5.529003       0.01856
  10     361.9        1.0927        0.0013        6.5295        6.5308       5.438045       0.02301
   9     398.1        1.0943        0.0014        6.4202        6.4216       5.327367       0.02579
   8     437.6        1.0963        0.0015        6.2962        6.2977       5.201375       0.02694
   7     480.5        1.0992        0.0016        6.1555        6.1571       5.057947       0.02817
   6     533.0        1.1039        0.0018        5.9675        5.9693       4.865438       0.03097
   5     589.8        1.1107        0.0019        5.7368        5.7387       4.627922       0.03526
   4     651.6        1.1209        0.0020        5.4662        5.4683       4.347373       0.03837
   3     718.7        1.1351        0.0022        5.1912        5.1934       4.058215       0.03634
   2     792.3        1.1542        0.0023        4.9395        4.9418       3.787534       0.03104
   1     891.5        0.5129        0.7156        3.3019        4.0174       3.504586       0.02408
   0    1013.0        0.5315        0.6833        3.0670        3.7503       3.218724       0.01985



 Wavenumbers:  4650. -  5150. cm-1, ATM      1
 LEVEL PRESSURE   UPWARD FLUX   DIFDOWN FLUX  DIRDOWN FLUX  DOWNWARD FLUX   NET FLUX    HEATING RATE
          mb          W/m2          W/m2          W/m2        W/m2          W/m2       degree/day
  51    .06700        0.7611        0.0000        6.5710        6.5710       5.809944       0.00000
  50    .07753        0.7611        0.0000        6.5708        6.5708       5.809708       0.18887
  49    .09103        0.7611        0.0000        6.5705        6.5705       5.809414       0.18362
  48    0.1069        0.7611        0.0000        6.5701        6.5701       5.809080       0.17806
  47    0.1255        0.7611        0.0000        6.5697        6.5697       5.808699       0.17238
  46    0.1487        0.7611        0.0000        6.5693        6.5693       5.808226       0.17268
  45    0.1794        0.7611        0.0000        6.5686        6.5686       5.807589       0.17473
  44    0.2165        0.7610        0.0000        6.5679        6.5679       5.806851       0.16788
  43    0.2613        0.7610        0.0000        6.5670        6.5670       5.805998       0.16078
  42    0.3336        0.7610        0.0000        6.5657        6.5657       5.804635       0.15894
  41    0.4307        0.7610        0.0000        6.5640        6.5640       5.802913       0.14971
  40    0.5894        0.7610        0.0000        6.5613        6.5613       5.800297       0.13913
  39     1.339        0.7610        0.0000        6.5516        6.5516       5.790519       0.11008
  38     1.782        0.7610        0.0000        6.5473        6.5473       5.786303       0.08026
  37     2.292        0.7610        0.0000        6.5434        6.5435       5.782417       0.06438
  36     2.964        0.7610        0.0000        6.5395        6.5395       5.778462       0.04964
  35     3.853        0.7610        0.0000        6.5355        6.5356       5.774519       0.03742
  34     5.035        0.7610        0.0000        6.5315        6.5315       5.770517       0.02859
  33     6.613        0.7610        0.0000        6.5271        6.5271       5.766123       0.02349
  32     8.786        0.7610        0.0001        6.5216        6.5216       5.760628       0.02134
  31     11.80        0.7610        0.0001        6.5135        6.5135       5.752549       0.02262
  30     15.07        0.7610        0.0001        6.5041        6.5042       5.743180       0.02419
  29     18.79        0.7610        0.0001        6.4925        6.4926       5.731664       0.02611
  28     23.16        0.7610        0.0001        6.4779        6.4780       5.717071       0.02822
  27     28.12        0.7609        0.0002        6.4599        6.4600       5.699095       0.03056
  26     33.73        0.7609        0.0002        6.4384        6.4386       5.677663       0.03222
  25     40.54        0.7609        0.0002        6.4112        6.4115       5.650537       0.03365
  24     48.69        0.7609        0.0003        6.3775        6.3778       5.616898       0.03481
  23     57.69        0.7609        0.0003        6.3404        6.3407       5.579806       0.03477
  22     68.43        0.7609        0.0004        6.2971        6.2975       5.536615       0.03395
  21     81.20        0.7609        0.0005        6.2483        6.2487       5.487799       0.03226
  20     96.49        0.7609        0.0005        6.1948        6.1954       5.434428       0.02946
  19     114.6        0.7610        0.0006        6.1381        6.1388       5.377793       0.02644
  18     136.5        0.7611        0.0007        6.0790        6.0797       5.318685       0.02273
  17     162.9        0.7612        0.0009        6.0160        6.0169       5.255725       0.02012
  16     196.4        0.7614        0.0010        5.9399        5.9409       5.179480       0.01919
  15     218.7        0.7616        0.0011        5.8896        5.8908       5.129141       0.01911
  14     243.0        0.7619        0.0013        5.8322        5.8335       5.071506       0.01999
  13     269.0        0.7624        0.0014        5.7624        5.7638       5.001380       0.02275
  12     297.5        0.7631        0.0015        5.6767        5.6783       4.915142       0.02558
  11     328.5        0.7641        0.0017        5.5726        5.5743       4.810152       0.02855
  10     361.9        0.7655        0.0018        5.4473        5.4491       4.683657       0.03200
   9     398.1        0.7673        0.0019        5.2995        5.3014       4.534086       0.03485
   8     437.6        0.7699        0.0021        5.1275        5.1295       4.359674       0.03729
   7     480.5        0.7734        0.0022        4.9290        4.9312       4.157826       0.03964
   6     533.0        0.7789        0.0024        4.6794        4.6817       3.902832       0.04102
   5     589.8        0.7867        0.0025        4.4188        4.4213       3.634583       0.03982
   4     651.6        0.7977        0.0026        4.1521        4.1547       3.356960       0.03797
   3     718.7        0.8127        0.0027        3.8929        3.8957       3.082935       0.03444
   2     792.3        0.8327        0.0029        3.6469        3.6497       2.817082       0.03049
   1     891.5        0.3695        0.5194        2.3821        2.9015       2.532045       0.02426
   0    1013.0        0.3874        0.4885        2.1582        2.6467       2.259309       0.01894



 Wavenumbers:  5150. -  6150. cm-1, ATM      1
 LEVEL PRESSURE   UPWARD FLUX   DIFDOWN FLUX  DIRDOWN FLUX  DOWNWARD FLUX   NET FLUX    HEATING RATE
          mb          W/m2          W/m2          W/m2        W/m2          W/m2       degree/day
  51    .06700        1.9971        0.0000       16.4735       16.4735      14.476415       0.00000
  50    .07753        1.9971        0.0000       16.4735       16.4735      14.476381       0.02761
  49    .09103        1.9971        0.0000       16.4734       16.4734      14.476336       0.02811
  48    0.1069        1.9971        0.0000       16.4734       16.4734      14.476282       0.02859
  47    0.1255        1.9971        0.0000       16.4733       16.4733      14.476218       0.02904
  46    0.1487        1.9971        0.0000       16.4732       16.4732      14.476134       0.03060
  45    0.1794        1.9971        0.0000       16.4731       16.4731      14.476015       0.03269
  44    0.2165        1.9971        0.0000       16.4730       16.4730      14.475868       0.03331
  43    0.2613        1.9971        0.0000       16.4728       16.4728      14.475689       0.03376
  42    0.3336        1.9971        0.0000       16.4725       16.4725      14.475384       0.03564
  41    0.4307        1.9971        0.0000       16.4720       16.4720      14.474964       0.03646
  40    0.5894        1.9971        0.0000       16.4713       16.4713      14.474263       0.03729
  39     1.339        1.9971        0.0000       16.4679       16.4679      14.470854       0.03838
  38     1.782        1.9971        0.0000       16.4659       16.4659      14.468854       0.03807
  37     2.292        1.9970        0.0001       16.4635       16.4636      14.466563       0.03796
  36     2.964        1.9970        0.0001       16.4605       16.4606      14.463593       0.03728
  35     3.853        1.9970        0.0001       16.4567       16.4568      14.459739       0.03657
  34     5.035        1.9970        0.0001       16.4516       16.4517      14.454741       0.03570
  33     6.613        1.9970        0.0002       16.4451       16.4452      14.448279       0.03455
  32     8.786        1.9969        0.0002       16.4367       16.4369      14.439965       0.03229
  31     11.80        1.9969        0.0003       16.4254       16.4257      14.428811       0.03123
  30     15.07        1.9968        0.0004       16.4141       16.4145      14.417720       0.02863
  29     18.79        1.9967        0.0005       16.4024       16.4029      14.406194       0.02613
  28     23.16        1.9967        0.0006       16.3900       16.3906      14.393927       0.02372
  27     28.12        1.9966        0.0007       16.3771       16.3778      14.381256       0.02154
  26     33.73        1.9965        0.0009       16.3641       16.3650      14.368520       0.01915
  25     40.54        1.9964        0.0011       16.3502       16.3512      14.354868       0.01694
  24     48.69        1.9962        0.0013       16.3354       16.3366      14.340379       0.01499
  23     57.69        1.9961        0.0015       16.3211       16.3226      14.326460       0.01305
  22     68.43        1.9960        0.0018       16.3062       16.3080      14.312049       0.01133
  21     81.20        1.9958        0.0021       16.2903       16.2924      14.296627       0.01019
  20     96.49        1.9956        0.0025       16.2726       16.2751      14.279519       0.00944
  19     114.6        1.9954        0.0030       16.2521       16.2550      14.259662       0.00927
  18     136.5        1.9951        0.0035       16.2245       16.2281      14.232949       0.01027
  17     162.9        1.9948        0.0042       16.1747       16.1789      14.184099       0.01561
  16     196.4        1.9944        0.0050       16.0518       16.0569      14.062402       0.03063
  15     218.7        1.9942        0.0055       15.8984       15.9039      13.909688       0.05798
  14     243.0        1.9940        0.0061       15.6153       15.6213      13.627305       0.09794
  13     269.0        1.9939        0.0066       15.1390       15.1456      13.151685       0.15429
  12     297.5        1.9938        0.0071       14.5779       14.5849      12.591110       0.16626
  11     328.5        1.9940        0.0075       13.8780       13.8855      11.891565       0.19020
  10     361.9        1.9943        0.0079       13.0814       13.0893      11.095008       0.20154
   9     398.1        1.9950        0.0082       12.2728       12.2811      10.286041       0.18847
   8     437.6        1.9963        0.0085       11.4776       11.4861       9.489831       0.17023
   7     480.5        1.9984        0.0088       10.7300       10.7388       8.740405       0.14718
   6     533.0        2.0023        0.0092       10.0326       10.0418       8.039435       0.11276
   5     589.8        2.0088        0.0096        9.5050        9.5146       7.505844       0.07920
   4     651.6        2.0192        0.0101        9.0814        9.0915       7.072249       0.05930
   3     718.7        2.0352        0.0107        8.7024        8.7132       6.677956       0.04955
   2     792.3        2.0585        0.0114        8.3379        8.3494       6.290915       0.04439
   1     891.5        0.9687        1.2289        5.6166        6.8455       5.876859       0.03523
   0    1013.0        0.9896        1.1843        5.3096        6.4939       5.504291       0.02587



 Wavenumbers:  6150. -  7700. cm-1, ATM      1
 LEVEL PRESSURE   UPWARD FLUX   DIFDOWN FLUX  DIRDOWN FLUX  DOWNWARD FLUX   NET FLUX    HEATING RATE
          mb          W/m2          W/m2          W/m2        W/m2          W/m2       degree/day
  51    .06700        3.0707        0.0000       30.4684       30.4684      27.397704       0.00000
  50    .07753        3.0707        0.0000       30.4683       30.4683      27.397653       0.04144
  49    .09103        3.0707        0.0000       30.4683       30.4683      27.397586       0.04174
  48    0.1069        3.0707        0.0000       30.4682       30.4682      27.397507       0.04202
  47    0.1255        3.0707        0.0000       30.4681       30.4681      27.397414       0.04227
  46    0.1487        3.0707        0.0000       30.4680       30.4680      27.397293       0.04411
  45    0.1794        3.0707        0.0000       30.4678       30.4678      27.397123       0.04669
  44    0.2165        3.0707        0.0000       30.4676       30.4676      27.396915       0.04715
  43    0.2613        3.0707        0.0000       30.4673       30.4673      27.396664       0.04744
  42    0.3336        3.0707        0.0000       30.4669       30.4669      27.396237       0.04974
  41    0.4307        3.0706        0.0000       30.4663       30.4663      27.395656       0.05052
  40    0.5894        3.0706        0.0001       30.4653       30.4653      27.394688       0.05146
  39     1.339        3.0706        0.0001       30.4604       30.4606      27.390005       0.05273
  38     1.782        3.0705        0.0002       30.4576       30.4578      27.387255       0.05235
  37     2.292        3.0705        0.0002       30.4543       30.4546      27.384096       0.05231
  36     2.964        3.0704        0.0003       30.4501       30.4504      27.379989       0.05156
  35     3.853        3.0703        0.0004       30.4445       30.4449      27.374632       0.05084
  34     5.035        3.0702        0.0005       30.4373       30.4378      27.367632       0.05000
  33     6.613        3.0700        0.0007       30.4278       30.4285      27.358485       0.04890
  32     8.786        3.0698        0.0010       30.4154       30.4163      27.346532       0.04642
  31     11.80        3.0695        0.0013       30.3984       30.3997      27.330147       0.04587
  30     15.07        3.0692        0.0016       30.3810       30.3826      27.313433       0.04315
  29     18.79        3.0688        0.0021       30.3623       30.3643      27.295532       0.04059
  28     23.16        3.0684        0.0025       30.3417       30.3442      27.275849       0.03806
  27     28.12        3.0679        0.0031       30.3196       30.3226      27.254750       0.03587
  26     33.73        3.0673        0.0037       30.2965       30.3002      27.232831       0.03296
  25     40.54        3.0667        0.0044       30.2708       30.2752      27.208494       0.03019
  24     48.69        3.0659        0.0053       30.2423       30.2476      27.181717       0.02771
  23     57.69        3.0650        0.0063       30.2139       30.2201      27.155151       0.02490
  22     68.43        3.0639        0.0074       30.1834       30.1908      27.126876       0.02223
  21     81.20        3.0627        0.0088       30.1500       30.1588      27.096147       0.02031
  20     96.49        3.0612        0.0105       30.1126       30.1231      27.061929       0.01889
  19     114.6        3.0594        0.0124       30.0695       30.0819      27.022544       0.01839
  18     136.5        3.0573        0.0147       30.0139       30.0286      26.971389       0.01967
  17     162.9        3.0547        0.0175       29.9225       29.9400      26.885209       0.02755
  16     196.4        3.0515        0.0210       29.7333       29.7543      26.702818       0.04591
  15     218.7        3.0494        0.0233       29.5259       29.5491      26.499683       0.07712
  14     243.0        3.0472        0.0256       29.1375       29.1631      26.115844       0.13313
  13     269.0        3.0450        0.0279       28.3800       28.4079      25.362830       0.24427
  12     297.5        3.0429        0.0300       27.3895       27.4195      24.376573       0.29251
  11     328.5        3.0411        0.0320       26.2257       26.2577      23.216559       0.31540
  10     361.9        3.0398        0.0338       24.8453       24.8791      21.839326       0.34845
   9     398.1        3.0393        0.0353       23.3471       23.3824      20.343141       0.34858
   8     437.6        3.0401        0.0367       21.7966       21.8333      18.793225       0.33138
   7     480.5        3.0432        0.0377       20.1977       20.2354      17.192191       0.31444
   6     533.0        3.0510        0.0387       18.4969       18.5356      15.484597       0.27470
   5     589.8        3.0655        0.0396       16.9754       17.0150      13.949487       0.22786
   4     651.6        3.0909        0.0406       15.6022       15.6428      12.551917       0.19112
   3     718.7        3.1305        0.0417       14.4232       14.4649      11.334452       0.15300
   2     792.3        3.1887        0.0431       13.4386       13.4817      10.293001       0.11944
   1     891.5        1.4744        1.9540        8.7889       10.7429       9.268428       0.08719
   0    1013.0        1.5306        1.8436        8.0201        9.8636       8.333058       0.06495



 Wavenumbers:  7700. -  8050. cm-1, ATM      1
 LEVEL PRESSURE   UPWARD FLUX   DIFDOWN FLUX  DIRDOWN FLUX  DOWNWARD FLUX   NET FLUX    HEATING RATE
          mb          W/m2          W/m2          W/m2        W/m2          W/m2       degree/day
  51    .06700        1.5631        0.0000        7.2006        7.2006       5.637443       0.00000
  50    .07753        1.5631        0.0000        7.2006        7.2006       5.637425       0.01503
  49    .09103        1.5631        0.0000        7.2005        7.2005       5.637401       0.01473
  48    0.1069        1.5631        0.0000        7.2005        7.2005       5.637374       0.01442
  47    0.1255        1.5631        0.0000        7.2005        7.2005       5.637343       0.01411
  46    0.1487        1.5631        0.0000        7.2004        7.2005       5.637304       0.01431
  45    0.1794        1.5631        0.0000        7.2004        7.2004       5.637250       0.01473
  44    0.2165        1.5632        0.0000        7.2003        7.2003       5.637186       0.01445
  43    0.2613        1.5632        0.0000        7.2003        7.2003       5.637111       0.01418
  42    0.3336        1.5632        0.0000        7.2001        7.2001       5.636987       0.01451
  41    0.4307        1.5632        0.0000        7.2000        7.2000       5.636822       0.01435
  40    0.5894        1.5632        0.0000        7.1997        7.1997       5.636552       0.01433
  39     1.339        1.5632        0.0001        7.1984        7.1985       5.635278       0.01435
  38     1.782        1.5632        0.0001        7.1977        7.1978       5.634530       0.01425
  37     2.292        1.5633        0.0001        7.1968        7.1969       5.633664       0.01434
  36     2.964        1.5633        0.0001        7.1957        7.1958       5.632527       0.01427
  35     3.853        1.5634        0.0002        7.1942        7.1944       5.631027       0.01424
  34     5.035        1.5634        0.0002        7.1922        7.1925       5.629035       0.01423
  33     6.613        1.5635        0.0003        7.1896        7.1899       5.626377       0.01421
  32     8.786        1.5636        0.0004        7.1860        7.1864       5.622801       0.01389
  31     11.80        1.5638        0.0005        7.1810        7.1815       5.617696       0.01429
  30     15.07        1.5640        0.0007        7.1755        7.1762       5.612232       0.01411
  29     18.79        1.5642        0.0008        7.1694        7.1703       5.606078       0.01395
  28     23.16        1.5644        0.0010        7.1623        7.1634       5.598919       0.01384
  27     28.12        1.5647        0.0012        7.1542        7.1555       5.590769       0.01385
  26     33.73        1.5650        0.0015        7.1452        7.1467       5.581695       0.01364
  25     40.54        1.5654        0.0018        7.1344        7.1362       5.570801       0.01352
  24     48.69        1.5659        0.0021        7.1215        7.1237       5.557764       0.01349
  23     57.69        1.5664        0.0025        7.1074        7.1100       5.543568       0.01331
  22     68.43        1.5670        0.0030        7.0909        7.0939       5.526826       0.01316
  21     81.20        1.5678        0.0036        7.0713        7.0749       5.507113       0.01303
  20     96.49        1.5687        0.0042        7.0484        7.0526       5.483948       0.01279
  19     114.6        1.5698        0.0050        7.0217        7.0267       5.456883       0.01264
  18     136.5        1.5711        0.0059        6.9906        6.9965       5.425399       0.01211
  17     162.9        1.5727        0.0070        6.9544        6.9614       5.388700       0.01173
  16     196.4        1.5748        0.0084        6.9087        6.9172       5.342326       0.01167
  15     218.7        1.5763        0.0094        6.8794        6.8888       5.312507       0.01132
  14     243.0        1.5779        0.0104        6.8481        6.8585       5.280611       0.01106
  13     269.0        1.5796        0.0114        6.8147        6.8262       5.246525       0.01106
  12     297.5        1.5816        0.0126        6.7791        6.7917       5.210069       0.01081
  11     328.5        1.5838        0.0139        6.7409        6.7548       5.170963       0.01063
  10     361.9        1.5864        0.0152        6.7002        6.7154       5.128986       0.01062
   9     398.1        1.5893        0.0166        6.6563        6.6729       5.083647       0.01056
   8     437.6        1.5926        0.0182        6.6089        6.6270       5.034436       0.01052
   7     480.5        1.5965        0.0198        6.5570        6.5768       4.980300       0.01063
   6     533.0        1.6019        0.0218        6.4915        6.5133       4.911439       0.01108
   5     589.8        1.6084        0.0240        6.4182        6.4422       4.833838       0.01152
   4     651.6        1.6163        0.0262        6.3359        6.3621       4.745786       0.01204
   3     718.7        1.6260        0.0287        6.2441        6.2728       4.646794       0.01244
   2     792.3        1.6375        0.0312        6.1437        6.1749       4.537439       0.01254
   1     891.5        0.8203        0.9593        4.2641        5.2234       4.403107       0.01143
   0    1013.0        0.8311        0.9459        4.1368        5.0826       4.251498       0.01053



 Wavenumbers:  8050. - 12850. cm-1, ATM      1
 LEVEL PRESSURE   UPWARD FLUX   DIFDOWN FLUX  DIRDOWN FLUX  DOWNWARD FLUX   NET FLUX    HEATING RATE
          mb          W/m2          W/m2          W/m2        W/m2          W/m2       degree/day
  51    .06700       26.9759        0.0000      100.8135      100.8135      73.837588       0.00000
  50    .07753       26.9759        0.0000      100.8135      100.8135      73.837588       0.00000
  49    .09103       26.9759        0.0001      100.8134      100.8135      73.837588       0.00000
  48    0.1069       26.9759        0.0001      100.8134      100.8134      73.837588       0.00000
  47    0.1255       26.9758        0.0001      100.8133      100.8134      73.837588      -0.00000
  46    0.1487       26.9758        0.0002      100.8132      100.8134      73.837588       0.00000
  45    0.1794       26.9757        0.0003      100.8131      100.8133      73.837588       0.00000
  44    0.2165       26.9757        0.0003      100.8129      100.8133      73.837588       0.00000
  43    0.2613       26.9756        0.0004      100.8127      100.8132      73.837588       0.00000
  42    0.3336       26.9755        0.0006      100.8125      100.8131      73.837588      -0.00000
  41    0.4307       26.9753        0.0008      100.8121      100.8129      73.837588       0.00000
  40    0.5894       26.9750        0.0012      100.8115      100.8126      73.837588      -0.00000
  39     1.339       26.9737        0.0028      100.8085      100.8113      73.837588       0.00000
  38     1.782       26.9730        0.0038      100.8068      100.8106      73.837588       0.00000
  37     2.292       26.9721        0.0049      100.8047      100.8097      73.837588       0.00000
  36     2.964       26.9709        0.0064      100.8021      100.8085      73.837588      -0.00000
  35     3.853       26.9694        0.0084      100.7986      100.8070      73.837588       0.00000
  34     5.035       26.9674        0.0110      100.7940      100.8050      73.837588      -0.00000
  33     6.613       26.9647        0.0145      100.7878      100.8023      73.837588       0.00000
  32     8.786       26.9610        0.0192      100.7794      100.7986      73.837588       0.00000
  31     11.80       26.9558        0.0259      100.7674      100.7934      73.837588      -0.00000
  30     15.07       26.9502        0.0332      100.7546      100.7877      73.837588       0.00000
  29     18.79       26.9438        0.0414      100.7400      100.7814      73.837588      -0.00000
  28     23.16       26.9364        0.0510      100.7230      100.7739      73.837588       0.00000
  27     28.12       26.9278        0.0619      100.7035      100.7654      73.837588       0.00000
  26     33.73       26.9183        0.0742      100.6817      100.7559      73.837588      -0.00000
  25     40.54       26.9067        0.0891      100.6552      100.7443      73.837588       0.00000
  24     48.69       26.8928        0.1070      100.6234      100.7304      73.837588       0.00000
  23     57.69       26.8775        0.1268      100.5883      100.7151      73.837588       0.00000
  22     68.43       26.8592        0.1503      100.5464      100.6968      73.837588      -0.00000
  21     81.20       26.8373        0.1784      100.4965      100.6749      73.837588       0.00000
  20     96.49       26.8113        0.2119      100.4370      100.6488      73.837588      -0.00000
  19     114.6       26.7803        0.2517      100.3585      100.6102      73.829890       0.00359
  18     136.5       26.7436        0.2990      100.2634      100.5624      73.818811       0.00426
  17     162.9       26.6998        0.3555      100.1407      100.4961      73.796332       0.00719
  16     196.4       26.6429        0.4287       99.9505      100.3792      73.736284       0.01511
  15     218.7       26.6056        0.4768       99.7889      100.2658      73.660223       0.02888
  14     243.0       26.5650        0.5291       99.5472      100.0763      73.511204       0.05168
  13     269.0       26.5217        0.5853       99.1452       99.7306      73.208832       0.09809
  12     297.5       26.4760        0.6457       98.5975       99.2431      72.767145       0.13100
  11     328.5       26.4284        0.7102       97.8659       98.5761      72.147659       0.16844
  10     361.9       26.3802        0.7788       96.8848       97.6636      71.283317       0.21869
   9     398.1       26.3328        0.8511       95.6330       96.4841      70.151206       0.26376
   8     437.6       26.2891        0.9266       94.0655       94.9921      68.703038       0.30963
   7     480.5       26.2546        1.0045       92.0807       93.0853      66.830738       0.36771
   6     533.0       26.2330        1.0963       89.4449       90.5412      64.308179       0.40580
   5     589.8       26.2411        1.1908       86.5544       87.7452      61.504174       0.41621
   4     651.6       26.2968        1.2876       83.4174       84.7050      58.408168       0.42339
   3     718.7       26.4132        1.3873       80.2037       81.5910      55.177769       0.40597
   2     792.3       26.6042        1.4905       77.0811       78.5716      51.967400       0.36819
   1     891.5       16.9938       13.3378       52.0439       65.3817      48.387839       0.30460
   0    1013.0       17.3264       13.0094       48.9739       61.9833      44.656969       0.25905



 Wavenumbers: 12850. - 16000. cm-1, ATM      1
 LEVEL PRESSURE   UPWARD FLUX   DIFDOWN FLUX  DIRDOWN FLUX  DOWNWARD FLUX   NET FLUX    HEATING RATE
          mb          W/m2          W/m2          W/m2        W/m2          W/m2       degree/day
  51    .06700       33.6103        0.0000       63.1686       63.1686      29.558230       0.00000
  50    .07753       33.6103        0.0001       63.1677       63.1678      29.557451       0.62455
  49    .09103       33.6103        0.0001       63.1666       63.1668      29.556480       0.60691
  48    0.1069       33.6102        0.0002       63.1654       63.1656      29.555374       0.58848
  47    0.1255       33.6102        0.0003       63.1640       63.1643      29.554117       0.56996
  46    0.1487       33.6102        0.0004       63.1623       63.1627      29.552549       0.57145
  45    0.1794       33.6101        0.0006       63.1600       63.1606      29.550447       0.57703
  44    0.2165       33.6100        0.0008       63.1573       63.1581      29.548017       0.55283
  43    0.2613       33.6100        0.0010       63.1542       63.1552      29.545215       0.52825
  42    0.3336       33.6099        0.0014       63.1493       63.1507      29.540751       0.52041
  41    0.4307       33.6098        0.0019       63.1431       63.1450      29.535171       0.48517
  40    0.5894       33.6098        0.0027       63.1338       63.1365      29.526724       0.44920
  39     1.339       33.6108        0.0065       63.0956       63.1021      29.491337       0.39839
  38     1.782       33.6122        0.0088       63.0740       63.0828      29.470570       0.39538
  37     2.292       33.6148        0.0114       63.0477       63.0591      29.444268       0.43562
  36     2.964       33.6194        0.0148       63.0095       63.0243      29.404921       0.49393
  35     3.853       33.6274        0.0193       62.9533       62.9726      29.345236       0.56642
  34     5.035       33.6397        0.0253       62.8725       62.8978      29.258154       0.62208
  33     6.613       33.6571        0.0333       62.7621       62.7954      29.138337       0.64054
  32     8.786       33.6795        0.0441       62.6182       62.6623      28.982819       0.60397
  31     11.80       33.7081        0.0594       62.4284       62.4878      28.779680       0.56872
  30     15.07       33.7347        0.0759       62.2426       62.3185      28.583769       0.50580
  29     18.79       33.7611        0.0944       62.0493       62.1437      28.382630       0.45604
  28     23.16       33.7876        0.1160       61.8424       61.9585      28.170841       0.40953
  27     28.12       33.8130        0.1407       61.6278       61.7685      27.955469       0.36612
  26     33.73       33.8343        0.1682       61.4177       61.5859      27.751548       0.30660
  25     40.54       33.8518        0.2014       61.1983       61.3997      27.547861       0.25270
  24     48.69       33.8649        0.2413       60.9680       61.2093      27.344374       0.21058
  23     57.69       33.8716        0.2851       60.7478       61.0329      27.161334       0.17157
  22     68.43       33.8712        0.3373       60.5202       60.8575      26.986277       0.13762
  21     81.20       33.8592        0.3993       60.2938       60.6932      26.833955       0.10065
  20     96.49       33.8344        0.4733       60.0643       60.5375      26.703181       0.07218
  19     114.6       33.8055        0.5615       59.8078       60.3693      26.563806       0.06508
  18     136.5       33.7665        0.6659       59.5157       60.1817      26.415178       0.05715
  17     162.9       33.7156        0.7899       59.1770       59.9670      26.251383       0.05236
  16     196.4       33.6402        0.9503       58.7604       59.7108      26.070511       0.04553
  15     218.7       33.5874        1.0553       58.4948       59.5501      25.962760       0.04091
  14     243.0       33.5285        1.1693       58.2089       59.3782      25.849678       0.03922
  13     269.0       33.4634        1.2924       57.9006       59.1930      25.729602       0.03895
  12     297.5       33.3922        1.4252       57.5668       58.9920      25.599792       0.03850
  11     328.5       33.3157        1.5683       57.2005       58.7688      25.453098       0.03989
  10     361.9       33.2345        1.7219       56.7963       58.5182      25.283744       0.04285
   9     398.1       33.1491        1.8865       56.3475       58.2340      25.084912       0.04632
   8     437.6       33.0613        2.0624       55.8422       57.9046      24.843363       0.05164
   7     480.5       32.9741        2.2497       55.2625       57.5123      24.538161       0.05994
   6     533.0       32.8786        2.4782       54.4972       56.9754      24.096827       0.07100
   5     589.8       32.7904        2.7212       53.6307       56.3519      23.561502       0.07946
   4     651.6       32.7159        2.9777       52.6606       55.6383      22.922370       0.08740
   3     718.7       32.6586        3.2481       51.6100       54.8581      22.199538       0.09084
   2     792.3       32.6231        3.5322       50.5019       54.0341      21.411024       0.09043
   1     891.5       27.0085       12.5976       34.8231       47.4206      20.412118       0.08500
   0    1013.0       27.0850       12.7625       33.5508       46.3133      19.228282       0.08220



 Wavenumbers: 16000. - 22650. cm-1, ATM      1
 LEVEL PRESSURE   UPWARD FLUX   DIFDOWN FLUX  DIRDOWN FLUX  DOWNWARD FLUX   NET FLUX    HEATING RATE
          mb          W/m2          W/m2          W/m2        W/m2          W/m2       degree/day
  51    .06700       75.9257        0.0000      100.7153      100.7153      24.789585       0.00000
  50    .07753       75.9256        0.0003      100.7147      100.7151      24.789467       0.09400
  49    .09103       75.9254        0.0007      100.7140      100.7147      24.789297       0.10662
  48    0.1069       75.9253        0.0012      100.7131      100.7143      24.789068       0.12158
  47    0.1255       75.9251        0.0017      100.7121      100.7139      24.788763       0.13858
  46    0.1487       75.9249        0.0024      100.7108      100.7132      24.788312       0.16422
  45    0.1794       75.9246        0.0034      100.7089      100.7122      24.787608       0.19335
  44    0.2165       75.9244        0.0045      100.7066      100.7110      24.786652       0.21730
  43    0.2613       75.9241        0.0058      100.7037      100.7095      24.785356       0.24430
  42    0.3336       75.9238        0.0080      100.6987      100.7066      24.782892       0.28729
  41    0.4307       75.9234        0.0108      100.6918      100.7026      24.779178       0.32293
  40    0.5894       75.9232        0.0155      100.6797      100.6953      24.772095       0.37667
  39     1.339       75.9275        0.0377      100.6095      100.6472      24.719775       0.58903
  38     1.782       75.9340        0.0508      100.5585      100.6092      24.675217       0.84830
  37     2.292       75.9454        0.0659      100.4903      100.5561      24.610741       1.06790
  36     2.964       75.9661        0.0857      100.3868      100.4724      24.506338       1.31058
  35     3.853       76.0016        0.1118      100.2306      100.3424      24.340795       1.57103
  34     5.035       76.0568        0.1465      100.0045      100.1509      24.094088       1.76237
  33     6.613       76.1347        0.1927       99.6939       99.8865      23.751767       1.83005
  32     8.786       76.2355        0.2547       99.2881       99.5428      23.307250       1.72635
  31     11.80       76.3641        0.3433       98.7496       99.0929      22.728840       1.61936
  30     15.07       76.4837        0.4380       98.2198       98.6578      22.174121       1.43218
  29     18.79       76.6025        0.5447       97.6651       98.2098      21.607325       1.28510
  28     23.16       76.7222        0.6688       97.0671       97.7359      21.013688       1.14790
  27     28.12       76.8370        0.8101       96.4406       97.2507      20.413679       1.01997
  26     33.73       76.9337        0.9678       95.8179       96.7857      19.852005       0.84449
  25     40.54       77.0137        1.1576       95.1548       96.3125      19.298762       0.68636
  24     48.69       77.0746        1.3856       94.4420       95.8276      18.752985       0.56479
  23     57.69       77.1072        1.6350       93.7416       95.3766      18.269450       0.45324
  22     68.43       77.1091        1.9308       92.9954       94.9262      17.817122       0.35559
  21     81.20       77.0607        2.2818       92.2231       94.5050      17.444247       0.24639
  20     96.49       76.9566        2.6982       91.4110       94.1092      17.152634       0.16095
  19     114.6       76.8099        3.1891       90.5070       93.6961      16.886219       0.12440
  18     136.5       76.6213        3.7661       89.4803       93.2464      16.625124       0.10040
  17     162.9       76.3839        4.4464       88.3022       92.7486      16.364685       0.08325
  16     196.4       76.0473        5.3183       86.8606       92.1789      16.131554       0.05868
  15     218.7       75.8166        5.8846       85.9492       91.8338      16.017189       0.04342
  14     243.0       75.5623        6.4947       84.9789       91.4736      15.911312       0.03672
  13     269.0       75.2831        7.1493       83.9493       91.0986      15.815414       0.03111
  12     297.5       74.9786        7.8493       82.8589       90.7082      15.729617       0.02545
  11     328.5       74.6500        8.5971       81.6982       90.2954      15.645381       0.02290
  10     361.9       74.2973        9.3925       80.4669       89.8595      15.562183       0.02105
   9     398.1       73.9197       10.2374       79.1611       89.3985      15.478817       0.01942
   8     437.6       73.5177       11.1319       77.7777       88.9097      15.391983       0.01857
   7     480.5       73.0915       12.0764       76.3136       88.3901      15.298555       0.01835
   6     533.0       72.5747       13.2190       74.5359       87.7549      15.180214       0.01904
   5     589.8       72.0284       14.4262       72.6469       87.0731      15.044676       0.02012
   4     651.6       71.4551       15.6958       70.6456       86.3414      14.886301       0.02166
   3     718.7       70.8552       17.0257       68.5367       85.5624      14.707199       0.02251
   2     792.3       70.2316       18.4105       66.3287       84.7392      14.507541       0.02290
   1     891.5       63.1756       32.3620       45.0523       77.4143      14.238669       0.02288
   0    1013.0       62.5014       33.7521       42.6540       76.4061      13.904645       0.02319



 Wavenumbers: 22650. - 29000. cm-1, ATM      1
 LEVEL PRESSURE   UPWARD FLUX   DIFDOWN FLUX  DIRDOWN FLUX  DOWNWARD FLUX   NET FLUX    HEATING RATE
          mb          W/m2          W/m2          W/m2        W/m2          W/m2       degree/day
  51    .06700       34.4482        0.0000       38.0063       38.0063       3.558050       0.00000
  50    .07753       34.4481        0.0004       38.0057       38.0061       3.558050       0.00000
  49    .09103       34.4479        0.0009       38.0050       38.0059       3.558050       0.00000
  48    0.1069       34.4476        0.0014       38.0042       38.0057       3.558050       0.00000
  47    0.1255       34.4473        0.0021       38.0033       38.0054       3.558050       0.00000
  46    0.1487       34.4470        0.0029       38.0022       38.0051       3.558050       0.00000
  45    0.1794       34.4465        0.0040       38.0006       38.0046       3.558050      -0.00000
  44    0.2165       34.4460        0.0053       37.9987       38.0040       3.558050       0.00000
  43    0.2613       34.4453        0.0068       37.9965       38.0033       3.558050       0.00000
  42    0.3336       34.4442        0.0094       37.9928       38.0022       3.558050       0.00000
  41    0.4307       34.4427        0.0128       37.9880       38.0008       3.558050      -0.00000
  40    0.5894       34.4403        0.0183       37.9800       37.9984       3.558050       0.00000
  39     1.339       34.4290        0.0446       37.9425       37.9871       3.558050      -0.00000
  38     1.782       34.4224        0.0600       37.9204       37.9804       3.558050       0.00000
  37     2.292       34.4147        0.0778       37.8949       37.9728       3.558050       0.00000
  36     2.964       34.4046        0.1012       37.8614       37.9627       3.558050       0.00000
  35     3.853       34.3913        0.1321       37.8172       37.9494       3.558050       0.00000
  34     5.035       34.3736        0.1731       37.7586       37.9317       3.558050       0.00000
  33     6.613       34.3501        0.2278       37.6803       37.9081       3.558050      -0.00000
  32     8.786       34.3183        0.3013       37.5750       37.8764       3.558050       0.00000
  31     11.80       34.2731        0.4063       37.4249       37.8311       3.558050       0.00000
  30     15.07       34.2246        0.5185       37.2642       37.7827       3.558050      -0.00000
  29     18.79       34.1701        0.6448       37.0833       37.7281       3.558050      -0.00000
  28     23.16       34.1066        0.7917       36.8730       37.6647       3.558050       0.00000
  27     28.12       34.0344        0.9587       36.6338       37.5925       3.558050       0.00000
  26     33.73       33.9541        1.1444       36.3677       37.5121       3.558050      -0.00000
  25     40.54       33.8576        1.3671       36.0486       37.4157       3.558050       0.00000
  24     48.69       33.7423        1.6331       35.6672       37.3003       3.558050       0.00000
  23     57.69       33.6168        1.9222       35.2527       37.1749       3.558050      -0.00000
  22     68.43       33.4690        2.2621       34.7649       37.0271       3.558050      -0.00000
  21     81.20       33.2953        2.6611       34.1922       36.8533       3.558050       0.00000
  20     96.49       33.0916        3.1279       33.5217       36.6496       3.558050       0.00000
  19     114.6       32.8543        3.6700       32.7424       36.4124       3.558050       0.00000
  18     136.5       32.5795        4.2960       31.8416       36.1376       3.558050      -0.00000
  17     162.9       32.2612        5.0184       30.8008       35.8192       3.558050       0.00000
  16     196.4       31.8621        5.9195       29.5007       35.4202       3.558050      -0.00000
  15     218.7       31.6084        6.4897       28.6767       35.1664       3.558050       0.00000
  14     243.0       31.3397        7.0909       27.8068       34.8977       3.558050       0.00000
  13     269.0       31.0566        7.7213       26.8933       34.6147       3.558050      -0.00000
  12     297.5       30.7599        8.3787       25.9393       34.3180       3.558050       0.00000
  11     328.5       30.4495        9.0625       24.9451       34.0075       3.558050       0.00000
  10     361.9       30.1267        9.7688       23.9160       33.6848       3.558050       0.00000
   9     398.1       29.7919       10.4959       22.8541       33.3500       3.558050       0.00000
   8     437.6       29.4464       11.2400       21.7645       33.0045       3.558050      -0.00000
   7     480.5       29.0914       11.9974       20.6521       32.6495       3.558050       0.00000
   6     533.0       28.6748       12.8759       19.3569       32.2329       3.558050      -0.00000
   5     589.8       28.2493       13.7606       18.0467       31.8074       3.558050       0.00000
   4     651.6       27.8175       14.6439       16.7316       31.3755       3.558050       0.00000
   3     718.7       27.3817       15.5184       15.4214       30.9398       3.558050      -0.00000
   2     792.3       26.9450       16.3755       14.1276       30.5031       3.558050      -0.00000
   1     891.5       25.1137       19.7595        8.9122       28.6717       3.558037       0.00000
   0    1013.0       24.6574       20.4925        7.7229       28.2154       3.558037      -0.00000



 Wavenumbers: 29000. - 38000. cm-1, ATM      1
 LEVEL PRESSURE   UPWARD FLUX   DIFDOWN FLUX  DIRDOWN FLUX  DOWNWARD FLUX   NET FLUX    HEATING RATE
          mb          W/m2          W/m2          W/m2        W/m2          W/m2       degree/day
  51    .06700        4.8958        0.0000       13.4026       13.4026       8.506769       0.00000
  50    .07753        4.8956        0.0003       13.3983       13.3986       8.502971       3.04439
  49    .09103        4.8953        0.0007       13.3921       13.3928       8.497452       3.44967
  48    0.1069        4.8950        0.0011       13.3840       13.3851       8.490075       3.92677
  47    0.1255        4.8947        0.0016       13.3733       13.3749       8.480230       4.46318
  46    0.1487        4.8943        0.0022       13.3579       13.3600       8.465787       5.26439
  45    0.1794        4.8937        0.0030       13.3340       13.3371       8.443388       6.14927
  44    0.2165        4.8930        0.0040       13.3024       13.3064       8.413369       6.82877
  43    0.2613        4.8922        0.0052       13.2604       13.2656       8.373314       7.55012
  42    0.3336        4.8910        0.0070       13.1833       13.1903       8.299308       8.62843
  41    0.4307        4.8895        0.0095       13.0729       13.0824       8.192936       9.24881
  40    0.5894        4.8871        0.0134       12.8796       12.8930       8.005892       9.94672
  39     1.339        4.8786        0.0296       11.9165       11.9462       7.067554      10.56399
  38     1.782        4.8753        0.0380       11.4399       11.4779       6.602573       8.85249
  37     2.292        4.8728        0.0468       10.9796       11.0264       6.153640       7.43550
  36     2.964        4.8714        0.0578       10.4786       10.5364       5.665006       6.13383
  35     3.853        4.8720        0.0712        9.9429       10.0141       5.142141       4.96209
  34     5.035        4.8754        0.0881        9.4007        9.4888       4.613393       3.77716
  33     6.613        4.8817        0.1094        8.8752        8.9846       4.102974       2.72870
  32     8.786        4.8903        0.1369        8.3786        8.5155       3.625202       1.85550
  31     11.80        4.9009        0.1747        7.8897        8.0644       3.163490       1.29265
  30     15.07        4.9100        0.2137        7.5108        7.7245       2.814515       0.90098
  29     18.79        4.9184        0.2561        7.1776        7.4337       2.515369       0.67826
  28     23.16        4.9260        0.3039        6.8664        7.1704       2.244327       0.52411
  27     28.12        4.9322        0.3568        6.5780        6.9348       2.002619       0.41089
  26     33.73        4.9345        0.4144        6.3195        6.7339       1.799432       0.30550
  25     40.54        4.9316        0.4824        6.0663        6.5486       1.617055       0.22626
  24     48.69        4.9230        0.5620        5.8128        6.3748       1.451796       0.17102
  23     57.69        4.9087        0.6469        5.5777        6.2246       1.315885       0.12740
  22     68.43        4.8865        0.7452        5.3379        6.0831       1.196647       0.09374
  21     81.20        4.8520        0.8593        5.0965        5.9558       1.103815       0.06134
  20     96.49        4.8040        0.9911        4.8476        5.8387       1.034670       0.03816
  19     114.6        4.7457        1.1403        4.5799        5.7202       0.974469       0.02811
  18     136.5        4.6781        1.3071        4.2891        5.5962       0.918029       0.02170
  17     162.9        4.6009        1.4920        3.9732        5.4651       0.864208       0.01720
  16     196.4        4.5032        1.7134        3.6080        5.3214       0.818186       0.01158
  15     218.7        4.4415        1.8480        3.3898        5.2378       0.796270       0.00832
  14     243.0        4.3775        1.9853        3.1686        5.1539       0.776385       0.00690
  13     269.0        4.3112        2.1240        2.9461        5.0701       0.758842       0.00569
  12     297.5        4.2432        2.2630        2.7239        4.9869       0.743660       0.00450
  11     328.5        4.1743        2.4008        2.5029        4.9037       0.729396       0.00388
  10     361.9        4.1048        2.5363        2.2846        4.8209       0.716072       0.00337
   9     398.1        4.0353        2.6682        2.0708        4.7390       0.703681       0.00289
   8     437.6        3.9661        2.7955        1.8626        4.6581       0.691959       0.00251
   7     480.5        3.8977        2.9166        1.6621        4.5788       0.681034       0.00215
   6     533.0        3.8209        3.0466        1.4437        4.4902       0.669351       0.00188
   5     589.8        3.7462        3.1654        1.2390        4.4044       0.658265       0.00165
   4     651.6        3.6741        3.2718        1.0500        4.3218       0.647624       0.00146
   3     718.7        3.6051        3.3646        0.8778        4.2425       0.637392       0.00129
   2     792.3        3.5393        3.4431        0.7237        4.1668       0.627550       0.00113
   1     891.5        3.3695        3.5901        0.3952        3.9854       0.615834       0.00100
   0    1013.0        3.3016        3.6179        0.2870        3.9049       0.603320       0.00087



 Wavenumbers: 38000. - 50000. cm-1, ATM      1
 LEVEL PRESSURE   UPWARD FLUX   DIFDOWN FLUX  DIRDOWN FLUX  DOWNWARD FLUX   NET FLUX    HEATING RATE
          mb          W/m2          W/m2          W/m2        W/m2          W/m2       degree/day
  51    .06700        0.0051        0.0000        0.8267        0.8267       0.821528       0.00000
  50    .07753        0.0051        0.0001        0.8242        0.8243       0.819196       1.86936
  49    .09103        0.0050        0.0002        0.8207        0.8209       0.815872       2.07705
  48    0.1069        0.0049        0.0002        0.8162        0.8164       0.811514       2.31984
  47    0.1255        0.0048        0.0004        0.8103        0.8106       0.805801       2.59006
  46    0.1487        0.0047        0.0005        0.8018        0.8023       0.797567       3.00143
  45    0.1794        0.0045        0.0007        0.7889        0.7896       0.785013       3.44648
  44    0.2165        0.0044        0.0009        0.7720        0.7729       0.768507       3.75474
  43    0.2613        0.0042        0.0011        0.7500        0.7511       0.746955       4.06246
  42    0.3336        0.0039        0.0015        0.7106        0.7121       0.708267       4.51071
  41    0.4307        0.0035        0.0019        0.6566        0.6584       0.654972       4.63387
  40    0.5894        0.0029        0.0024        0.5680        0.5704       0.567464       4.65357
  39     1.339        0.0015        0.0030        0.2422        0.2452       0.243720       3.64476
  38     1.782        0.0010        0.0026        0.1493        0.1519       0.150889       1.76735
  37     2.292        0.0007        0.0022        0.0924        0.0946       0.093932       0.94336
  36     2.964        0.0005        0.0018        0.0539        0.0557       0.055224       0.48589
  35     3.853        0.0003        0.0013        0.0295        0.0308       0.030502       0.23462
  34     5.035        0.0002        0.0010        0.0154        0.0164       0.016181       0.10230
  33     6.613        0.0001        0.0007        0.0073        0.0080       0.007912       0.04420
  32     8.786        0.0000        0.0004        0.0030        0.0034       0.003390       0.01756
  31     11.80        0.0000        0.0003        0.0010        0.0012       0.001199       0.00613
  30     15.07        0.0000        0.0001        0.0003        0.0005       0.000463       0.00190
  29     18.79        0.0000        0.0001        0.0001        0.0002       0.000182       0.00064
  28     23.16        0.0000        0.0000        0.0000        0.0001       0.000071       0.00022
  27     28.12        0.0000        0.0000        0.0000        0.0000       0.000028       0.00007
  26     33.73        0.0000        0.0000        0.0000        0.0000       0.000011       0.00002
  25     40.54        0.0000        0.0000        0.0000        0.0000       0.000005       0.00001
  24     48.69        0.0000        0.0000        0.0000        0.0000       0.000002       0.00000
  23     57.69        0.0000        0.0000        0.0000        0.0000       0.000001       0.00000
  22     68.43        0.0000        0.0000        0.0000        0.0000       0.000000       0.00000
  21     81.20        0.0000        0.0000        0.0000        0.0000       0.000000       0.00000
  20     96.49        0.0000        0.0000        0.0000        0.0000       0.000000       0.00000
  19     114.6        0.0000        0.0000        0.0000        0.0000       0.000000       0.00000
  18     136.5        0.0000        0.0000        0.0000        0.0000       0.000000       0.00000
  17     162.9        0.0000        0.0000        0.0000        0.0000       0.000000       0.00000
  16     196.4        0.0000        0.0000        0.0000        0.0000       0.000000       0.00000
  15     218.7        0.0000        0.0000        0.0000        0.0000       0.000000       0.00000
  14     243.0        0.0000        0.0000        0.0000        0.0000       0.000000       0.00000
  13     269.0        0.0000        0.0000        0.0000        0.0000       0.000000       0.00000
  12     297.5        0.0000        0.0000        0.0000        0.0000       0.000000       0.00000
  11     328.5        0.0000        0.0000        0.0000        0.0000       0.000000       0.00000
  10     361.9        0.0000        0.0000        0.0000        0.0000       0.000000       0.00000
   9     398.1        0.0000        0.0000        0.0000        0.0000       0.000000       0.00000
   8     437.6        0.0000        0.0000        0.0000        0.0000       0.000000       0.00000
   7     480.5        0.0000        0.0000        0.0000        0.0000       0.000000       0.00000
   6     533.0        0.0000        0.0000        0.0000        0.0000       0.000000       0.00000
   5     589.8        0.0000        0.0000        0.0000        0.0000       0.000000       0.00000
   4     651.6        0.0000        0.0000        0.0000        0.0000       0.000000       0.00000
   3     718.7        0.0000        0.0000        0.0000        0.0000       0.000000       0.00000
   2     792.3        0.0000        0.0000        0.0000        0.0000       0.000000       0.00000
   1     891.5        0.0000        0.0000        0.0000        0.0000       0.000000       0.00000
   0    1013.0        0.0000        0.0000        0.0000        0.0000       0.000000       0.00000



 Wavenumbers:   820. -  2600. cm-1, ATM      1
 LEVEL PRESSURE   UPWARD FLUX   DIFDOWN FLUX  DIRDOWN FLUX  DOWNWARD FLUX   NET FLUX    HEATING RATE
          mb          W/m2          W/m2          W/m2        W/m2          W/m2       degree/day
  51    .06700        0.2231        0.0000        3.8670        3.8670       3.643905       0.00000
  50    .07753        0.2231        0.0000        3.8643        3.8643       3.641188       2.17770
  49    .09103        0.2231        0.0000        3.8635        3.8635       3.640378       0.50638
  48    0.1069        0.2231        0.0000        3.8626        3.8626       3.639487       0.47415
  47    0.1255        0.2231        0.0000        3.8616        3.8616       3.638526       0.43559
  46    0.1487        0.2231        0.0000        3.8605        3.8605       3.637417       0.40437
  45    0.1794        0.2231        0.0000        3.8592        3.8592       3.636082       0.36648
  44    0.2165        0.2231        0.0000        3.8578        3.8578       3.634704       0.31346
  43    0.2613        0.2231        0.0000        3.8564        3.8564       3.633244       0.27522
  42    0.3336        0.2231        0.0000        3.8541        3.8541       3.631013       0.26013
  41    0.4307        0.2231        0.0000        3.8512        3.8512       3.628130       0.25063
  40    0.5894        0.2231        0.0000        3.8465        3.8465       3.623404       0.25134
  39     1.339        0.2231        0.0000        3.8251        3.8251       3.602029       0.24065
  38     1.782        0.2231        0.0000        3.8133        3.8133       3.590216       0.22490
  37     2.292        0.2231        0.0000        3.8003        3.8003       3.577155       0.21633
  36     2.964        0.2231        0.0000        3.7841        3.7841       3.561026       0.20247
  35     3.853        0.2231        0.0000        3.7642        3.7642       3.541111       0.18899
  34     5.035        0.2231        0.0000        3.7395        3.7395       3.516420       0.17638
  33     6.613        0.2231        0.0000        3.7090        3.7090       3.485884       0.16325
  32     8.786        0.2231        0.0000        3.6726        3.6726       3.449491       0.14134
  31     11.80        0.2231        0.0000        3.6320        3.6320       3.408896       0.11365
  30     15.07        0.2231        0.0000        3.6016        3.6016       3.378511       0.07845
  29     18.79        0.2231        0.0000        3.5777        3.5777       3.354613       0.05419
  28     23.16        0.2231        0.0000        3.5564        3.5564       3.333259       0.04129
  27     28.12        0.2231        0.0000        3.5348        3.5348       3.311712       0.03663
  26     33.73        0.2231        0.0000        3.5118        3.5118       3.288678       0.03463
  25     40.54        0.2231        0.0000        3.4849        3.4849       3.261788       0.03336
  24     48.69        0.2232        0.0000        3.4537        3.4537       3.230535       0.03234
  23     57.69        0.2232        0.0000        3.4210        3.4210       3.197859       0.03063
  22     68.43        0.2232        0.0000        3.3844        3.3844       3.161271       0.02876
  21     81.20        0.2232        0.0000        3.3441        3.3441       3.120968       0.02663
  20     96.49        0.2232        0.0000        3.2998        3.2998       3.076599       0.02449
  19     114.6        0.2232        0.0000        3.2506        3.2506       3.027445       0.02295
  18     136.5        0.2232        0.0000        3.1936        3.1936       2.970385       0.02194
  17     162.9        0.2233        0.0000        3.1181        3.1181       2.894863       0.02414
  16     196.4        0.2233        0.0000        3.0090        3.0090       2.785638       0.02749
  15     218.7        0.2234        0.0000        2.9420        2.9420       2.718606       0.02545
  14     243.0        0.2235        0.0000        2.8605        2.8605       2.637002       0.02830
  13     269.0        0.2236        0.0000        2.7419        2.7420       2.518350       0.03849
  12     297.5        0.2239        0.0000        2.5729        2.5729       2.349027       0.05022
  11     328.5        0.2243        0.0000        2.3602        2.3602       2.135951       0.05793
  10     361.9        0.2248        0.0000        2.1524        2.1524       1.927589       0.05272
   9     398.1        0.2257        0.0000        1.9974        1.9974       1.771730       0.03631
   8     437.6        0.2269        0.0000        1.8835        1.8835       1.656620       0.02461
   7     480.5        0.2286        0.0000        1.7734        1.7734       1.544811       0.02196
   6     533.0        0.2315        0.0000        1.6397        1.6398       1.408266       0.02197
   5     589.8        0.2356        0.0000        1.5068        1.5069       1.271237       0.02034
   4     651.6        0.2417        0.0000        1.3807        1.3807       1.139000       0.01808
   3     718.7        0.2499        0.0000        1.2680        1.2680       1.018183       0.01518
   2     792.3        0.2600        0.0000        1.1659        1.1660       0.906006       0.01287
   1     891.5        0.1188        0.1611        0.7367        0.8977       0.778981       0.01081
   0    1013.0        0.1307        0.1451        0.6191        0.7642       0.633493       0.01010

  Modules and versions used in this calculation:

       rrtmg_sw.1col.f90:  $Revision$                    rrtmg_sw_init.f90:  $Revision$        
     rrtmgsw_cldprop.f90:  $Revision$                  rrtmgsw_cldprmc.f90:  NOT USED          
     rrtmg_sw_reftra.f90:  $Revision$                  rrtmg_sw_spcvrt.f90:  NOT USED          
     rrtmg_sw_spcvmc.f90:  NOT USED                    rrtmgsw_setcoef.f90:  NOT USED          
     rrtmg_sw_taumol.f90:  $Revision$                  rrtmg_sw_vrtqdr.f90:  NOT USED          
                rrtatm.f:  NOT USED                             util_xxx.f:  NOT USED          
                 extra.f:  NOT USED                       rrtmg_sw_k_g.f90:  $Revision$        

