

 Wavenumbers:   820. - 50000. cm-1, ATM      1
 LEVEL PRESSURE   UPWARD FLUX   DIFDOWN FLUX  DIRDOWN FLUX  DOWNWARD FLUX   NET FLUX    HEATING RATE
          mb          W/m2          W/m2          W/m2        W/m2          W/m2       degree/day
  51    .06700      282.7153        0.0000      397.8738      397.8738     115.158511       0.00000
  50    .07753      282.7147        0.0012      397.8577      397.8589     115.144215      11.45790
  49    .09103      282.7140        0.0027      397.8418      397.8445     115.130521       8.55931
  48    0.1069      282.7132        0.0044      397.8230      397.8274     115.114166       8.70609
  47    0.1255      282.7123        0.0064      397.7997      397.8060     115.093713       9.27215
  46    0.1487      282.7112        0.0088      397.7676      397.7765     115.065242      10.37813
  45    0.1794      282.7098        0.0122      397.7205      397.7327     115.022929      11.61599
  44    0.2165      282.7082        0.0162      397.6602      397.6764     114.968252      12.43791
  43    0.2613      282.7064        0.0209      397.5829      397.6038     114.897418      13.35195
  42    0.3336      282.7036        0.0286      397.4449      397.4735     114.769910      14.86622
  41    0.4307      282.7002        0.0387      397.2524      397.2911     114.590937      15.56124
  40    0.5894      282.6953        0.0550      396.9253      396.9803     114.285026      16.26799
  39     1.339      282.6844        0.1280      395.4254      395.5533     112.868896      15.94305
  38     1.782      282.6862        0.1689      394.7288      394.8977     112.211477      12.51619
  37     2.292      282.6954        0.2155      394.0572      394.2727     111.577222      10.50492
  36     2.964      282.7183        0.2760      393.3007      393.5767     110.858412       9.02324
  35     3.853      282.7633        0.3551      392.4318      392.7869     110.023582       7.92268
  34     5.035      282.8379        0.4592      391.4441      391.9033     109.065379       6.84501
  33     6.613      282.9456        0.5971      390.3268      390.9239     107.978287       5.81160
  32     8.786      283.0847        0.7816      389.0624      389.8440     106.759322       4.73402
  31     11.80      283.2584        1.0435      387.5500      388.5935     105.335069       3.98746
  30     15.07      283.4153        1.3224      386.1556      387.4780     104.062682       3.28506
  29     18.79      283.5663        1.6351      384.7502      386.3853     102.819011       2.81978
  28     23.16      283.7122        1.9975      383.2686      385.2661     101.553875       2.44636
  27     28.12      283.8436        2.4085      381.7329      384.1414     100.297851       2.13516
  26     33.73      283.9386        2.8653      380.1982      383.0635      99.124864       1.76362
  25     40.54      283.9933        3.4133      378.5384      381.9516      97.958354       1.44719
  24     48.69      284.0015        4.0682      376.7214      380.7896      96.788099       1.21103
  23     57.69      283.9552        4.7810      374.8959      379.6769      95.721636       0.99965
  22     68.43      283.8408        5.6216      372.8999      378.5215      94.680713       0.81830
  21     81.20      283.6225        6.6127      370.7496      377.3623      93.739851       0.62171
  20     96.49      283.2883        7.7792      368.4056      376.1848      92.896468       0.46549
  19     114.6      282.8678        9.1425      365.7513      374.8937      92.025941       0.40647
  18     136.5      282.3531       10.7267      362.7231      373.4498      91.096697       0.35732
  17     162.9      281.7316       12.5696      359.1748      371.7444      90.012844       0.34644
  16     196.4      280.8955       14.8953      354.5718      369.4671      88.571589       0.36278
  15     218.7      280.3420       16.3841      351.4437      367.8277      87.485706       0.41227
  14     243.0      279.7461       17.9687      347.7111      365.6798      85.933699       0.53829
  13     269.0      279.1109       19.6476      342.9441      362.5917      83.480798       0.79571
  12     297.5      278.4410       21.4188      337.4137      358.8325      80.391474       0.91626
  11     328.5      277.7464       23.2843      331.1302      354.4145      76.668083       1.01238
  10     361.9      277.0381       25.2387      324.1219      349.3606      72.322476       1.09948
   9     398.1      276.3283       27.2818      316.6066      343.8884      67.560103       1.10953
   8     437.6      275.6412       29.4093      308.5895      337.9988      62.357608       1.11233
   7     480.5      275.0210       31.6156      299.9349      331.5505      56.529437       1.14463
   6     533.0      274.4486       34.2329      289.7021      323.9350      49.486440       1.13299
   5     589.8      274.1081       36.9392      279.3388      316.2780      42.169822       1.08603
   4     651.6      274.1542       39.7227      268.7786      308.5013      34.347127       1.06977
   3     718.7      274.7197       42.5750      258.2837      300.8586      26.138919       1.03154
   2     792.3      275.9807       45.4823      248.0774      293.5597      17.579011       0.98173
   1     891.5       31.8971       46.6428        0.0000       46.6428      14.745764       0.24110
   0    1013.0       31.8572       46.2067        0.0000       46.2067      14.349510       0.02751



 Wavenumbers:  2600. -  3250. cm-1, ATM      1
 LEVEL PRESSURE   UPWARD FLUX   DIFDOWN FLUX  DIRDOWN FLUX  DOWNWARD FLUX   NET FLUX    HEATING RATE
          mb          W/m2          W/m2          W/m2        W/m2          W/m2       degree/day
  51    .06700        1.2010        0.0000        3.5066        3.5066       2.305609       0.00000
  50    .07753        1.2010        0.0000        3.5066        3.5066       2.305601       0.00640
  49    .09103        1.2010        0.0000        3.5066        3.5066       2.305591       0.00627
  48    0.1069        1.2010        0.0000        3.5066        3.5066       2.305579       0.00613
  47    0.1255        1.2010        0.0000        3.5066        3.5066       2.305566       0.00599
  46    0.1487        1.2010        0.0000        3.5066        3.5066       2.305549       0.00607
  45    0.1794        1.2010        0.0000        3.5065        3.5065       2.305526       0.00624
  44    0.2165        1.2010        0.0000        3.5065        3.5065       2.305500       0.00611
  43    0.2613        1.2010        0.0000        3.5065        3.5065       2.305468       0.00598
  42    0.3336        1.2010        0.0000        3.5064        3.5064       2.305415       0.00615
  41    0.4307        1.2010        0.0000        3.5064        3.5064       2.305344       0.00618
  40    0.5894        1.2010        0.0000        3.5062        3.5062       2.305225       0.00633
  39     1.339        1.2010        0.0000        3.5055        3.5055       2.304526       0.00787
  38     1.782        1.2010        0.0000        3.5050        3.5050       2.303995       0.01011
  37     2.292        1.2010        0.0000        3.5043        3.5043       2.303303       0.01147
  36     2.964        1.2010        0.0000        3.5033        3.5033       2.302311       0.01245
  35     3.853        1.2010        0.0000        3.5019        3.5019       2.300934       0.01307
  34     5.035        1.2010        0.0000        3.5001        3.5001       2.299073       0.01329
  33     6.613        1.2010        0.0000        3.4977        3.4977       2.296663       0.01288
  32     8.786        1.2010        0.0000        3.4947        3.4947       2.293692       0.01154
  31     11.80        1.2010        0.0000        3.4911        3.4911       2.290056       0.01018
  30     15.07        1.2010        0.0000        3.4878        3.4878       2.286834       0.00832
  29     18.79        1.2010        0.0000        3.4848        3.4848       2.283768       0.00695
  28     23.16        1.2010        0.0000        3.4816        3.4816       2.280546       0.00623
  27     28.12        1.2010        0.0000        3.4779        3.4779       2.276924       0.00616
  26     33.73        1.2010        0.0000        3.4735        3.4735       2.272452       0.00672
  25     40.54        1.2010        0.0000        3.4671        3.4672       2.266118       0.00786
  24     48.69        1.2010        0.0000        3.4582        3.4583       2.257210       0.00922
  23     57.69        1.2011        0.0000        3.4472        3.4472       2.246143       0.01037
  22     68.43        1.2011        0.0000        3.4329        3.4330       2.231857       0.01123
  21     81.20        1.2011        0.0000        3.4152        3.4152       2.214091       0.01174
  20     96.49        1.2012        0.0000        3.3940        3.3941       2.192892       0.01170
  19     114.6        1.2013        0.0000        3.3692        3.3692       2.167926       0.01166
  18     136.5        1.2014        0.0001        3.3419        3.3420       2.140599       0.01051
  17     162.9        1.2016        0.0001        3.3129        3.3129       2.111358       0.00935
  16     196.4        1.2019        0.0001        3.2793        3.2794       2.077483       0.00853
  15     218.7        1.2023        0.0001        3.2578        3.2579       2.055573       0.00832
  14     243.0        1.2028        0.0001        3.2320        3.2321       2.029240       0.00913
  13     269.0        1.2037        0.0001        3.1968        3.1969       1.993243       0.01168
  12     297.5        1.2051        0.0001        3.1489        3.1491       1.944005       0.01460
  11     328.5        1.2071        0.0001        3.0821        3.0822       1.875068       0.01874
  10     361.9        1.2102        0.0001        2.9902        2.9904       1.780205       0.02400
   9     398.1        1.2146        0.0001        2.8715        2.8716       1.657051       0.02869
   8     437.6        1.2210        0.0002        2.7276        2.7278       1.506843       0.03212
   7     480.5        1.2306        0.0002        2.5595        2.5597       1.329105       0.03491
   6     533.0        1.2469        0.0002        2.3617        2.3619       1.115046       0.03444
   5     589.8        1.2709        0.0002        2.1649        2.1651       0.894188       0.03278
   4     651.6        1.3069        0.0002        1.9608        1.9609       0.654046       0.03284
   3     718.7        1.3588        0.0002        1.7593        1.7595       0.400742       0.03183
   2     792.3        1.4320        0.0002        1.5761        1.5762       0.144261       0.02942
   1     891.5        0.0048        0.0735        0.0000        0.0735       0.068690       0.00643
   0    1013.0        0.0052        0.0674        0.0000        0.0674       0.062196       0.00045



 Wavenumbers:  3250. -  4000. cm-1, ATM      1
 LEVEL PRESSURE   UPWARD FLUX   DIFDOWN FLUX  DIRDOWN FLUX  DOWNWARD FLUX   NET FLUX    HEATING RATE
          mb          W/m2          W/m2          W/m2        W/m2          W/m2       degree/day
  51    .06700        0.0114        0.0000        5.9117        5.9117       5.900263       0.00000
  50    .07753        0.0114        0.0000        5.9075        5.9075       5.896073       3.35808
  49    .09103        0.0114        0.0000        5.9050        5.9050       5.893631       1.52677
  48    0.1069        0.0114        0.0000        5.9032        5.9032       5.891764       0.99346
  47    0.1255        0.0114        0.0000        5.9014        5.9014       5.890006       0.79708
  46    0.1487        0.0114        0.0000        5.8995        5.8995       5.888117       0.68848
  45    0.1794        0.0114        0.0000        5.8974        5.8974       5.885969       0.58983
  44    0.2165        0.0114        0.0000        5.8952        5.8952       5.883852       0.48155
  43    0.2613        0.0114        0.0000        5.8931        5.8931       5.881693       0.40696
  42    0.3336        0.0114        0.0000        5.8899        5.8899       5.878535       0.36820
  41    0.4307        0.0114        0.0000        5.8861        5.8861       5.874698       0.33365
  40    0.5894        0.0114        0.0000        5.8803        5.8803       5.868895       0.30857
  39     1.339        0.0114        0.0000        5.8597        5.8597       5.848297       0.23189
  38     1.782        0.0114        0.0000        5.8513        5.8513       5.839873       0.16039
  37     2.292        0.0114        0.0000        5.8431        5.8431       5.831702       0.13533
  36     2.964        0.0114        0.0000        5.8334        5.8334       5.822062       0.12100
  35     3.853        0.0114        0.0000        5.8213        5.8213       5.809887       0.11555
  34     5.035        0.0114        0.0000        5.8052        5.8052       5.793791       0.11498
  33     6.613        0.0114        0.0000        5.7833        5.7834       5.771970       0.11666
  32     8.786        0.0114        0.0000        5.7531        5.7531       5.741769       0.11729
  31     11.80        0.0114        0.0000        5.7090        5.7090       5.697600       0.12366
  30     15.07        0.0114        0.0000        5.6615        5.6615       5.650135       0.12254
  29     18.79        0.0114        0.0000        5.6093        5.6094       5.598000       0.11821
  28     23.16        0.0114        0.0000        5.5524        5.5524       5.541074       0.11008
  27     28.12        0.0114        0.0000        5.4935        5.4935       5.482195       0.10009
  26     33.73        0.0113        0.0000        5.4348        5.4349       5.423506       0.08824
  25     40.54        0.0113        0.0001        5.3707        5.3708       5.359444       0.07948
  24     48.69        0.0113        0.0001        5.2985        5.2985       5.287211       0.07475
  23     57.69        0.0113        0.0001        5.2215        5.2216       5.210272       0.07212
  22     68.43        0.0113        0.0001        5.1318        5.1319       5.120612       0.07048
  21     81.20        0.0113        0.0001        5.0284        5.0285       5.017183       0.06834
  20     96.49        0.0113        0.0001        4.9122        4.9123       4.901049       0.06410
  19     114.6        0.0112        0.0001        4.7780        4.7782       4.766937       0.06262
  18     136.5        0.0112        0.0002        4.6285        4.6287       4.617459       0.05748
  17     162.9        0.0112        0.0002        4.4406        4.4407       4.429546       0.06006
  16     196.4        0.0112        0.0002        4.1548        4.1550       4.143871       0.07191
  15     218.7        0.0111        0.0002        3.9564        3.9566       3.945488       0.07532
  14     243.0        0.0111        0.0002        3.7055        3.7058       3.694648       0.08700
  13     269.0        0.0111        0.0002        3.3399        3.3401       3.328994       0.11862
  12     297.5        0.0111        0.0002        2.8954        2.8956       2.884473       0.13184
  11     328.5        0.0112        0.0002        2.4388        2.4390       2.427869       0.12415
  10     361.9        0.0113        0.0002        2.0269        2.0271       2.015813       0.10425
   9     398.1        0.0115        0.0002        1.6753        1.6755       1.664021       0.08196
   8     437.6        0.0118        0.0002        1.3592        1.3594       1.347546       0.06766
   7     480.5        0.0125        0.0002        1.0616        1.0618       1.049319       0.05857
   6     533.0        0.0138        0.0001        0.7543        0.7544       0.740656       0.04965
   5     589.8        0.0162        0.0001        0.4951        0.4952       0.479014       0.03884
   4     651.6        0.0210        0.0001        0.2943        0.2943       0.273346       0.02813
   3     718.7        0.0304        0.0001        0.1528        0.1529       0.122461       0.01896
   2     792.3        0.0497        0.0000        0.0658        0.0658       0.016182       0.01219
   1     891.5        0.0000        0.0003        0.0000        0.0003       0.000298       0.00135
   0    1013.0        0.0000        0.0001        0.0000        0.0001       0.000067       0.00002



 Wavenumbers:  4000. -  4650. cm-1, ATM      1
 LEVEL PRESSURE   UPWARD FLUX   DIFDOWN FLUX  DIRDOWN FLUX  DOWNWARD FLUX   NET FLUX    HEATING RATE
          mb          W/m2          W/m2          W/m2        W/m2          W/m2       degree/day
  51    .06700        4.2449        0.0000        6.9421        6.9421       2.697217       0.00000
  50    .07753        4.2449        0.0000        6.9421        6.9421       2.697216       0.00079
  49    .09103        4.2449        0.0000        6.9421        6.9421       2.697215       0.00078
  48    0.1069        4.2449        0.0000        6.9421        6.9421       2.697214       0.00076
  47    0.1255        4.2449        0.0000        6.9421        6.9421       2.697212       0.00074
  46    0.1487        4.2449        0.0000        6.9421        6.9421       2.697210       0.00075
  45    0.1794        4.2449        0.0000        6.9421        6.9421       2.697207       0.00077
  44    0.2165        4.2448        0.0000        6.9421        6.9421       2.697204       0.00076
  43    0.2613        4.2448        0.0000        6.9420        6.9420       2.697200       0.00074
  42    0.3336        4.2448        0.0000        6.9420        6.9420       2.697193       0.00076
  41    0.4307        4.2448        0.0000        6.9420        6.9420       2.697184       0.00077
  40    0.5894        4.2448        0.0000        6.9420        6.9420       2.697170       0.00079
  39     1.339        4.2448        0.0000        6.9419        6.9419       2.697081       0.00100
  38     1.782        4.2448        0.0000        6.9418        6.9419       2.697011       0.00132
  37     2.292        4.2448        0.0000        6.9418        6.9418       2.696918       0.00155
  36     2.964        4.2448        0.0000        6.9416        6.9416       2.696778       0.00175
  35     3.853        4.2448        0.0000        6.9414        6.9414       2.696571       0.00196
  34     5.035        4.2448        0.0000        6.9411        6.9411       2.696267       0.00218
  33     6.613        4.2448        0.0000        6.9406        6.9407       2.695818       0.00240
  32     8.786        4.2448        0.0000        6.9399        6.9400       2.695157       0.00257
  31     11.80        4.2448        0.0001        6.9389        6.9389       2.694121       0.00290
  30     15.07        4.2448        0.0001        6.9377        6.9377       2.692908       0.00313
  29     18.79        4.2448        0.0001        6.9362        6.9363       2.691446       0.00332
  28     23.16        4.2448        0.0001        6.9343        6.9345       2.689637       0.00350
  27     28.12        4.2448        0.0001        6.9321        6.9323       2.687454       0.00371
  26     33.73        4.2448        0.0002        6.9294        6.9296       2.684775       0.00403
  25     40.54        4.2448        0.0002        6.9258        6.9260       2.681160       0.00449
  24     48.69        4.2448        0.0002        6.9210        6.9212       2.676370       0.00496
  23     57.69        4.2449        0.0003        6.9154        6.9156       2.670728       0.00529
  22     68.43        4.2449        0.0003        6.9083        6.9086       2.663705       0.00552
  21     81.20        4.2450        0.0004        6.8998        6.9001       2.655104       0.00568
  20     96.49        4.2452        0.0004        6.8894        6.8899       2.644696       0.00574
  19     114.6        4.2454        0.0005        6.8765        6.8770       2.631632       0.00610
  18     136.5        4.2458        0.0006        6.8610        6.8616       2.615829       0.00608
  17     162.9        4.2463        0.0007        6.8417        6.8424       2.596091       0.00631
  16     196.4        4.2473        0.0009        6.8147        6.8155       2.568273       0.00700
  15     218.7        4.2481        0.0010        6.7948        6.7958       2.547692       0.00781
  14     243.0        4.2494        0.0011        6.7698        6.7708       2.521488       0.00909
  13     269.0        4.2514        0.0012        6.7349        6.7360       2.484677       0.01194
  12     297.5        4.2543        0.0013        6.6869        6.6881       2.433812       0.01509
  11     328.5        4.2586        0.0014        6.6194        6.6208       2.362214       0.01947
  10     361.9        4.2642        0.0016        6.5295        6.5310       2.266826       0.02413
   9     398.1        4.2716        0.0017        6.4202        6.4219       2.150300       0.02715
   8     437.6        4.2816        0.0018        6.2962        6.2980       2.016440       0.02862
   7     480.5        4.2955        0.0020        6.1555        6.1575       1.861999       0.03033
   6     533.0        4.3184        0.0022        5.9675        5.9697       1.651333       0.03389
   5     589.8        4.3522        0.0023        5.7368        5.7391       1.386891       0.03925
   4     651.6        4.4029        0.0025        5.4662        5.4687       1.065789       0.04391
   3     718.7        4.4759        0.0027        5.1912        5.1938       0.717952       0.04371
   2     792.3        4.5778        0.0028        4.9395        4.9423       0.364482       0.04054
   1     891.5        0.0137        0.2679        0.0000        0.2679       0.254185       0.00939
   0    1013.0        0.0141        0.2581        0.0000        0.2581       0.243963       0.00071



 Wavenumbers:  4650. -  5150. cm-1, ATM      1
 LEVEL PRESSURE   UPWARD FLUX   DIFDOWN FLUX  DIRDOWN FLUX  DOWNWARD FLUX   NET FLUX    HEATING RATE
          mb          W/m2          W/m2          W/m2        W/m2          W/m2       degree/day
  51    .06700        2.9805        0.0000        6.5710        6.5710       3.590455       0.00000
  50    .07753        2.9805        0.0000        6.5708        6.5708       3.590219       0.18887
  49    .09103        2.9805        0.0000        6.5705        6.5705       3.589926       0.18362
  48    0.1069        2.9805        0.0000        6.5701        6.5701       3.589591       0.17806
  47    0.1255        2.9805        0.0000        6.5697        6.5697       3.589211       0.17238
  46    0.1487        2.9805        0.0000        6.5693        6.5693       3.588737       0.17268
  45    0.1794        2.9805        0.0000        6.5686        6.5686       3.588101       0.17474
  44    0.2165        2.9805        0.0000        6.5679        6.5679       3.587363       0.16788
  43    0.2613        2.9805        0.0000        6.5670        6.5670       3.586510       0.16078
  42    0.3336        2.9805        0.0000        6.5657        6.5657       3.585146       0.15894
  41    0.4307        2.9805        0.0000        6.5640        6.5640       3.583425       0.14971
  40    0.5894        2.9805        0.0000        6.5613        6.5613       3.580808       0.13913
  39     1.339        2.9805        0.0000        6.5516        6.5516       3.571030       0.11008
  38     1.782        2.9805        0.0000        6.5473        6.5473       3.566814       0.08027
  37     2.292        2.9805        0.0000        6.5434        6.5435       3.562927       0.06439
  36     2.964        2.9805        0.0000        6.5395        6.5395       3.558971       0.04965
  35     3.853        2.9805        0.0000        6.5355        6.5356       3.555027       0.03743
  34     5.035        2.9805        0.0000        6.5315        6.5315       3.551023       0.02861
  33     6.613        2.9805        0.0000        6.5271        6.5271       3.546625       0.02351
  32     8.786        2.9805        0.0001        6.5216        6.5216       3.541123       0.02137
  31     11.80        2.9805        0.0001        6.5135        6.5136       3.533031       0.02265
  30     15.07        2.9805        0.0001        6.5041        6.5042       3.523646       0.02423
  29     18.79        2.9805        0.0001        6.4925        6.4927       3.512106       0.02616
  28     23.16        2.9806        0.0002        6.4779        6.4780       3.497481       0.02828
  27     28.12        2.9806        0.0002        6.4599        6.4601       3.479460       0.03063
  26     33.73        2.9807        0.0002        6.4384        6.4386       3.457968       0.03231
  25     40.54        2.9807        0.0003        6.4112        6.4115       3.430757       0.03376
  24     48.69        2.9808        0.0003        6.3775        6.3778       3.396999       0.03493
  23     57.69        2.9810        0.0004        6.3404        6.3407       3.359754       0.03491
  22     68.43        2.9812        0.0004        6.2971        6.2976       3.316352       0.03412
  21     81.20        2.9815        0.0005        6.2483        6.2488       3.267246       0.03245
  20     96.49        2.9820        0.0006        6.1948        6.1954       3.213473       0.02968
  19     114.6        2.9826        0.0007        6.1381        6.1389       3.156287       0.02670
  18     136.5        2.9834        0.0008        6.0790        6.0799       3.096421       0.02302
  17     162.9        2.9846        0.0010        6.0160        6.0170       3.032408       0.02046
  16     196.4        2.9865        0.0012        5.9399        5.9411       2.954538       0.01960
  15     218.7        2.9880        0.0013        5.8896        5.8910       2.902919       0.01960
  14     243.0        2.9900        0.0015        5.8322        5.8337       2.843624       0.02057
  13     269.0        2.9928        0.0016        5.7624        5.7640       2.771165       0.02351
  12     297.5        2.9969        0.0018        5.6767        5.6785       2.681650       0.02655
  11     328.5        3.0023        0.0019        5.5726        5.5745       2.572228       0.02975
  10     361.9        3.0097        0.0021        5.4473        5.4494       2.439769       0.03351
   9     398.1        3.0195        0.0023        5.2995        5.3017       2.282227       0.03670
   8     437.6        3.0328        0.0024        5.1275        5.1299       2.097133       0.03957
   7     480.5        3.0509        0.0026        4.9290        4.9316       1.880701       0.04251
   6     533.0        3.0795        0.0028        4.6794        4.6822       1.602611       0.04474
   5     589.8        3.1198        0.0030        4.4188        4.4217       1.301947       0.04463
   4     651.6        3.1771        0.0031        4.1521        4.1552       0.978091       0.04429
   3     718.7        3.2557        0.0033        3.8929        3.8962       0.640524       0.04242
   2     792.3        3.3617        0.0035        3.6469        3.6503       0.288686       0.04035
   1     891.5        0.0097        0.1884        0.0000        0.1884       0.178693       0.00936
   0    1013.0        0.0102        0.1794        0.0000        0.1794       0.169263       0.00065



 Wavenumbers:  5150. -  6150. cm-1, ATM      1
 LEVEL PRESSURE   UPWARD FLUX   DIFDOWN FLUX  DIRDOWN FLUX  DOWNWARD FLUX   NET FLUX    HEATING RATE
          mb          W/m2          W/m2          W/m2        W/m2          W/m2       degree/day
  51    .06700        7.3393        0.0000       16.4735       16.4735       9.134158       0.00000
  50    .07753        7.3393        0.0000       16.4735       16.4735       9.134124       0.02764
  49    .09103        7.3393        0.0000       16.4734       16.4734       9.134079       0.02814
  48    0.1069        7.3393        0.0000       16.4734       16.4734       9.134025       0.02862
  47    0.1255        7.3393        0.0000       16.4733       16.4733       9.133961       0.02907
  46    0.1487        7.3393        0.0000       16.4732       16.4732       9.133877       0.03063
  45    0.1794        7.3393        0.0000       16.4731       16.4731       9.133758       0.03272
  44    0.2165        7.3393        0.0000       16.4730       16.4730       9.133611       0.03334
  43    0.2613        7.3393        0.0000       16.4728       16.4728       9.133432       0.03379
  42    0.3336        7.3393        0.0000       16.4725       16.4725       9.133126       0.03567
  41    0.4307        7.3393        0.0000       16.4720       16.4720       9.132706       0.03649
  40    0.5894        7.3393        0.0000       16.4713       16.4713       9.132004       0.03732
  39     1.339        7.3393        0.0000       16.4679       16.4679       9.128592       0.03842
  38     1.782        7.3393        0.0001       16.4659       16.4659       9.126589       0.03812
  37     2.292        7.3393        0.0001       16.4635       16.4636       9.124294       0.03802
  36     2.964        7.3393        0.0001       16.4605       16.4606       9.121318       0.03735
  35     3.853        7.3393        0.0001       16.4567       16.4568       9.117456       0.03665
  34     5.035        7.3393        0.0001       16.4516       16.4517       9.112446       0.03579
  33     6.613        7.3393        0.0002       16.4451       16.4453       9.105965       0.03464
  32     8.786        7.3393        0.0003       16.4367       16.4369       9.097624       0.03239
  31     11.80        7.3393        0.0003       16.4254       16.4257       9.086427       0.03135
  30     15.07        7.3393        0.0004       16.4141       16.4146       9.075286       0.02876
  29     18.79        7.3393        0.0006       16.4024       16.4030       9.063699       0.02627
  28     23.16        7.3393        0.0007       16.3900       16.3907       9.051356       0.02387
  27     28.12        7.3393        0.0008       16.3771       16.3779       9.038592       0.02170
  26     33.73        7.3394        0.0010       16.3641       16.3651       9.025741       0.01932
  25     40.54        7.3394        0.0012       16.3502       16.3514       9.011930       0.01713
  24     48.69        7.3396        0.0014       16.3354       16.3368       8.997229       0.01521
  23     57.69        7.3397        0.0017       16.3211       16.3228       8.983055       0.01329
  22     68.43        7.3399        0.0020       16.3062       16.3083       8.968320       0.01158
  21     81.20        7.3402        0.0024       16.2903       16.2927       8.952493       0.01046
  20     96.49        7.3406        0.0028       16.2726       16.2755       8.934884       0.00972
  19     114.6        7.3410        0.0034       16.2521       16.2554       8.914414       0.00956
  18     136.5        7.3416        0.0040       16.2245       16.2285       8.886947       0.01056
  17     162.9        7.3423        0.0047       16.1747       16.1795       8.837158       0.01591
  16     196.4        7.3434        0.0057       16.0518       16.0575       8.714164       0.03096
  15     218.7        7.3441        0.0063       15.8984       15.9047       8.560546       0.05832
  14     243.0        7.3451        0.0069       15.6153       15.6222       8.277084       0.09831
  13     269.0        7.3464        0.0075       15.1390       15.1465       7.800073       0.15474
  12     297.5        7.3484        0.0081       14.5779       14.5860       7.237626       0.16682
  11     328.5        7.3512        0.0087       13.8780       13.8867       6.535475       0.19091
  10     361.9        7.3554        0.0092       13.0814       13.0906       5.735224       0.20247
   9     398.1        7.3614        0.0096       12.2728       12.2825       4.921040       0.18969
   8     437.6        7.3704        0.0101       11.4776       11.4877       4.117254       0.17185
   7     480.5        7.3842        0.0105       10.7300       10.7405       3.356282       0.14945
   6     533.0        7.4089        0.0110       10.0326       10.0436       2.634757       0.11607
   5     589.8        7.4483        0.0116        9.5050        9.5167       2.068389       0.08407
   4     651.6        7.5120        0.0124        9.0814        9.0938       1.581733       0.06655
   3     718.7        7.6103        0.0132        8.7024        8.7157       1.105396       0.05986
   2     792.3        7.7561        0.0141        8.3379        8.3521       0.595976       0.05842
   1     891.5        0.0269        0.4689        0.0000        0.4689       0.441935       0.01311
   0    1013.0        0.0274        0.4573        0.0000        0.4573       0.429873       0.00084



 Wavenumbers:  6150. -  7700. cm-1, ATM      1
 LEVEL PRESSURE   UPWARD FLUX   DIFDOWN FLUX  DIRDOWN FLUX  DOWNWARD FLUX   NET FLUX    HEATING RATE
          mb          W/m2          W/m2          W/m2        W/m2          W/m2       degree/day
  51    .06700       11.4766        0.0000       30.4684       30.4684      18.991830       0.00000
  50    .07753       11.4766        0.0000       30.4683       30.4683      18.991779       0.04144
  49    .09103       11.4766        0.0000       30.4683       30.4683      18.991712       0.04174
  48    0.1069       11.4765        0.0000       30.4682       30.4682      18.991633       0.04202
  47    0.1255       11.4765        0.0000       30.4681       30.4681      18.991540       0.04227
  46    0.1487       11.4765        0.0000       30.4680       30.4680      18.991419       0.04411
  45    0.1794       11.4765        0.0000       30.4678       30.4678      18.991249       0.04669
  44    0.2165       11.4765        0.0000       30.4676       30.4676      18.991041       0.04715
  43    0.2613       11.4765        0.0000       30.4673       30.4673      18.990790       0.04744
  42    0.3336       11.4765        0.0000       30.4669       30.4669      18.990363       0.04974
  41    0.4307       11.4765        0.0000       30.4663       30.4663      18.989782       0.05052
  40    0.5894       11.4765        0.0001       30.4653       30.4653      18.988814       0.05146
  39     1.339       11.4764        0.0002       30.4604       30.4606      18.984131       0.05273
  38     1.782       11.4764        0.0002       30.4576       30.4578      18.981381       0.05235
  37     2.292       11.4764        0.0003       30.4543       30.4546      18.978222       0.05231
  36     2.964       11.4763        0.0004       30.4501       30.4504      18.974115       0.05156
  35     3.853       11.4762        0.0005       30.4445       30.4450      18.968758       0.05084
  34     5.035       11.4761        0.0006       30.4373       30.4379      18.961758       0.05000
  33     6.613       11.4760        0.0008       30.4278       30.4286      18.952610       0.04890
  32     8.786       11.4758        0.0011       30.4154       30.4165      18.940657       0.04642
  31     11.80       11.4755        0.0014       30.3984       30.3998      18.924271       0.04588
  30     15.07       11.4752        0.0018       30.3810       30.3828      18.907557       0.04315
  29     18.79       11.4749        0.0023       30.3623       30.3646      18.889656       0.04059
  28     23.16       11.4746        0.0028       30.3417       30.3445      18.869971       0.03806
  27     28.12       11.4741        0.0034       30.3196       30.3230      18.848870       0.03587
  26     33.73       11.4736        0.0041       30.2965       30.3006      18.826948       0.03296
  25     40.54       11.4731        0.0049       30.2708       30.2757      18.802608       0.03020
  24     48.69       11.4724        0.0059       30.2423       30.2482      18.775827       0.02771
  23     57.69       11.4716        0.0070       30.2139       30.2209      18.749255       0.02491
  22     68.43       11.4707        0.0083       30.1834       30.1917      18.720972       0.02223
  21     81.20       11.4696        0.0098       30.1500       30.1598      18.690232       0.02031
  20     96.49       11.4683        0.0117       30.1126       30.1243      18.655999       0.01889
  19     114.6       11.4668        0.0139       30.0695       30.0834      18.616591       0.01840
  18     136.5       11.4650        0.0165       30.0139       30.0304      18.565400       0.01968
  17     162.9       11.4629        0.0195       29.9225       29.9420      18.479145       0.02757
  16     196.4       11.4602        0.0235       29.7333       29.7568      18.296582       0.04595
  15     218.7       11.4586        0.0260       29.5259       29.5519      18.093264       0.07719
  14     243.0       11.4571        0.0287       29.1375       29.1662      17.709076       0.13325
  13     269.0       11.4560        0.0313       28.3800       28.4113      16.955252       0.24454
  12     297.5       11.4559        0.0337       27.3895       27.4233      15.967354       0.29300
  11     328.5       11.4576        0.0361       26.2257       26.2618      14.804235       0.31625
  10     361.9       11.4622        0.0384       24.8453       24.8837      13.421516       0.34984
   9     398.1       11.4712        0.0404       23.3471       23.3874      11.916212       0.35070
   8     437.6       11.4875        0.0422       21.7966       21.8388      10.351261       0.33460
   7     480.5       11.5166        0.0437       20.1977       20.2414       8.724762       0.31944
   6     533.0       11.5733        0.0453       18.4969       18.5423       6.968945       0.28246
   5     589.8       11.6679        0.0470       16.9754       17.0224       5.354502       0.23964
   4     651.6       11.8246        0.0487       15.6022       15.6508       3.826273       0.20899
   3     718.7       12.0680        0.0506       14.4232       14.4738       2.405714       0.17852
   2     792.3       12.4330        0.0527       13.4386       13.4913       1.058313       0.15453
   1     891.5        0.0423        0.7158        0.0000        0.7158       0.673509       0.03274
   0    1013.0        0.0437        0.6859        0.0000        0.6859       0.642224       0.00217



 Wavenumbers:  7700. -  8050. cm-1, ATM      1
 LEVEL PRESSURE   UPWARD FLUX   DIFDOWN FLUX  DIRDOWN FLUX  DOWNWARD FLUX   NET FLUX    HEATING RATE
          mb          W/m2          W/m2          W/m2        W/m2          W/m2       degree/day
  51    .06700        5.4369        0.0000        7.2006        7.2006       1.763723       0.00000
  50    .07753        5.4369        0.0000        7.2006        7.2006       1.763701       0.01712
  49    .09103        5.4369        0.0000        7.2005        7.2005       1.763675       0.01678
  48    0.1069        5.4369        0.0000        7.2005        7.2005       1.763644       0.01642
  47    0.1255        5.4369        0.0000        7.2005        7.2005       1.763608       0.01607
  46    0.1487        5.4369        0.0000        7.2004        7.2005       1.763563       0.01631
  45    0.1794        5.4369        0.0000        7.2004        7.2004       1.763502       0.01678
  44    0.2165        5.4369        0.0000        7.2003        7.2003       1.763430       0.01646
  43    0.2613        5.4369        0.0000        7.2003        7.2003       1.763344       0.01615
  42    0.3336        5.4369        0.0000        7.2001        7.2001       1.763203       0.01653
  41    0.4307        5.4370        0.0000        7.2000        7.2000       1.763015       0.01634
  40    0.5894        5.4370        0.0000        7.1997        7.1997       1.762708       0.01633
  39     1.339        5.4372        0.0001        7.1984        7.1985       1.761255       0.01635
  38     1.782        5.4374        0.0001        7.1977        7.1978       1.760403       0.01624
  37     2.292        5.4375        0.0001        7.1968        7.1970       1.759416       0.01635
  36     2.964        5.4377        0.0002        7.1957        7.1959       1.758120       0.01626
  35     3.853        5.4380        0.0002        7.1942        7.1944       1.756410       0.01623
  34     5.035        5.4384        0.0003        7.1922        7.1925       1.754138       0.01623
  33     6.613        5.4388        0.0004        7.1896        7.1899       1.751107       0.01621
  32     8.786        5.4395        0.0005        7.1860        7.1865       1.747026       0.01585
  31     11.80        5.4404        0.0006        7.1810        7.1816       1.741198       0.01632
  30     15.07        5.4414        0.0008        7.1755        7.1764       1.734954       0.01612
  29     18.79        5.4425        0.0010        7.1694        7.1705       1.727919       0.01595
  28     23.16        5.4439        0.0012        7.1623        7.1636       1.719726       0.01584
  27     28.12        5.4454        0.0015        7.1542        7.1558       1.710390       0.01587
  26     33.73        5.4471        0.0018        7.1452        7.1471       1.699985       0.01564
  25     40.54        5.4491        0.0022        7.1344        7.1366       1.687474       0.01552
  24     48.69        5.4516        0.0026        7.1215        7.1241       1.672479       0.01552
  23     57.69        5.4544        0.0031        7.1074        7.1105       1.656120       0.01533
  22     68.43        5.4577        0.0037        7.0909        7.0945       1.636787       0.01520
  21     81.20        5.4617        0.0043        7.0713        7.0757       1.613964       0.01508
  20     96.49        5.4665        0.0051        7.0484        7.0536       1.587061       0.01485
  19     114.6        5.4723        0.0061        7.0217        7.0278       1.555516       0.01473
  18     136.5        5.4792        0.0072        6.9906        6.9978       1.518661       0.01417
  17     162.9        5.4875        0.0086        6.9544        6.9630       1.475479       0.01380
  16     196.4        5.4985        0.0103        6.9087        6.9190       1.420554       0.01383
  15     218.7        5.5058        0.0114        6.8794        6.8909       1.385027       0.01349
  14     243.0        5.5139        0.0127        6.8481        6.8608       1.346836       0.01325
  13     269.0        5.5229        0.0140        6.8147        6.8287       1.305797       0.01331
  12     297.5        5.5329        0.0154        6.7791        6.7945       1.261648       0.01309
  11     328.5        5.5440        0.0170        6.7409        6.7579       1.213978       0.01296
  10     361.9        5.5564        0.0187        6.7002        6.7188       1.162426       0.01304
   9     398.1        5.5704        0.0204        6.6563        6.6767       1.106326       0.01307
   8     437.6        5.5863        0.0224        6.6089        6.6312       1.044957       0.01312
   7     480.5        5.6045        0.0244        6.5570        6.5814       0.976867       0.01337
   6     533.0        5.6290        0.0269        6.4915        6.5184       0.889408       0.01407
   5     589.8        5.6581        0.0296        6.4182        6.4478       0.789755       0.01479
   4     651.6        5.6930        0.0324        6.3359        6.3683       0.675314       0.01565
   3     718.7        5.7347        0.0355        6.2441        6.2796       0.544937       0.01638
   2     792.3        5.7836        0.0387        6.1437        6.1824       0.398802       0.01676
   1     891.5        0.0256        0.3677        0.0000        0.3677       0.342021       0.00483
   0    1013.0        0.0260        0.3615        0.0000        0.3615       0.335559       0.00045



 Wavenumbers:  8050. - 12850. cm-1, ATM      1
 LEVEL PRESSURE   UPWARD FLUX   DIFDOWN FLUX  DIRDOWN FLUX  DOWNWARD FLUX   NET FLUX    HEATING RATE
          mb          W/m2          W/m2          W/m2        W/m2          W/m2       degree/day
  51    .06700       70.7281        0.0000      100.8135      100.8135      30.085398       0.00000
  50    .07753       70.7281        0.0000      100.8135      100.8135      30.085398       0.00000
  49    .09103       70.7281        0.0001      100.8134      100.8135      30.085398      -0.00000
  48    0.1069       70.7281        0.0001      100.8134      100.8135      30.085398      -0.00000
  47    0.1255       70.7280        0.0002      100.8133      100.8134      30.085398       0.00000
  46    0.1487       70.7280        0.0002      100.8132      100.8134      30.085398      -0.00000
  45    0.1794       70.7280        0.0003      100.8131      100.8134      30.085398       0.00000
  44    0.2165       70.7279        0.0004      100.8129      100.8133      30.085398      -0.00000
  43    0.2613       70.7279        0.0005      100.8127      100.8133      30.085398      -0.00000
  42    0.3336       70.7278        0.0007      100.8125      100.8132      30.085398       0.00000
  41    0.4307       70.7276        0.0010      100.8121      100.8130      30.085398       0.00000
  40    0.5894       70.7274        0.0014      100.8115      100.8128      30.085398       0.00000
  39     1.339       70.7264        0.0033      100.8085      100.8118      30.085398      -0.00000
  38     1.782       70.7258        0.0045      100.8068      100.8112      30.085398       0.00000
  37     2.292       70.7252        0.0058      100.8047      100.8106      30.085398       0.00000
  36     2.964       70.7243        0.0076      100.8021      100.8097      30.085398      -0.00000
  35     3.853       70.7231        0.0099      100.7986      100.8085      30.085398       0.00000
  34     5.035       70.7215        0.0130      100.7940      100.8069      30.085398      -0.00000
  33     6.613       70.7195        0.0171      100.7878      100.8049      30.085398       0.00000
  32     8.786       70.7167        0.0226      100.7794      100.8021      30.085398       0.00000
  31     11.80       70.7126        0.0306      100.7674      100.7980      30.085398      -0.00000
  30     15.07       70.7083        0.0391      100.7546      100.7937      30.085398       0.00000
  29     18.79       70.7034        0.0488      100.7400      100.7888      30.085398      -0.00000
  28     23.16       70.6977        0.0601      100.7230      100.7831      30.085398       0.00000
  27     28.12       70.6911        0.0730      100.7035      100.7765      30.085398       0.00000
  26     33.73       70.6838        0.0875      100.6817      100.7692      30.085398       0.00000
  25     40.54       70.6749        0.1051      100.6552      100.7603      30.085398      -0.00000
  24     48.69       70.6642        0.1262      100.6234      100.7496      30.085398       0.00000
  23     57.69       70.6524        0.1495      100.5883      100.7378      30.085398       0.00000
  22     68.43       70.6383        0.1773      100.5464      100.7237      30.085398       0.00000
  21     81.20       70.6216        0.2104      100.4965      100.7069      30.085398      -0.00000
  20     96.49       70.6015        0.2500      100.4370      100.6869      30.085398       0.00000
  19     114.6       70.5779        0.2970      100.3585      100.6555      30.077573       0.00365
  18     136.5       70.5499        0.3528      100.2634      100.6162      30.066323       0.00433
  17     162.9       70.5165        0.4194      100.1407      100.5601      30.043550       0.00728
  16     196.4       70.4735        0.5059       99.9505      100.4565      29.982960       0.01525
  15     218.7       70.4453        0.5628       99.7889      100.3518      29.906433       0.02905
  14     243.0       70.4153        0.6246       99.5472      100.1718      29.756462       0.05201
  13     269.0       70.3849        0.6912       99.1452       99.8364      29.451572       0.09890
  12     297.5       70.3558        0.7628       98.5975       99.3602      29.004470       0.13261
  11     328.5       70.3310        0.8395       97.8659       98.7054      28.374366       0.17132
  10     361.9       70.3151        0.9212       96.8848       97.8060      27.490892       0.22353
   9     398.1       70.3141        1.0077       95.6330       96.6407      26.326571       0.27126
   8     437.6       70.3392        1.0986       94.0655       95.1640      24.824869       0.32107
   7     480.5       70.4122        1.1929       92.0807       93.2736      22.861424       0.38561
   6     533.0       70.5815        1.3048       89.4449       90.7497      20.168200       0.43325
   5     589.8       70.8858        1.4210       86.5544       87.9754      17.089608       0.45696
   4     651.6       71.4032        1.5409       83.4174       84.9583      13.555076       0.48336
   3     718.7       72.2012        1.6654       80.2037       81.8691       9.667809       0.48852
   2     792.3       73.3640        1.7951       77.0811       78.8762       5.512169       0.47661
   1     891.5        1.0626        5.2099        0.0000        5.2099       4.147285       0.11615
   0    1013.0        1.0824        5.0720        0.0000        5.0720       3.989597       0.01095



 Wavenumbers: 12850. - 16000. cm-1, ATM      1
 LEVEL PRESSURE   UPWARD FLUX   DIFDOWN FLUX  DIRDOWN FLUX  DOWNWARD FLUX   NET FLUX    HEATING RATE
          mb          W/m2          W/m2          W/m2        W/m2          W/m2       degree/day
  51    .06700       50.7980        0.0000       63.1686       63.1686      12.370611       0.00000
  50    .07753       50.7979        0.0001       63.1677       63.1678      12.369827       0.62799
  49    .09103       50.7979        0.0001       63.1666       63.1668      12.368850       0.61082
  48    0.1069       50.7979        0.0002       63.1654       63.1656      12.367736       0.59293
  47    0.1255       50.7979        0.0003       63.1640       63.1644      12.366468       0.57503
  46    0.1487       50.7979        0.0005       63.1623       63.1628      12.364883       0.57746
  45    0.1794       50.7979        0.0006       63.1600       63.1606      12.362756       0.58411
  44    0.2165       50.7979        0.0008       63.1573       63.1581      12.360291       0.56078
  43    0.2613       50.7979        0.0011       63.1542       63.1553      12.357441       0.53720
  42    0.3336       50.7979        0.0015       63.1493       63.1508      12.352887       0.53094
  41    0.4307       50.7980        0.0021       63.1431       63.1452      12.347171       0.49701
  40    0.5894       50.7983        0.0029       63.1338       63.1368      12.338464       0.46301
  39     1.339       50.8016        0.0072       63.0956       63.1027      12.301157       0.42001
  38     1.782       50.8049        0.0096       63.0740       63.0837      12.278753       0.42653
  37     2.292       50.8101        0.0125       63.0477       63.0602      12.250083       0.47485
  36     2.964       50.8189        0.0162       63.0095       63.0258      12.206897       0.54212
  35     3.853       50.8333        0.0212       62.9533       62.9745      12.141116       0.62427
  34     5.035       50.8554        0.0278       62.8725       62.9003      12.044928       0.68713
  33     6.613       50.8862        0.0366       62.7621       62.7986      11.912430       0.70833
  32     8.786       50.9262        0.0484       62.6182       62.6666      11.740366       0.66824
  31     11.80       50.9780        0.0652       62.4284       62.4936      11.515554       0.62940
  30     15.07       51.0272        0.0833       62.2426       62.3259      11.298703       0.55987
  29     18.79       51.0769        0.1036       62.0493       62.1529      11.076005       0.50493
  28     23.16       51.1284        0.1274       61.8424       61.9698      10.841451       0.45355
  27     28.12       51.1794        0.1545       61.6278       61.7823      10.602872       0.40557
  26     33.73       51.2254        0.1847       61.4177       61.6024      10.377026       0.33957
  25     40.54       51.2680        0.2213       61.1983       61.4196      10.151533       0.27975
  24     48.69       51.3069        0.2653       60.9680       61.2332       9.926309       0.23307
  23     57.69       51.3375        0.3135       60.7478       61.0613       9.723793       0.18983
  22     68.43       51.3609        0.3710       60.5202       60.8912       9.530306       0.15211
  21     81.20       51.3707        0.4394       60.2938       60.7332       9.362577       0.11083
  20     96.49       51.3657        0.5209       60.0643       60.5852       9.219497       0.07897
  19     114.6       51.3592        0.6184       59.8078       60.4262       9.066984       0.07121
  18     136.5       51.3443        0.7338       59.5157       60.2495       8.905175       0.06222
  17     162.9       51.3201        0.8709       59.1770       60.0479       8.727846       0.05668
  16     196.4       51.2747        1.0483       58.7604       59.8088       8.534054       0.04878
  15     218.7       51.2400        1.1646       58.4948       59.6594       8.419422       0.04352
  14     243.0       51.2003        1.2908       58.2089       59.4997       8.299451       0.04161
  13     269.0       51.1556        1.4273       57.9006       59.3279       8.172291       0.04125
  12     297.5       51.1065        1.5746       57.5668       59.1414       8.034878       0.04076
  11     328.5       51.0548        1.7334       57.2005       58.9339       7.879119       0.04235
  10     361.9       51.0018        1.9040       56.7963       58.7003       7.698470       0.04571
   9     398.1       50.9494        2.0870       56.3475       58.4345       7.485068       0.04972
   8     437.6       50.9012        2.2828       55.8422       58.1250       7.223798       0.05586
   7     480.5       50.8636        2.4914       55.2625       57.7540       6.890350       0.06549
   6     533.0       50.8412        2.7463       54.4972       57.2435       6.402274       0.07852
   5     589.8       50.8474        3.0178       53.6307       56.6485       5.801069       0.08924
   4     651.6       50.8969        3.3051       52.6606       55.9657       5.068846       0.10013
   3     718.7       50.9993        3.6088       51.6100       55.2188       4.219470       0.10674
   2     792.3       51.1677        3.9286       50.5019       54.4305       3.262745       0.10973
   1     891.5        3.3609        6.2379        0.0000        6.2379       2.877010       0.03282
   0    1013.0        3.3826        6.1659        0.0000        6.1659       2.783265       0.00651



 Wavenumbers: 16000. - 22650. cm-1, ATM      1
 LEVEL PRESSURE   UPWARD FLUX   DIFDOWN FLUX  DIRDOWN FLUX  DOWNWARD FLUX   NET FLUX    HEATING RATE
          mb          W/m2          W/m2          W/m2        W/m2          W/m2       degree/day
  51    .06700       85.7839        0.0000      100.7153      100.7153      14.931408       0.00000
  50    .07753       85.7838        0.0003      100.7147      100.7151      14.931286       0.09778
  49    .09103       85.7837        0.0008      100.7140      100.7148      14.931108       0.11090
  48    0.1069       85.7835        0.0012      100.7131      100.7144      14.930871       0.12646
  47    0.1255       85.7834        0.0018      100.7121      100.7139      14.930553       0.14415
  46    0.1487       85.7832        0.0025      100.7108      100.7133      14.930084       0.17082
  45    0.1794       85.7830        0.0035      100.7089      100.7124      14.929351       0.20112
  44    0.2165       85.7828        0.0046      100.7066      100.7112      14.928358       0.22604
  43    0.2613       85.7826        0.0060      100.7037      100.7096      14.927010       0.25412
  42    0.3336       85.7825        0.0082      100.6987      100.7069      14.924447       0.29883
  41    0.4307       85.7824        0.0112      100.6918      100.7029      14.920583       0.33591
  40    0.5894       85.7826        0.0160      100.6797      100.6958      14.913215       0.39181
  39     1.339       85.7897        0.0390      100.6095      100.6485      14.858791       0.61272
  38     1.782       85.7984        0.0524      100.5585      100.6109      14.812440       0.88244
  37     2.292       85.8129        0.0680      100.4903      100.5583      14.745366       1.11092
  36     2.964       85.8384        0.0884      100.3868      100.4752      14.636752       1.36344
  35     3.853       85.8815        0.1154      100.2306      100.3460      14.464520       1.63451
  34     5.035       85.9478        0.1512      100.0045      100.1557      14.207816       1.83379
  33     6.613       86.0412        0.1989       99.6939       99.8927      13.851566       1.90451
  32     8.786       86.1622        0.2630       99.2881       99.5511      13.388865       1.79697
  31     11.80       86.3174        0.3544       98.7496       99.1041      12.786627       1.68608
  30     15.07       86.4633        0.4523       98.2198       98.6721      12.208873       1.49165
  29     18.79       86.6093        0.5625       97.6651       98.2276      11.618354       1.33889
  28     23.16       86.7582        0.6907       97.0671       97.7578      10.999661       1.19635
  27     28.12       86.9033        0.8368       96.4406       97.2774      10.374105       1.06340
  26     33.73       87.0294        0.9998       95.8179       96.8177       9.788304       0.88077
  25     40.54       87.1399        1.1961       95.1548       96.3509       9.211086       0.71610
  24     48.69       87.2324        1.4319       94.4420       95.8739       8.641441       0.58949
  23     57.69       87.2949        1.6899       93.7416       95.4315       8.136567       0.47324
  22     68.43       87.3273        1.9960       92.9954       94.9914       7.664099       0.37142
  21     81.20       87.3080        2.3594       92.2231       94.5825       7.274473       0.25746
  20     96.49       87.2318        2.7905       91.4110       94.2015       6.969646       0.16824
  19     114.6       87.1148        3.2990       90.5070       93.8060       6.691188       0.13002
  18     136.5       86.9590        3.8969       89.4803       93.3772       6.418179       0.10498
  17     162.9       86.7587        4.6022       88.3022       92.9044       6.145727       0.08709
  16     196.4       86.4657        5.5067       86.8606       92.3674       5.901708       0.06142
  15     218.7       86.2619        6.0946       85.9492       92.0438       5.781938       0.04547
  14     243.0       86.0361        6.7282       84.9789       91.7071       5.671004       0.03848
  13     269.0       85.7872        7.4083       83.9493       91.3576       5.570455       0.03262
  12     297.5       85.5146        8.1361       82.8589       90.9950       5.480408       0.02671
  11     328.5       85.2204        8.9141       81.6982       90.6123       5.391883       0.02407
  10     361.9       84.9047        9.7420       80.4669       90.2090       5.304298       0.02216
   9     398.1       84.5669       10.6221       79.1611       89.7833       5.216340       0.02049
   8     437.6       84.2080       11.5547       77.7777       89.3325       5.124465       0.01964
   7     480.5       83.8288       12.5404       76.3136       88.8540       5.025232       0.01949
   6     533.0       83.3708       13.7339       74.5359       88.2698       4.898983       0.02031
   5     589.8       82.8898       14.9965       72.6469       87.6434       4.753677       0.02157
   4     651.6       82.3889       16.3263       70.6456       86.9719       4.582964       0.02335
   3     718.7       81.8692       17.7214       68.5367       86.2581       4.388862       0.02439
   2     792.3       81.3339       19.1767       66.3287       85.5054       4.171455       0.02493
   1     891.5       16.5633       20.6189        0.0000       20.6189       4.055657       0.00985
   0    1013.0       16.5418       20.5386        0.0000       20.5386       3.996803       0.00409



 Wavenumbers: 22650. - 29000. cm-1, ATM      1
 LEVEL PRESSURE   UPWARD FLUX   DIFDOWN FLUX  DIRDOWN FLUX  DOWNWARD FLUX   NET FLUX    HEATING RATE
          mb          W/m2          W/m2          W/m2        W/m2          W/m2       degree/day
  51    .06700       36.5822        0.0000       38.0063       38.0063       1.424105       0.00000
  50    .07753       36.5820        0.0004       38.0057       38.0061       1.424105       0.00000
  49    .09103       36.5818        0.0009       38.0050       38.0059       1.424105      -0.00000
  48    0.1069       36.5816        0.0015       38.0042       38.0057       1.424105       0.00000
  47    0.1255       36.5813        0.0021       38.0033       38.0054       1.424105       0.00000
  46    0.1487       36.5810        0.0029       38.0022       38.0051       1.424105       0.00000
  45    0.1794       36.5805        0.0040       38.0006       38.0046       1.424105       0.00000
  44    0.2165       36.5800        0.0054       37.9987       38.0041       1.424105      -0.00000
  43    0.2613       36.5794        0.0070       37.9965       38.0035       1.424105      -0.00000
  42    0.3336       36.5783        0.0096       37.9928       38.0024       1.424105       0.00000
  41    0.4307       36.5769        0.0130       37.9880       38.0010       1.424105       0.00000
  40    0.5894       36.5746        0.0187       37.9800       37.9987       1.424105       0.00000
  39     1.339       36.5637        0.0454       37.9425       37.9879       1.424105      -0.00000
  38     1.782       36.5574        0.0611       37.9204       37.9815       1.424105      -0.00000
  37     2.292       36.5500        0.0792       37.8949       37.9741       1.424105       0.00000
  36     2.964       36.5403        0.1030       37.8614       37.9644       1.424105       0.00000
  35     3.853       36.5276        0.1344       37.8172       37.9517       1.424105       0.00000
  34     5.035       36.5106        0.1761       37.7586       37.9347       1.424105      -0.00000
  33     6.613       36.4880        0.2318       37.6803       37.9121       1.424105       0.00000
  32     8.786       36.4576        0.3066       37.5750       37.8817       1.424105       0.00000
  31     11.80       36.4142        0.4134       37.4249       37.8383       1.424105      -0.00000
  30     15.07       36.3677        0.5276       37.2642       37.7918       1.424105       0.00000
  29     18.79       36.3154        0.6562       37.0833       37.7395       1.424105       0.00000
  28     23.16       36.2546        0.8057       36.8730       37.6787       1.424105       0.00000
  27     28.12       36.1854        0.9757       36.6338       37.6095       1.424105       0.00000
  26     33.73       36.1084        1.1648       36.3677       37.5325       1.424105       0.00000
  25     40.54       36.0161        1.3916       36.0486       37.4402       1.424105       0.00000
  24     48.69       35.9057        1.6626       35.6672       37.3298       1.424105      -0.00000
  23     57.69       35.7857        1.9571       35.2527       37.2098       1.424105       0.00000
  22     68.43       35.6444        2.3035       34.7649       37.0685       1.424105       0.00000
  21     81.20       35.4784        2.7102       34.1922       36.9025       1.424105       0.00000
  20     96.49       35.2839        3.1863       33.5217       36.7080       1.424105       0.00000
  19     114.6       35.0577        3.7394       32.7424       36.4818       1.424105      -0.00000
  18     136.5       34.7960        4.3785       31.8416       36.2201       1.424105       0.00000
  17     162.9       34.4933        5.1166       30.8008       35.9174       1.424105       0.00000
  16     196.4       34.1146        6.0380       29.5007       35.5387       1.424105       0.00000
  15     218.7       33.8742        6.6216       28.6767       35.2983       1.424105       0.00000
  14     243.0       33.6202        7.2375       27.8068       35.0443       1.424105       0.00000
  13     269.0       33.3530        7.8838       26.8933       34.7771       1.424105       0.00000
  12     297.5       33.0736        8.5584       25.9393       34.4977       1.424105      -0.00000
  11     328.5       32.7819        9.2609       24.9451       34.2060       1.424105       0.00000
  10     361.9       32.4793        9.9874       23.9160       33.9034       1.424105      -0.00000
   9     398.1       32.1665       10.7364       22.8541       33.5906       1.424105       0.00000
   8     437.6       31.8446       11.5043       21.7645       33.2687       1.424105      -0.00000
   7     480.5       31.5151       12.2871       20.6521       32.9393       1.424105       0.00000
   6     533.0       31.1302       13.1974       19.3569       32.5543       1.424105       0.00000
   5     589.8       30.7392       14.1165       18.0467       32.1633       1.424105       0.00000
   4     651.6       30.3447       15.0372       16.7316       31.7689       1.424105       0.00000
   3     718.7       29.9496       15.9523       15.4214       31.3737       1.424105      -0.00000
   2     792.3       29.5568       16.8533       14.1276       30.9809       1.424105       0.00000
   1     891.5        9.5389       10.9619        0.0000       10.9619       1.422998       0.00009
   0    1013.0        9.4896       10.9126        0.0000       10.9126       1.422998      -0.00000



 Wavenumbers: 29000. - 38000. cm-1, ATM      1
 LEVEL PRESSURE   UPWARD FLUX   DIFDOWN FLUX  DIRDOWN FLUX  DOWNWARD FLUX   NET FLUX    HEATING RATE
          mb          W/m2          W/m2          W/m2        W/m2          W/m2       degree/day
  51    .06700        5.2315        0.0000       13.4026       13.4026       8.171129       0.00000
  50    .07753        5.2313        0.0003       13.3983       13.3986       8.167330       3.04472
  49    .09103        5.2310        0.0007       13.3921       13.3928       8.161810       3.45005
  48    0.1069        5.2307        0.0011       13.3840       13.3851       8.154432       3.92721
  47    0.1255        5.2303        0.0016       13.3733       13.3749       8.144586       4.46369
  46    0.1487        5.2299        0.0022       13.3579       13.3601       8.130142       5.26500
  45    0.1794        5.2294        0.0030       13.3340       13.3371       8.107740       6.15001
  44    0.2165        5.2287        0.0040       13.3024       13.3064       8.077717       6.82962
  43    0.2613        5.2279        0.0052       13.2604       13.2656       8.037658       7.55108
  42    0.3336        5.2267        0.0071       13.1833       13.1904       7.963641       8.62959
  41    0.4307        5.2252        0.0096       13.0729       13.0825       7.857254       9.25014
  40    0.5894        5.2229        0.0135       12.8796       12.8931       7.670181       9.94831
  39     1.339        5.2148        0.0299       11.9165       11.9464       6.731615      10.56655
  38     1.782        5.2118        0.0383       11.4399       11.4782       6.266442       8.85614
  37     2.292        5.2096        0.0473       10.9796       11.0269       5.817236       7.44001
  36     2.964        5.2088        0.0583       10.4786       10.5370       5.328169       6.13927
  35     3.853        5.2103        0.0720        9.9429       10.0149       4.804627       4.96852
  34     5.035        5.2149        0.0890        9.4007        9.4897       4.274879       3.78430
  33     6.613        5.2228        0.1107        8.8752        8.9859       3.763081       2.73607
  32     8.786        5.2337        0.1386        8.3786        8.5172       3.283515       1.86246
  31     11.80        5.2472        0.1770        7.8897        8.0666       2.819450       1.29924
  30     15.07        5.2592        0.2166        7.5108        7.7274       2.468182       0.90690
  29     18.79        5.2708        0.2598        7.1776        7.4374       2.166647       0.68367
  28     23.16        5.2819        0.3085        6.8664        7.1749       1.893043       0.52906
  27     28.12        5.2917        0.3623        6.5780        6.9403       1.648667       0.41542
  26     33.73        5.2976        0.4210        6.3195        6.7405       1.442906       0.30937
  25     40.54        5.2987        0.4904        6.0663        6.5566       1.257911       0.22951
  24     48.69        5.2945        0.5716        5.8128        6.3845       1.089977       0.17378
  23     57.69        5.2845        0.6584        5.5777        6.2361       0.951611       0.12970
  22     68.43        5.2668        0.7590        5.3379        6.0968       0.829993       0.09561
  21     81.20        5.2371        0.8757        5.0965        5.9722       0.735128       0.06269
  20     96.49        5.1940        1.0107        4.8476        5.8584       0.664335       0.03907
  19     114.6        5.1412        1.1639        4.5799        5.7437       0.602578       0.02884
  18     136.5        5.0798        1.3353        4.2891        5.6243       0.544548       0.02231
  17     162.9        5.0098        1.5257        3.9732        5.4989       0.489065       0.01773
  16     196.4        4.9209        1.7544        3.6080        5.3624       0.441471       0.01198
  15     218.7        4.8650        1.8939        3.3898        5.2837       0.418740       0.00863
  14     243.0        4.8070        2.0365        3.1686        5.2050       0.398067       0.00717
  13     269.0        4.7473        2.1810        2.9461        5.1270       0.379782       0.00593
  12     297.5        4.6862        2.3262        2.7239        5.0501       0.363914       0.00471
  11     328.5        4.6248        2.4709        2.5029        4.9738       0.348961       0.00407
  10     361.9        4.5635        2.6138        2.2846        4.8984       0.334947       0.00355
   9     398.1        4.5027        2.7538        2.0708        4.8245       0.321868       0.00305
   8     437.6        4.4429        2.8897        1.8626        4.7523       0.309446       0.00266
   7     480.5        4.3846        3.0203        1.6621        4.6824       0.297820       0.00228
   6     533.0        4.3202        3.1619        1.4437        4.6055       0.285327       0.00201
   5     589.8        4.2591        3.2935        1.2390        4.5325       0.273404       0.00177
   4     651.6        4.2018        3.4137        1.0500        4.4637       0.261889       0.00157
   3     718.7        4.1487        3.5217        0.8778        4.3995       0.250743       0.00140
   2     792.3        4.1003        3.6165        0.7237        4.3402       0.239944       0.00124
   1     891.5        1.2451        1.4768        0.0000        1.4768       0.231719       0.00070
   0    1013.0        1.2308        1.4581        0.0000        1.4581       0.227319       0.00031



 Wavenumbers: 38000. - 50000. cm-1, ATM      1
 LEVEL PRESSURE   UPWARD FLUX   DIFDOWN FLUX  DIRDOWN FLUX  DOWNWARD FLUX   NET FLUX    HEATING RATE
          mb          W/m2          W/m2          W/m2        W/m2          W/m2       degree/day
  51    .06700        0.0051        0.0000        0.8267        0.8267       0.821528       0.00000
  50    .07753        0.0051        0.0001        0.8242        0.8243       0.819196       1.86936
  49    .09103        0.0050        0.0002        0.8207        0.8209       0.815872       2.07705
  48    0.1069        0.0049        0.0002        0.8162        0.8164       0.811514       2.31984
  47    0.1255        0.0048        0.0004        0.8103        0.8106       0.805801       2.59006
  46    0.1487        0.0047        0.0005        0.8018        0.8023       0.797567       3.00143
  45    0.1794        0.0045        0.0007        0.7889        0.7896       0.785013       3.44648
  44    0.2165        0.0044        0.0009        0.7720        0.7729       0.768507       3.75474
  43    0.2613        0.0042        0.0011        0.7500        0.7511       0.746955       4.06246
  42    0.3336        0.0039        0.0015        0.7106        0.7121       0.708267       4.51071
  41    0.4307        0.0035        0.0019        0.6566        0.6584       0.654972       4.63387
  40    0.5894        0.0029        0.0024        0.5680        0.5704       0.567464       4.65357
  39     1.339        0.0015        0.0030        0.2422        0.2452       0.243720       3.64476
  38     1.782        0.0010        0.0026        0.1493        0.1519       0.150889       1.76735
  37     2.292        0.0007        0.0022        0.0924        0.0946       0.093932       0.94336
  36     2.964        0.0005        0.0018        0.0539        0.0557       0.055224       0.48589
  35     3.853        0.0003        0.0013        0.0295        0.0308       0.030502       0.23462
  34     5.035        0.0002        0.0010        0.0154        0.0164       0.016181       0.10230
  33     6.613        0.0001        0.0007        0.0073        0.0080       0.007912       0.04420
  32     8.786        0.0000        0.0004        0.0030        0.0034       0.003390       0.01756
  31     11.80        0.0000        0.0003        0.0010        0.0012       0.001199       0.00613
  30     15.07        0.0000        0.0001        0.0003        0.0005       0.000463       0.00190
  29     18.79        0.0000        0.0001        0.0001        0.0002       0.000182       0.00064
  28     23.16        0.0000        0.0000        0.0000        0.0001       0.000071       0.00022
  27     28.12        0.0000        0.0000        0.0000        0.0000       0.000028       0.00007
  26     33.73        0.0000        0.0000        0.0000        0.0000       0.000011       0.00002
  25     40.54        0.0000        0.0000        0.0000        0.0000       0.000005       0.00001
  24     48.69        0.0000        0.0000        0.0000        0.0000       0.000002       0.00000
  23     57.69        0.0000        0.0000        0.0000        0.0000       0.000001       0.00000
  22     68.43        0.0000        0.0000        0.0000        0.0000       0.000000       0.00000
  21     81.20        0.0000        0.0000        0.0000        0.0000       0.000000       0.00000
  20     96.49        0.0000        0.0000        0.0000        0.0000       0.000000       0.00000
  19     114.6        0.0000        0.0000        0.0000        0.0000       0.000000       0.00000
  18     136.5        0.0000        0.0000        0.0000        0.0000       0.000000       0.00000
  17     162.9        0.0000        0.0000        0.0000        0.0000       0.000000       0.00000
  16     196.4        0.0000        0.0000        0.0000        0.0000       0.000000       0.00000
  15     218.7        0.0000        0.0000        0.0000        0.0000       0.000000       0.00000
  14     243.0        0.0000        0.0000        0.0000        0.0000       0.000000       0.00000
  13     269.0        0.0000        0.0000        0.0000        0.0000       0.000000       0.00000
  12     297.5        0.0000        0.0000        0.0000        0.0000       0.000000       0.00000
  11     328.5        0.0000        0.0000        0.0000        0.0000       0.000000       0.00000
  10     361.9        0.0000        0.0000        0.0000        0.0000       0.000000       0.00000
   9     398.1        0.0000        0.0000        0.0000        0.0000       0.000000       0.00000
   8     437.6        0.0000        0.0000        0.0000        0.0000       0.000000       0.00000
   7     480.5        0.0000        0.0000        0.0000        0.0000       0.000000       0.00000
   6     533.0        0.0000        0.0000        0.0000        0.0000       0.000000       0.00000
   5     589.8        0.0000        0.0000        0.0000        0.0000       0.000000       0.00000
   4     651.6        0.0000        0.0000        0.0000        0.0000       0.000000       0.00000
   3     718.7        0.0000        0.0000        0.0000        0.0000       0.000000       0.00000
   2     792.3        0.0000        0.0000        0.0000        0.0000       0.000000       0.00000
   1     891.5        0.0000        0.0000        0.0000        0.0000       0.000000       0.00000
   0    1013.0        0.0000        0.0000        0.0000        0.0000       0.000000       0.00000



 Wavenumbers:   820. -  2600. cm-1, ATM      1
 LEVEL PRESSURE   UPWARD FLUX   DIFDOWN FLUX  DIRDOWN FLUX  DOWNWARD FLUX   NET FLUX    HEATING RATE
          mb          W/m2          W/m2          W/m2        W/m2          W/m2       degree/day
  51    .06700        0.8959        0.0000        3.8670        3.8670       2.971077       0.00000
  50    .07753        0.8959        0.0000        3.8643        3.8643       2.968360       2.17771
  49    .09103        0.8959        0.0000        3.8635        3.8635       2.967550       0.50640
  48    0.1069        0.8959        0.0000        3.8626        3.8626       2.966659       0.47417
  47    0.1255        0.8959        0.0000        3.8616        3.8616       2.965698       0.43561
  46    0.1487        0.8959        0.0000        3.8605        3.8605       2.964589       0.40439
  45    0.1794        0.8959        0.0000        3.8592        3.8592       2.963254       0.36650
  44    0.2165        0.8959        0.0000        3.8578        3.8578       2.961876       0.31348
  43    0.2613        0.8959        0.0000        3.8564        3.8564       2.960415       0.27524
  42    0.3336        0.8959        0.0000        3.8541        3.8541       2.958184       0.26015
  41    0.4307        0.8959        0.0000        3.8512        3.8512       2.955301       0.25065
  40    0.5894        0.8959        0.0000        3.8465        3.8465       2.950575       0.25136
  39     1.339        0.8959        0.0000        3.8251        3.8251       2.929197       0.24067
  38     1.782        0.8959        0.0000        3.8133        3.8133       2.917383       0.22492
  37     2.292        0.8959        0.0000        3.8003        3.8003       2.904320       0.21635
  36     2.964        0.8960        0.0000        3.7841        3.7841       2.888189       0.20249
  35     3.853        0.8960        0.0000        3.7642        3.7642       2.868272       0.18902
  34     5.035        0.8960        0.0000        3.7395        3.7395       2.843577       0.17641
  33     6.613        0.8960        0.0000        3.7090        3.7090       2.813036       0.16327
  32     8.786        0.8960        0.0000        3.6726        3.6726       2.776636       0.14136
  31     11.80        0.8960        0.0000        3.6320        3.6320       2.736031       0.11368
  30     15.07        0.8960        0.0000        3.6016        3.6016       2.705636       0.07847
  29     18.79        0.8960        0.0000        3.5777        3.5777       2.681725       0.05421
  28     23.16        0.8960        0.0000        3.5564        3.5564       2.660356       0.04132
  27     28.12        0.8961        0.0000        3.5348        3.5348       2.638792       0.03666
  26     33.73        0.8961        0.0000        3.5118        3.5118       2.615738       0.03466
  25     40.54        0.8961        0.0000        3.4849        3.4849       2.588825       0.03339
  24     48.69        0.8961        0.0000        3.4537        3.4537       2.557542       0.03237
  23     57.69        0.8962        0.0000        3.4210        3.4210       2.524834       0.03066
  22     68.43        0.8962        0.0000        3.3844        3.3844       2.488207       0.02879
  21     81.20        0.8963        0.0000        3.3441        3.3441       2.447858       0.02666
  20     96.49        0.8964        0.0000        3.2998        3.2998       2.403432       0.02452
  19     114.6        0.8964        0.0000        3.2506        3.2507       2.354208       0.02298
  18     136.5        0.8966        0.0000        3.1936        3.1936       2.297052       0.02198
  17     162.9        0.8968        0.0000        3.1181        3.1181       2.221366       0.02419
  16     196.4        0.8972        0.0000        3.0090        3.0090       2.111825       0.02757
  15     218.7        0.8974        0.0000        2.9420        2.9420       2.044560       0.02554
  14     243.0        0.8979        0.0000        2.8605        2.8605       1.962615       0.02842
  13     269.0        0.8986        0.0000        2.7419        2.7420       1.843392       0.03868
  12     297.5        0.8998        0.0000        2.5729        2.5729       1.673129       0.05050
  11     328.5        0.9016        0.0000        2.3602        2.3602       1.458583       0.05833
  10     361.9        0.9045        0.0000        2.1524        2.1524       1.247985       0.05328
   9     398.1        0.9085        0.0000        1.9974        1.9974       1.088975       0.03705
   8     437.6        0.9140        0.0000        1.8835        1.8835       0.969493       0.02555
   7     480.5        0.9220        0.0000        1.7734        1.7735       0.851472       0.02318
   6     533.0        0.9350        0.0000        1.6397        1.6398       0.704794       0.02360
   5     589.8        0.9536        0.0000        1.5068        1.5069       0.553274       0.02249
   4     651.6        0.9811        0.0000        1.3807        1.3807       0.399656       0.02101
   3     718.7        1.0179        0.0000        1.2680        1.2681       0.250203       0.01878
   2     792.3        1.0641        0.0000        1.1659        1.1660       0.101892       0.01701
   1     891.5        0.0032        0.0550        0.0000        0.0550       0.051765       0.00427
   0    1013.0        0.0035        0.0499        0.0000        0.0499       0.046382       0.00037

  Modules and versions used in this calculation:

       rrtmg_sw.1col.f90:  $Revision$                    rrtmg_sw_init.f90:  $Revision$        
     rrtmgsw_cldprop.f90:  $Revision$                  rrtmgsw_cldprmc.f90:  NOT USED          
     rrtmg_sw_reftra.f90:  $Revision$                  rrtmg_sw_spcvrt.f90:  NOT USED          
     rrtmg_sw_spcvmc.f90:  NOT USED                    rrtmgsw_setcoef.f90:  NOT USED          
     rrtmg_sw_taumol.f90:  $Revision$                  rrtmg_sw_vrtqdr.f90:  NOT USED          
                rrtatm.f:  NOT USED                             util_xxx.f:  NOT USED          
                 extra.f:  NOT USED                       rrtmg_sw_k_g.f90:  $Revision$        

