

 Wavenumbers:   820. - 50000. cm-1, ATM      1
 LEVEL PRESSURE   UPWARD FLUX   DIFDOWN FLUX  DIRDOWN FLUX  DOWNWARD FLUX   NET FLUX    HEATING RATE
          mb          W/m2          W/m2          W/m2        W/m2          W/m2       degree/day
  51    .06700      227.2556        0.0000      397.8738      397.8738     170.618136       0.00000
  50    .07753      227.2550        0.0012      397.8577      397.8589     170.603849      11.45151
  49    .09103      227.2543        0.0026      397.8418      397.8444     170.590166       8.55219
  48    0.1069      227.2534        0.0043      397.8230      397.8273     170.573825       8.69812
  47    0.1255      227.2525        0.0062      397.7997      397.8059     170.553393       9.26320
  46    0.1487      227.2513        0.0086      397.7676      397.7762     170.524950      10.36767
  45    0.1794      227.2497        0.0119      397.7205      397.7324     170.482681      11.60379
  44    0.2165      227.2480        0.0158      397.6602      397.6760     170.428065      12.42431
  43    0.2613      227.2460        0.0204      397.5829      397.6033     170.357311      13.33677
  42    0.3336      227.2429        0.0279      397.4449      397.4728     170.229955      14.84847
  41    0.4307      227.2390        0.0378      397.2524      397.2902     170.051211      15.54138
  40    0.5894      227.2333        0.0537      396.9253      396.9790     169.745733      16.24492
  39     1.339      227.2173        0.1248      395.4254      395.5501     168.332772      15.90738
  38     1.782      227.2153        0.1646      394.7288      394.8933     167.678031      12.46521
  37     2.292      227.2194        0.2099      394.0572      394.2670     167.047633      10.44105
  36     2.964      227.2343        0.2687      393.3007      393.5694     166.335046       8.94512
  35     3.853      227.2673        0.3455      392.4318      392.7774     165.510069       7.82919
  34     5.035      227.3242        0.4467      391.4441      391.8907     164.566555       6.74007
  33     6.613      227.4075        0.5806      390.3268      390.9074     163.499901       5.70233
  32     8.786      227.5145        0.7598      389.0624      389.8222     162.307613       4.63042
  31     11.80      227.6456        1.0140      387.5500      388.5639     160.918345       3.88951
  30     15.07      227.7604        1.2846      386.1556      387.4403     159.679833       3.19760
  29     18.79      227.8671        1.5880      384.7502      386.3382     158.471121       2.74052
  28     23.16      227.9650        1.9394      383.2686      385.2080     157.243005       2.37478
  27     28.12      228.0460        2.3380      381.7329      384.0709     156.024861       2.07076
  26     33.73      228.0910        2.7807      380.1982      382.9789     154.887836       1.70955
  25     40.54      228.0926        3.3116      378.5384      381.8500     153.757310       1.40255
  24     48.69      228.0441        3.9459      376.7214      380.6673     152.623180       1.17365
  23     57.69      227.9425        4.6359      374.8959      379.5318     151.589359       0.96905
  22     68.43      227.7696        5.4494      372.8999      378.3493     150.579676       0.79375
  21     81.20      227.4922        6.4080      370.7496      377.1576     149.665476       0.60409
  20     96.49      227.0971        7.5356      368.4056      375.9412     148.844045       0.45337
  19     114.6      226.6079        8.8524      365.7513      374.6037     147.995726       0.39611
  18     136.5      226.0152       10.3814      362.7231      373.1045     147.089296       0.34854
  17     162.9      225.3035       12.1582      359.1748      371.3330     146.029547       0.33874
  16     196.4      224.3568       14.3978      354.5718      368.9696     144.612791       0.35661
  15     218.7      223.7326       15.8297      351.4437      367.2734     143.540740       0.40702
  14     243.0      223.0601       17.3523      347.7111      365.0635     142.003345       0.53322
  13     269.0      222.3409       18.9638      342.9441      361.9079     139.567030       0.79033
  12     297.5      221.5778       20.6618      337.4137      358.0755     136.497741       0.91032
  11     328.5      220.7772       22.4478      331.1302      353.5781     132.800827       1.00518
  10     361.9      219.9468       24.3163      324.1219      348.4382     128.491428       1.09032
   9     398.1      219.0935       26.2664      316.6066      342.8730     123.779512       1.09777
   8     437.6      218.2331       28.2935      308.5895      336.8829     118.649837       1.09676
   7     480.5      217.3939       30.3914      299.9349      330.3263     112.932421       1.12288
   6     533.0      216.4939       32.8744      289.7021      322.5765     106.082660       1.10191
   5     589.8      215.7118       35.4348      279.3388      314.7736      99.061802       1.04213
   4     651.6      215.1425       38.0601      268.7786      306.8387      91.696210       1.00726
   3     718.7      214.8630       40.7412      258.2837      299.0248      84.161799       0.94687
   2     792.3      214.9718       43.4635      248.0774      291.5409      76.569074       0.87080
   1     891.5       93.9173      157.7229        7.7032      165.4261      71.508787       0.43061
   0    1013.0       94.0976      155.0838        7.2438      162.3275      68.229995       0.22766



 Wavenumbers:  2600. -  3250. cm-1, ATM      1
 LEVEL PRESSURE   UPWARD FLUX   DIFDOWN FLUX  DIRDOWN FLUX  DOWNWARD FLUX   NET FLUX    HEATING RATE
          mb          W/m2          W/m2          W/m2        W/m2          W/m2       degree/day
  51    .06700        0.7912        0.0000        3.5066        3.5066       2.715392       0.00000
  50    .07753        0.7912        0.0000        3.5066        3.5066       2.715384       0.00640
  49    .09103        0.7912        0.0000        3.5066        3.5066       2.715374       0.00627
  48    0.1069        0.7912        0.0000        3.5066        3.5066       2.715362       0.00613
  47    0.1255        0.7912        0.0000        3.5066        3.5066       2.715349       0.00599
  46    0.1487        0.7912        0.0000        3.5066        3.5066       2.715332       0.00607
  45    0.1794        0.7912        0.0000        3.5065        3.5065       2.715310       0.00624
  44    0.2165        0.7912        0.0000        3.5065        3.5065       2.715283       0.00611
  43    0.2613        0.7912        0.0000        3.5065        3.5065       2.715251       0.00598
  42    0.3336        0.7912        0.0000        3.5064        3.5064       2.715198       0.00615
  41    0.4307        0.7912        0.0000        3.5064        3.5064       2.715127       0.00618
  40    0.5894        0.7912        0.0000        3.5062        3.5062       2.715008       0.00633
  39     1.339        0.7912        0.0000        3.5055        3.5055       2.714309       0.00787
  38     1.782        0.7912        0.0000        3.5050        3.5050       2.713779       0.01011
  37     2.292        0.7912        0.0000        3.5043        3.5043       2.713086       0.01147
  36     2.964        0.7912        0.0000        3.5033        3.5033       2.712095       0.01245
  35     3.853        0.7912        0.0000        3.5019        3.5019       2.710718       0.01307
  34     5.035        0.7912        0.0000        3.5001        3.5001       2.708857       0.01329
  33     6.613        0.7912        0.0000        3.4977        3.4977       2.706447       0.01288
  32     8.786        0.7912        0.0000        3.4947        3.4947       2.703476       0.01154
  31     11.80        0.7912        0.0000        3.4911        3.4911       2.699840       0.01018
  30     15.07        0.7912        0.0000        3.4878        3.4878       2.696618       0.00832
  29     18.79        0.7912        0.0000        3.4848        3.4848       2.693554       0.00695
  28     23.16        0.7912        0.0000        3.4816        3.4816       2.690333       0.00623
  27     28.12        0.7912        0.0000        3.4779        3.4779       2.686713       0.00615
  26     33.73        0.7912        0.0000        3.4735        3.4735       2.682243       0.00672
  25     40.54        0.7912        0.0000        3.4671        3.4672       2.675913       0.00785
  24     48.69        0.7912        0.0000        3.4582        3.4583       2.667010       0.00921
  23     57.69        0.7913        0.0000        3.4472        3.4472       2.655953       0.01037
  22     68.43        0.7913        0.0000        3.4329        3.4329       2.641678       0.01122
  21     81.20        0.7913        0.0000        3.4152        3.4152       2.623929       0.01173
  20     96.49        0.7913        0.0000        3.3940        3.3941       2.602755       0.01169
  19     114.6        0.7914        0.0000        3.3692        3.3692       2.577823       0.01164
  18     136.5        0.7915        0.0001        3.3419        3.3420       2.550545       0.01049
  17     162.9        0.7916        0.0001        3.3129        3.3129       2.521377       0.00932
  16     196.4        0.7918        0.0001        3.2793        3.2794       2.487636       0.00849
  15     218.7        0.7920        0.0001        3.2578        3.2578       2.465854       0.00827
  14     243.0        0.7923        0.0001        3.2320        3.2321       2.439723       0.00906
  13     269.0        0.7929        0.0001        3.1968        3.1969       2.404054       0.01157
  12     297.5        0.7937        0.0001        3.1489        3.1491       2.355322       0.01445
  11     328.5        0.7950        0.0001        3.0821        3.0822       2.287154       0.01853
  10     361.9        0.7969        0.0001        2.9902        2.9904       2.193432       0.02371
   9     398.1        0.7997        0.0001        2.8715        2.8716       2.071937       0.02831
   8     437.6        0.8037        0.0001        2.7276        2.7278       1.924139       0.03160
   7     480.5        0.8096        0.0002        2.5595        2.5597       1.750055       0.03419
   6     533.0        0.8197        0.0002        2.3617        2.3619       1.542226       0.03343
   5     589.8        0.8345        0.0002        2.1649        2.1651       1.330637       0.03141
   4     651.6        0.8564        0.0002        1.9608        1.9609       1.104517       0.03092
   3     718.7        0.8878        0.0002        1.7593        1.7595       0.871745       0.02925
   2     792.3        0.9314        0.0002        1.5761        1.5762       0.644862       0.02602
   1     891.5        0.1332        0.5946        0.0448        0.6395       0.506259       0.01179
   0    1013.0        0.1458        0.5353        0.0379        0.5732       0.427457       0.00547



 Wavenumbers:  3250. -  4000. cm-1, ATM      1
 LEVEL PRESSURE   UPWARD FLUX   DIFDOWN FLUX  DIRDOWN FLUX  DOWNWARD FLUX   NET FLUX    HEATING RATE
          mb          W/m2          W/m2          W/m2        W/m2          W/m2       degree/day
  51    .06700        0.0053        0.0000        5.9117        5.9117       5.906387       0.00000
  50    .07753        0.0053        0.0000        5.9075        5.9075       5.902197       3.35808
  49    .09103        0.0053        0.0000        5.9050        5.9050       5.899755       1.52677
  48    0.1069        0.0053        0.0000        5.9032        5.9032       5.897888       0.99346
  47    0.1255        0.0053        0.0000        5.9014        5.9014       5.896130       0.79708
  46    0.1487        0.0053        0.0000        5.8995        5.8995       5.894241       0.68848
  45    0.1794        0.0053        0.0000        5.8974        5.8974       5.892093       0.58983
  44    0.2165        0.0053        0.0000        5.8952        5.8952       5.889976       0.48155
  43    0.2613        0.0053        0.0000        5.8931        5.8931       5.887817       0.40696
  42    0.3336        0.0053        0.0000        5.8899        5.8899       5.884659       0.36820
  41    0.4307        0.0053        0.0000        5.8861        5.8861       5.880822       0.33365
  40    0.5894        0.0053        0.0000        5.8803        5.8803       5.875019       0.30857
  39     1.339        0.0053        0.0000        5.8597        5.8597       5.854422       0.23189
  38     1.782        0.0053        0.0000        5.8513        5.8513       5.845997       0.16039
  37     2.292        0.0053        0.0000        5.8431        5.8431       5.837826       0.13533
  36     2.964        0.0053        0.0000        5.8334        5.8334       5.828186       0.12100
  35     3.853        0.0053        0.0000        5.8213        5.8213       5.816011       0.11555
  34     5.035        0.0053        0.0000        5.8052        5.8052       5.799916       0.11498
  33     6.613        0.0053        0.0000        5.7833        5.7834       5.778094       0.11666
  32     8.786        0.0053        0.0000        5.7531        5.7531       5.747893       0.11729
  31     11.80        0.0053        0.0000        5.7090        5.7090       5.703724       0.12366
  30     15.07        0.0052        0.0000        5.6615        5.6615       5.656259       0.12254
  29     18.79        0.0052        0.0000        5.6093        5.6094       5.604124       0.11821
  28     23.16        0.0052        0.0000        5.5524        5.5524       5.547198       0.11008
  27     28.12        0.0052        0.0000        5.4935        5.4935       5.488319       0.10009
  26     33.73        0.0052        0.0000        5.4348        5.4349       5.429630       0.08824
  25     40.54        0.0052        0.0001        5.3707        5.3708       5.365569       0.07948
  24     48.69        0.0052        0.0001        5.2985        5.2985       5.293336       0.07475
  23     57.69        0.0052        0.0001        5.2215        5.2216       5.216397       0.07212
  22     68.43        0.0052        0.0001        5.1318        5.1319       5.126736       0.07048
  21     81.20        0.0052        0.0001        5.0284        5.0285       5.023307       0.06834
  20     96.49        0.0051        0.0001        4.9122        4.9123       4.907173       0.06410
  19     114.6        0.0051        0.0001        4.7780        4.7782       4.773062       0.06262
  18     136.5        0.0051        0.0002        4.6285        4.6287       4.623584       0.05748
  17     162.9        0.0051        0.0002        4.4406        4.4407       4.435671       0.06006
  16     196.4        0.0050        0.0002        4.1548        4.1550       4.149997       0.07191
  15     218.7        0.0050        0.0002        3.9564        3.9566       3.951615       0.07532
  14     243.0        0.0050        0.0002        3.7055        3.7058       3.700778       0.08700
  13     269.0        0.0050        0.0002        3.3399        3.3401       3.335132       0.11861
  12     297.5        0.0050        0.0002        2.8954        2.8956       2.890629       0.13183
  11     328.5        0.0050        0.0002        2.4388        2.4390       2.434060       0.12414
  10     361.9        0.0050        0.0002        2.0269        2.0271       2.022070       0.10424
   9     398.1        0.0051        0.0002        1.6753        1.6755       1.670392       0.08193
   8     437.6        0.0052        0.0002        1.3592        1.3594       1.354116       0.06762
   7     480.5        0.0055        0.0002        1.0616        1.0618       1.056248       0.05850
   6     533.0        0.0061        0.0001        0.7543        0.7544       0.748328       0.04953
   5     589.8        0.0072        0.0001        0.4951        0.4952       0.488053       0.03863
   4     651.6        0.0093        0.0001        0.2943        0.2943       0.285049       0.02776
   3     718.7        0.0134        0.0001        0.1528        0.1529       0.139408       0.01830
   2     792.3        0.0220        0.0000        0.0658        0.0658       0.043875       0.01096
   1     891.5        0.0001        0.0084        0.0005        0.0089       0.008785       0.00299
   0    1013.0        0.0005        0.0020        0.0000        0.0020       0.001525       0.00050



 Wavenumbers:  4000. -  4650. cm-1, ATM      1
 LEVEL PRESSURE   UPWARD FLUX   DIFDOWN FLUX  DIRDOWN FLUX  DOWNWARD FLUX   NET FLUX    HEATING RATE
          mb          W/m2          W/m2          W/m2        W/m2          W/m2       degree/day
  51    .06700        2.8746        0.0000        6.9421        6.9421       4.067472       0.00000
  50    .07753        2.8746        0.0000        6.9421        6.9421       4.067471       0.00079
  49    .09103        2.8746        0.0000        6.9421        6.9421       4.067469       0.00078
  48    0.1069        2.8746        0.0000        6.9421        6.9421       4.067468       0.00076
  47    0.1255        2.8746        0.0000        6.9421        6.9421       4.067466       0.00074
  46    0.1487        2.8746        0.0000        6.9421        6.9421       4.067464       0.00075
  45    0.1794        2.8746        0.0000        6.9421        6.9421       4.067461       0.00077
  44    0.2165        2.8746        0.0000        6.9421        6.9421       4.067458       0.00076
  43    0.2613        2.8746        0.0000        6.9420        6.9420       4.067454       0.00074
  42    0.3336        2.8746        0.0000        6.9420        6.9420       4.067448       0.00076
  41    0.4307        2.8746        0.0000        6.9420        6.9420       4.067439       0.00077
  40    0.5894        2.8746        0.0000        6.9420        6.9420       4.067424       0.00079
  39     1.339        2.8746        0.0000        6.9419        6.9419       4.067335       0.00100
  38     1.782        2.8746        0.0000        6.9418        6.9419       4.067266       0.00132
  37     2.292        2.8746        0.0000        6.9418        6.9418       4.067172       0.00155
  36     2.964        2.8746        0.0000        6.9416        6.9416       4.067033       0.00175
  35     3.853        2.8746        0.0000        6.9414        6.9414       4.066826       0.00196
  34     5.035        2.8746        0.0000        6.9411        6.9411       4.066521       0.00218
  33     6.613        2.8746        0.0000        6.9406        6.9407       4.066073       0.00240
  32     8.786        2.8746        0.0000        6.9399        6.9400       4.065413       0.00257
  31     11.80        2.8746        0.0000        6.9389        6.9389       4.064377       0.00290
  30     15.07        2.8746        0.0001        6.9377        6.9377       4.063166       0.00313
  29     18.79        2.8746        0.0001        6.9362        6.9363       4.061706       0.00331
  28     23.16        2.8745        0.0001        6.9343        6.9344       4.059900       0.00349
  27     28.12        2.8745        0.0001        6.9321        6.9323       4.057722       0.00370
  26     33.73        2.8745        0.0001        6.9294        6.9296       4.055049       0.00402
  25     40.54        2.8745        0.0002        6.9258        6.9260       4.051444       0.00447
  24     48.69        2.8745        0.0002        6.9210        6.9212       4.046670       0.00494
  23     57.69        2.8745        0.0002        6.9154        6.9156       4.041050       0.00527
  22     68.43        2.8746        0.0003        6.9083        6.9086       4.034059       0.00550
  21     81.20        2.8746        0.0003        6.8998        6.9001       4.025505       0.00565
  20     96.49        2.8747        0.0004        6.8894        6.8898       4.015164       0.00571
  19     114.6        2.8748        0.0005        6.8765        6.8770       4.002202       0.00605
  18     136.5        2.8750        0.0006        6.8610        6.8615       3.986544       0.00602
  17     162.9        2.8753        0.0007        6.8417        6.8423       3.967027       0.00624
  16     196.4        2.8759        0.0008        6.8147        6.8155       3.939586       0.00691
  15     218.7        2.8764        0.0009        6.7948        6.7957       3.919330       0.00769
  14     243.0        2.8772        0.0010        6.7698        6.7708       3.893588       0.00893
  13     269.0        2.8784        0.0011        6.7349        6.7359       3.857505       0.01171
  12     297.5        2.8803        0.0012        6.6869        6.6881       3.807717       0.01477
  11     328.5        2.8831        0.0013        6.6194        6.6207       3.737638       0.01905
  10     361.9        2.8866        0.0014        6.5295        6.5309       3.644260       0.02363
   9     398.1        2.8914        0.0016        6.4202        6.4218       3.530395       0.02653
   8     437.6        2.8977        0.0017        6.2962        6.2979       3.400128       0.02785
   7     480.5        2.9066        0.0018        6.1555        6.1573       3.250747       0.02934
   6     533.0        2.9211        0.0020        5.9675        5.9695       3.048468       0.03254
   5     589.8        2.9424        0.0022        5.7368        5.7389       2.796538       0.03739
   4     651.6        2.9741        0.0023        5.4662        5.4685       2.494439       0.04131
   3     718.7        3.0192        0.0024        5.1912        5.1936       2.174445       0.04021
   2     792.3        3.0811        0.0026        4.9395        4.9421       1.861021       0.03595
   1     891.5        0.5062        2.0174        0.1520        2.1694       1.663169       0.01684
   0    1013.0        0.5262        1.9272        0.1412        2.0684       1.542169       0.00840



 Wavenumbers:  4650. -  5150. cm-1, ATM      1
 LEVEL PRESSURE   UPWARD FLUX   DIFDOWN FLUX  DIRDOWN FLUX  DOWNWARD FLUX   NET FLUX    HEATING RATE
          mb          W/m2          W/m2          W/m2        W/m2          W/m2       degree/day
  51    .06700        2.0059        0.0000        6.5710        6.5710       4.565140       0.00000
  50    .07753        2.0059        0.0000        6.5708        6.5708       4.564904       0.18887
  49    .09103        2.0059        0.0000        6.5705        6.5705       4.564611       0.18362
  48    0.1069        2.0059        0.0000        6.5701        6.5701       4.564276       0.17806
  47    0.1255        2.0059        0.0000        6.5697        6.5697       4.563896       0.17238
  46    0.1487        2.0059        0.0000        6.5693        6.5693       4.563422       0.17268
  45    0.1794        2.0059        0.0000        6.5686        6.5686       4.562786       0.17473
  44    0.2165        2.0059        0.0000        6.5679        6.5679       4.562048       0.16788
  43    0.2613        2.0059        0.0000        6.5670        6.5670       4.561195       0.16078
  42    0.3336        2.0059        0.0000        6.5657        6.5657       4.559831       0.15894
  41    0.4307        2.0059        0.0000        6.5640        6.5640       4.558110       0.14971
  40    0.5894        2.0059        0.0000        6.5613        6.5613       4.555493       0.13913
  39     1.339        2.0058        0.0000        6.5516        6.5516       4.545716       0.11008
  38     1.782        2.0058        0.0000        6.5473        6.5473       4.541500       0.08027
  37     2.292        2.0058        0.0000        6.5434        6.5435       4.537612       0.06438
  36     2.964        2.0058        0.0000        6.5395        6.5395       4.533658       0.04964
  35     3.853        2.0058        0.0000        6.5355        6.5356       4.529714       0.03742
  34     5.035        2.0058        0.0000        6.5315        6.5315       4.525711       0.02860
  33     6.613        2.0058        0.0000        6.5271        6.5271       4.521314       0.02350
  32     8.786        2.0058        0.0001        6.5216        6.5216       4.515816       0.02135
  31     11.80        2.0058        0.0001        6.5135        6.5136       4.507730       0.02264
  30     15.07        2.0058        0.0001        6.5041        6.5042       4.498352       0.02421
  29     18.79        2.0058        0.0001        6.4925        6.4926       4.486824       0.02614
  28     23.16        2.0058        0.0001        6.4779        6.4780       4.472214       0.02825
  27     28.12        2.0058        0.0002        6.4599        6.4601       4.454214       0.03060
  26     33.73        2.0059        0.0002        6.4384        6.4386       4.432751       0.03227
  25     40.54        2.0059        0.0002        6.4112        6.4115       4.405580       0.03371
  24     48.69        2.0059        0.0003        6.3775        6.3778       4.371879       0.03488
  23     57.69        2.0060        0.0004        6.3404        6.3407       4.334706       0.03484
  22     68.43        2.0061        0.0004        6.2971        6.2975       4.291404       0.03404
  21     81.20        2.0063        0.0005        6.2483        6.2487       4.242435       0.03236
  20     96.49        2.0065        0.0006        6.1948        6.1954       4.188852       0.02957
  19     114.6        2.0069        0.0007        6.1381        6.1388       4.131927       0.02658
  18     136.5        2.0074        0.0008        6.0790        6.0798       4.072419       0.02288
  17     162.9        2.0081        0.0009        6.0160        6.0170       4.008904       0.02030
  16     196.4        2.0092        0.0011        5.9399        5.9410       3.931801       0.01941
  15     218.7        2.0101        0.0012        5.8896        5.8909       3.880786       0.01937
  14     243.0        2.0113        0.0014        5.8322        5.8336       3.822274       0.02029
  13     269.0        2.0130        0.0015        5.7624        5.7639       3.750911       0.02315
  12     297.5        2.0155        0.0017        5.6767        5.6784       3.662931       0.02609
  11     328.5        2.0188        0.0018        5.5726        5.5744       3.555587       0.02919
  10     361.9        2.0234        0.0020        5.4473        5.4493       3.425922       0.03281
   9     398.1        2.0295        0.0021        5.2995        5.3016       3.272117       0.03583
   8     437.6        2.0377        0.0023        5.1275        5.1297       3.092034       0.03850
   7     480.5        2.0489        0.0024        4.9290        4.9314       2.882453       0.04116
   6     533.0        2.0667        0.0026        4.6794        4.6820       2.615227       0.04299
   5     589.8        2.0917        0.0028        4.4188        4.4215       2.329839       0.04236
   4     651.6        2.1272        0.0029        4.1521        4.1550       2.027831       0.04130
   3     718.7        2.1756        0.0031        3.8929        3.8960       1.720406       0.03863
   2     792.3        2.2405        0.0032        3.6469        3.6501       1.409591       0.03565
   1     891.5        0.3550        1.4566        0.1097        1.5662       1.211276       0.01688
   0    1013.0        0.3739        1.3705        0.0994        1.4699       1.096001       0.00800



 Wavenumbers:  5150. -  6150. cm-1, ATM      1
 LEVEL PRESSURE   UPWARD FLUX   DIFDOWN FLUX  DIRDOWN FLUX  DOWNWARD FLUX   NET FLUX    HEATING RATE
          mb          W/m2          W/m2          W/m2        W/m2          W/m2       degree/day
  51    .06700        5.0008        0.0000       16.4735       16.4735      11.472680       0.00000
  50    .07753        5.0008        0.0000       16.4735       16.4735      11.472645       0.02763
  49    .09103        5.0008        0.0000       16.4734       16.4734      11.472600       0.02812
  48    0.1069        5.0008        0.0000       16.4734       16.4734      11.472547       0.02861
  47    0.1255        5.0008        0.0000       16.4733       16.4733      11.472482       0.02906
  46    0.1487        5.0008        0.0000       16.4732       16.4732      11.472398       0.03061
  45    0.1794        5.0008        0.0000       16.4731       16.4731      11.472279       0.03271
  44    0.2165        5.0008        0.0000       16.4730       16.4730      11.472133       0.03333
  43    0.2613        5.0008        0.0000       16.4728       16.4728      11.471954       0.03378
  42    0.3336        5.0008        0.0000       16.4725       16.4725      11.471648       0.03566
  41    0.4307        5.0008        0.0000       16.4720       16.4720      11.471228       0.03647
  40    0.5894        5.0008        0.0000       16.4713       16.4713      11.470527       0.03731
  39     1.339        5.0008        0.0000       16.4679       16.4679      11.467116       0.03840
  38     1.782        5.0008        0.0000       16.4659       16.4659      11.465115       0.03810
  37     2.292        5.0008        0.0001       16.4635       16.4636      11.462821       0.03799
  36     2.964        5.0008        0.0001       16.4605       16.4606      11.459848       0.03732
  35     3.853        5.0008        0.0001       16.4567       16.4568      11.455989       0.03662
  34     5.035        5.0008        0.0001       16.4516       16.4517      11.450985       0.03575
  33     6.613        5.0007        0.0002       16.4451       16.4452      11.444513       0.03460
  32     8.786        5.0007        0.0002       16.4367       16.4369      11.436184       0.03235
  31     11.80        5.0007        0.0003       16.4254       16.4257      11.425006       0.03129
  30     15.07        5.0007        0.0004       16.4141       16.4145      11.413888       0.02870
  29     18.79        5.0006        0.0005       16.4024       16.4030      11.402329       0.02621
  28     23.16        5.0006        0.0006       16.3900       16.3906      11.390021       0.02380
  27     28.12        5.0006        0.0008       16.3771       16.3779      11.377299       0.02163
  26     33.73        5.0006        0.0009       16.3641       16.3651      11.364501       0.01924
  25     40.54        5.0005        0.0011       16.3502       16.3513      11.350762       0.01704
  24     48.69        5.0006        0.0014       16.3354       16.3367      11.336158       0.01511
  23     57.69        5.0006        0.0016       16.3211       16.3227      11.322100       0.01318
  22     68.43        5.0006        0.0019       16.3062       16.3082      11.307513       0.01147
  21     81.20        5.0007        0.0023       16.2903       16.2926      11.291872       0.01034
  20     96.49        5.0008        0.0027       16.2726       16.2753      11.274491       0.00959
  19     114.6        5.0010        0.0032       16.2521       16.2553      11.254301       0.00943
  18     136.5        5.0012        0.0038       16.2245       16.2283      11.227178       0.01043
  17     162.9        5.0014        0.0045       16.1747       16.1792      11.177818       0.01578
  16     196.4        5.0018        0.0054       16.0518       16.0572      11.055419       0.03081
  15     218.7        5.0021        0.0060       15.8984       15.9044      10.902215       0.05817
  14     243.0        5.0026        0.0066       15.6153       15.6218      10.619250       0.09814
  13     269.0        5.0032        0.0071       15.1390       15.1461      10.142884       0.15453
  12     297.5        5.0042        0.0076       14.5779       14.5855       9.581310       0.16656
  11     328.5        5.0058        0.0082       13.8780       13.8862       8.880385       0.19058
  10     361.9        5.0082        0.0086       13.0814       13.0901       8.081886       0.20203
   9     398.1        5.0117        0.0090       12.2728       12.2819       7.270194       0.18911
   8     437.6        5.0169        0.0094       11.4776       11.4870       6.470052       0.17108
   7     480.5        5.0251        0.0098       10.7300       10.7397       5.714670       0.14835
   6     533.0        5.0396        0.0102       10.0326       10.0428       5.003157       0.11446
   5     589.8        5.0629        0.0107        9.5050        9.5158       4.452839       0.08169
   4     651.6        5.1005        0.0114        9.0814        9.0928       3.992303       0.06298
   3     718.7        5.1580        0.0121        8.7024        8.7146       3.556571       0.05476
   2     792.3        5.2428        0.0130        8.3379        8.3509       3.108069       0.05144
   1     891.5        0.8833        3.4439        0.2585        3.7024       2.819127       0.02459
   0    1013.0        0.9067        3.3194        0.2444        3.5638       2.657070       0.01125



 Wavenumbers:  6150. -  7700. cm-1, ATM      1
 LEVEL PRESSURE   UPWARD FLUX   DIFDOWN FLUX  DIRDOWN FLUX  DOWNWARD FLUX   NET FLUX    HEATING RATE
          mb          W/m2          W/m2          W/m2        W/m2          W/m2       degree/day
  51    .06700        7.7504        0.0000       30.4684       30.4684      22.718034       0.00000
  50    .07753        7.7503        0.0000       30.4683       30.4683      22.717982       0.04144
  49    .09103        7.7503        0.0000       30.4683       30.4683      22.717915       0.04174
  48    0.1069        7.7503        0.0000       30.4682       30.4682      22.717836       0.04202
  47    0.1255        7.7503        0.0000       30.4681       30.4681      22.717743       0.04227
  46    0.1487        7.7503        0.0000       30.4680       30.4680      22.717622       0.04411
  45    0.1794        7.7503        0.0000       30.4678       30.4678      22.717452       0.04669
  44    0.2165        7.7503        0.0000       30.4676       30.4676      22.717245       0.04715
  43    0.2613        7.7503        0.0000       30.4673       30.4673      22.716993       0.04744
  42    0.3336        7.7503        0.0000       30.4669       30.4669      22.716566       0.04974
  41    0.4307        7.7503        0.0000       30.4663       30.4663      22.715985       0.05052
  40    0.5894        7.7503        0.0001       30.4653       30.4653      22.715018       0.05146
  39     1.339        7.7502        0.0001       30.4604       30.4606      22.710334       0.05273
  38     1.782        7.7502        0.0002       30.4576       30.4578      22.707584       0.05235
  37     2.292        7.7501        0.0003       30.4543       30.4546      22.704426       0.05231
  36     2.964        7.7501        0.0003       30.4501       30.4504      22.700318       0.05156
  35     3.853        7.7500        0.0004       30.4445       30.4450      22.694961       0.05084
  34     5.035        7.7499        0.0006       30.4373       30.4378      22.687961       0.05000
  33     6.613        7.7497        0.0008       30.4278       30.4286      22.678814       0.04890
  32     8.786        7.7495        0.0010       30.4154       30.4164      22.666861       0.04642
  31     11.80        7.7493        0.0014       30.3984       30.3997      22.650475       0.04587
  30     15.07        7.7490        0.0018       30.3810       30.3827      22.633761       0.04315
  29     18.79        7.7486        0.0022       30.3623       30.3645      22.615860       0.04059
  28     23.16        7.7482        0.0027       30.3417       30.3444      22.596177       0.03806
  27     28.12        7.7478        0.0033       30.3196       30.3228      22.575076       0.03587
  26     33.73        7.7472        0.0039       30.2965       30.3004      22.553156       0.03296
  25     40.54        7.7466        0.0047       30.2708       30.2754      22.528817       0.03020
  24     48.69        7.7459        0.0056       30.2423       30.2479      22.502038       0.02771
  23     57.69        7.7451        0.0067       30.2139       30.2205      22.475469       0.02490
  22     68.43        7.7441        0.0079       30.1834       30.1913      22.447190       0.02223
  21     81.20        7.7429        0.0094       30.1500       30.1594      22.416455       0.02031
  20     96.49        7.7415        0.0111       30.1126       30.1238      22.382229       0.01889
  19     114.6        7.7399        0.0132       30.0695       30.0827      22.342832       0.01840
  18     136.5        7.7379        0.0157       30.0139       30.0296      22.291658       0.01968
  17     162.9        7.7357        0.0186       29.9225       29.9411      22.205439       0.02756
  16     196.4        7.7328        0.0224       29.7333       29.7557      22.022958       0.04593
  15     218.7        7.7309        0.0248       29.5259       29.5507      21.819727       0.07716
  14     243.0        7.7291        0.0273       29.1375       29.1648      21.435706       0.13319
  13     269.0        7.7275        0.0298       28.3800       28.4098      20.682273       0.24441
  12     297.5        7.7264        0.0321       27.3895       27.4216      19.695168       0.29276
  11     328.5        7.7264        0.0343       26.2257       26.2600      18.533552       0.31584
  10     361.9        7.7282        0.0363       24.8453       24.8817      17.153494       0.34917
   9     398.1        7.7326        0.0381       23.3471       23.3852      15.652622       0.34967
   8     437.6        7.7414        0.0397       21.7966       21.8363      14.094992       0.33303
   7     480.5        7.7578        0.0410       20.1977       20.2387      12.480924       0.31700
   6     533.0        7.7906        0.0424       18.4969       18.5393      10.748699       0.27866
   5     589.8        7.8459        0.0437       16.9754       17.0191       9.173182       0.23386
   4     651.6        7.9379        0.0451       15.6022       15.6473       7.709381       0.20018
   3     718.7        8.0801        0.0467       14.4232       14.4699       6.389779       0.16584
   2     792.3        8.2906        0.0485       13.4386       13.4871       5.196475       0.13686
   1     891.5        1.3300        5.4046        0.4047        5.8093       4.479243       0.06103
   0    1013.0        1.3904        5.0968        0.3692        5.4660       4.075652       0.02802



 Wavenumbers:  7700. -  8050. cm-1, ATM      1
 LEVEL PRESSURE   UPWARD FLUX   DIFDOWN FLUX  DIRDOWN FLUX  DOWNWARD FLUX   NET FLUX    HEATING RATE
          mb          W/m2          W/m2          W/m2        W/m2          W/m2       degree/day
  51    .06700        3.7297        0.0000        7.2006        7.2006       3.470877       0.00000
  50    .07753        3.7297        0.0000        7.2006        7.2006       3.470857       0.01619
  49    .09103        3.7297        0.0000        7.2005        7.2005       3.470831       0.01587
  48    0.1069        3.7297        0.0000        7.2005        7.2005       3.470802       0.01553
  47    0.1255        3.7297        0.0000        7.2005        7.2005       3.470768       0.01520
  46    0.1487        3.7297        0.0000        7.2004        7.2005       3.470726       0.01542
  45    0.1794        3.7297        0.0000        7.2004        7.2004       3.470668       0.01587
  44    0.2165        3.7297        0.0000        7.2003        7.2003       3.470600       0.01557
  43    0.2613        3.7297        0.0000        7.2003        7.2003       3.470519       0.01527
  42    0.3336        3.7298        0.0000        7.2001        7.2001       3.470385       0.01563
  41    0.4307        3.7298        0.0000        7.2000        7.2000       3.470207       0.01546
  40    0.5894        3.7298        0.0000        7.1997        7.1997       3.469917       0.01544
  39     1.339        3.7300        0.0001        7.1984        7.1985       3.468543       0.01546
  38     1.782        3.7300        0.0001        7.1977        7.1978       3.467737       0.01535
  37     2.292        3.7301        0.0001        7.1968        7.1969       3.466804       0.01546
  36     2.964        3.7303        0.0001        7.1957        7.1958       3.465579       0.01538
  35     3.853        3.7304        0.0002        7.1942        7.1944       3.463962       0.01535
  34     5.035        3.7307        0.0002        7.1922        7.1925       3.461814       0.01534
  33     6.613        3.7310        0.0003        7.1896        7.1899       3.458949       0.01532
  32     8.786        3.7314        0.0004        7.1860        7.1865       3.455092       0.01498
  31     11.80        3.7320        0.0006        7.1810        7.1816       3.449585       0.01542
  30     15.07        3.7326        0.0007        7.1755        7.1763       3.443687       0.01523
  29     18.79        3.7333        0.0009        7.1694        7.1704       3.437044       0.01506
  28     23.16        3.7342        0.0011        7.1623        7.1635       3.429310       0.01496
  27     28.12        3.7351        0.0014        7.1542        7.1556       3.420500       0.01498
  26     33.73        3.7362        0.0017        7.1452        7.1469       3.410686       0.01476
  25     40.54        3.7376        0.0020        7.1344        7.1364       3.398893       0.01463
  24     48.69        3.7392        0.0024        7.1215        7.1239       3.384768       0.01462
  23     57.69        3.7409        0.0028        7.1074        7.1103       3.369369       0.01443
  22     68.43        3.7430        0.0034        7.0909        7.0942       3.351187       0.01429
  21     81.20        3.7456        0.0040        7.0713        7.0753       3.329745       0.01417
  20     96.49        3.7487        0.0047        7.0484        7.0532       3.304502       0.01393
  19     114.6        3.7523        0.0056        7.0217        7.0273       3.274947       0.01380
  18     136.5        3.7568        0.0066        6.9906        6.9972       3.240478       0.01325
  17     162.9        3.7621        0.0079        6.9544        6.9623       3.200177       0.01288
  16     196.4        3.7692        0.0095        6.9087        6.9182       3.149052       0.01287
  15     218.7        3.7739        0.0105        6.8794        6.8899       3.116061       0.01253
  14     243.0        3.7791        0.0116        6.8481        6.8598       3.080668       0.01228
  13     269.0        3.7849        0.0129        6.8147        6.8276       3.042720       0.01231
  12     297.5        3.7913        0.0142        6.7791        6.7933       3.001991       0.01208
  11     328.5        3.7984        0.0156        6.7409        6.7566       2.958130       0.01193
  10     361.9        3.8065        0.0171        6.7002        6.7173       2.910835       0.01197
   9     398.1        3.8155        0.0188        6.6563        6.6750       2.859520       0.01196
   8     437.6        3.8258        0.0205        6.6089        6.6294       2.803559       0.01196
   7     480.5        3.8377        0.0224        6.5570        6.5794       2.741676       0.01215
   6     533.0        3.8537        0.0247        6.4915        6.5161       2.662493       0.01274
   5     589.8        3.8727        0.0271        6.4182        6.4453       2.572656       0.01333
   4     651.6        3.8956        0.0297        6.3359        6.3656       2.469968       0.01404
   3     718.7        3.9230        0.0325        6.2441        6.2766       2.353577       0.01463
   2     792.3        3.9553        0.0354        6.1437        6.1791       2.223846       0.01488
   1     891.5        0.6953        2.6306        0.1963        2.8269       2.131636       0.00785
   0    1013.0        0.7063        2.5857        0.1905        2.7762       2.069852       0.00429



 Wavenumbers:  8050. - 12850. cm-1, ATM      1
 LEVEL PRESSURE   UPWARD FLUX   DIFDOWN FLUX  DIRDOWN FLUX  DOWNWARD FLUX   NET FLUX    HEATING RATE
          mb          W/m2          W/m2          W/m2        W/m2          W/m2       degree/day
  51    .06700       48.3258        0.0000      100.8135      100.8135      52.487759       0.00000
  50    .07753       48.3257        0.0000      100.8135      100.8135      52.487759       0.00000
  49    .09103       48.3257        0.0001      100.8134      100.8135      52.487759      -0.00000
  48    0.1069       48.3257        0.0001      100.8134      100.8135      52.487759       0.00000
  47    0.1255       48.3257        0.0001      100.8133      100.8134      52.487759      -0.00000
  46    0.1487       48.3256        0.0002      100.8132      100.8134      52.487759      -0.00000
  45    0.1794       48.3256        0.0003      100.8131      100.8133      52.487759       0.00000
  44    0.2165       48.3255        0.0004      100.8129      100.8133      52.487759      -0.00000
  43    0.2613       48.3255        0.0005      100.8127      100.8132      52.487759       0.00000
  42    0.3336       48.3253        0.0006      100.8125      100.8131      52.487759      -0.00000
  41    0.4307       48.3252        0.0009      100.8121      100.8130      52.487759      -0.00000
  40    0.5894       48.3250        0.0013      100.8115      100.8127      52.487759       0.00000
  39     1.339       48.3238        0.0031      100.8085      100.8116      52.487759      -0.00000
  38     1.782       48.3231        0.0041      100.8068      100.8109      52.487759       0.00000
  37     2.292       48.3224        0.0054      100.8047      100.8101      52.487759       0.00000
  36     2.964       48.3213        0.0070      100.8021      100.8091      52.487759      -0.00000
  35     3.853       48.3200        0.0091      100.7986      100.8077      52.487759       0.00000
  34     5.035       48.3182        0.0120      100.7940      100.8059      52.487759       0.00000
  33     6.613       48.3158        0.0158      100.7878      100.8035      52.487759       0.00000
  32     8.786       48.3125        0.0209      100.7794      100.8003      52.487759       0.00000
  31     11.80       48.3079        0.0282      100.7674      100.7956      52.487759      -0.00000
  30     15.07       48.3029        0.0361      100.7546      100.7906      52.487759       0.00000
  29     18.79       48.2972        0.0450      100.7400      100.7850      52.487759      -0.00000
  28     23.16       48.2906        0.0554      100.7230      100.7784      52.487759       0.00000
  27     28.12       48.2831        0.0674      100.7035      100.7708      52.487759       0.00000
  26     33.73       48.2746        0.0807      100.6817      100.7624      52.487759       0.00000
  25     40.54       48.2644        0.0969      100.6552      100.7521      52.487759      -0.00000
  24     48.69       48.2520        0.1164      100.6234      100.7398      52.487759       0.00000
  23     57.69       48.2384        0.1379      100.5883      100.7261      52.487759       0.00000
  22     68.43       48.2222        0.1635      100.5464      100.7099      52.487759       0.00000
  21     81.20       48.2028        0.1940      100.4965      100.6905      52.487759      -0.00000
  20     96.49       48.1797        0.2305      100.4370      100.6674      52.487759      -0.00000
  19     114.6       48.1523        0.2738      100.3585      100.6323      52.479999       0.00362
  18     136.5       48.1198        0.3253      100.2634      100.5886      52.468835       0.00429
  17     162.9       48.0811        0.3866      100.1407      100.5273      52.446212       0.00723
  16     196.4       48.0310        0.4664       99.9505      100.4169      52.385899       0.01518
  15     218.7       47.9981        0.5188       99.7889      100.3077      52.309611       0.02896
  14     243.0       47.9627        0.5756       99.5472      100.1228      52.160129       0.05185
  13     269.0       47.9257        0.6370       99.1452       99.7822      51.856530       0.09849
  12     297.5       47.8880        0.7028       98.5975       99.3002      51.412205       0.13178
  11     328.5       47.8516        0.7733       97.8659       98.6391      50.787543       0.16984
  10     361.9       47.8192        0.8483       96.8848       97.7330      49.913873       0.22105
   9     398.1       47.7944        0.9275       95.6330       96.5604      48.766059       0.26742
   8     437.6       47.7842        1.0105       94.0655       95.0760      47.291793       0.31521
   7     480.5       47.8021        1.0964       92.0807       93.1771      45.375070       0.37644
   6     533.0       47.8735        1.1980       89.4449       90.6429      42.769386       0.41917
   5     589.8       48.0257        1.3031       86.5544       87.8575      39.831798       0.43603
   4     651.6       48.3056        1.4111       83.4174       84.8285      36.522896       0.45250
   3     718.7       48.7519        1.5229       80.2037       81.7266      32.974690       0.44591
   2     792.3       49.4107        1.6390       77.0811       78.7201      29.309381       0.42037
   1     891.5        8.4408       32.9261        2.3965       35.3226      26.881787       0.20658
   0    1013.0        8.6544       31.7774        2.2551       34.0325      25.378099       0.10441



 Wavenumbers: 12850. - 16000. cm-1, ATM      1
 LEVEL PRESSURE   UPWARD FLUX   DIFDOWN FLUX  DIRDOWN FLUX  DOWNWARD FLUX   NET FLUX    HEATING RATE
          mb          W/m2          W/m2          W/m2        W/m2          W/m2       degree/day
  51    .06700       40.4580        0.0000       63.1686       63.1686      22.710566       0.00000
  50    .07753       40.4580        0.0001       63.1677       63.1678      22.709785       0.62596
  49    .09103       40.4580        0.0001       63.1666       63.1668      22.708811       0.60852
  48    0.1069       40.4579        0.0002       63.1654       63.1656      22.707702       0.59030
  47    0.1255       40.4579        0.0003       63.1640       63.1643      22.706440       0.57204
  46    0.1487       40.4579        0.0004       63.1623       63.1627      22.704866       0.57392
  45    0.1794       40.4578        0.0006       63.1600       63.1606      22.702753       0.57993
  44    0.2165       40.4578        0.0008       63.1573       63.1581      22.700309       0.55609
  43    0.2613       40.4578        0.0010       63.1542       63.1552      22.697487       0.53192
  42    0.3336       40.4577        0.0014       63.1493       63.1507      22.692986       0.52473
  41    0.4307       40.4577        0.0019       63.1431       63.1451      22.687350       0.49003
  40    0.5894       40.4578        0.0028       63.1338       63.1366      22.678797       0.45486
  39     1.339       40.4597        0.0068       63.0956       63.1024      22.642622       0.40726
  38     1.782       40.4620        0.0091       63.0740       63.0831      22.621184       0.40816
  37     2.292       40.4656        0.0118       63.0477       63.0595      22.593911       0.45171
  36     2.964       40.4719        0.0154       63.0095       63.0249      22.552988       0.51370
  35     3.853       40.4825        0.0201       62.9533       62.9733      22.490803       0.59015
  34     5.035       40.4988        0.0263       62.8725       62.8988      22.399986       0.64876
  33     6.613       40.5217        0.0346       62.7621       62.7967      22.274967       0.66835
  32     8.786       40.5514        0.0458       62.6182       62.6641      22.112662       0.63034
  31     11.80       40.5895        0.0618       62.4284       62.4901      21.900633       0.59361
  30     15.07       40.6253        0.0789       62.2426       62.3215      21.696131       0.52798
  29     18.79       40.6613        0.0981       62.0493       62.1474      21.486148       0.47610
  28     23.16       40.6980        0.1206       61.8424       61.9630      21.265020       0.42759
  27     28.12       40.7339        0.1462       61.6278       61.7740      21.040127       0.38230
  26     33.73       40.7653        0.1748       61.4177       61.5925      20.827212       0.32012
  25     40.54       40.7931        0.2094       61.1983       61.4077      20.614578       0.26380
  24     48.69       40.8167        0.2509       60.9680       61.2189      20.402171       0.21981
  23     57.69       40.8332        0.2965       60.7478       61.0443      20.211137       0.17907
  22     68.43       40.8425        0.3508       60.5202       60.8710      20.028510       0.14357
  21     81.20       40.8394        0.4154       60.2938       60.7093      19.869855       0.10484
  20     96.49       40.8227        0.4924       60.0643       60.5567      19.734014       0.07497
  19     114.6       40.8027        0.5844       59.8078       60.3922      19.589410       0.06752
  18     136.5       40.7734        0.6932       59.5157       60.2089      19.435521       0.05917
  17     162.9       40.7331        0.8224       59.1770       59.9995      19.266306       0.05409
  16     196.4       40.6698        0.9896       58.7604       59.7501      19.080217       0.04684
  15     218.7       40.6243        1.0992       58.4948       59.5940      18.969661       0.04197
  14     243.0       40.5732        1.2180       58.2089       59.4269      18.853746       0.04020
  13     269.0       40.5164        1.3465       57.9006       59.2471      18.730724       0.03991
  12     297.5       40.4542        1.4851       57.5668       59.0519      18.597708       0.03945
  11     328.5       40.3878        1.6345       57.2005       58.8350      18.447151       0.04094
  10     361.9       40.3182        1.7948       56.7963       58.5912      18.272937       0.04408
   9     398.1       40.2465        1.9668       56.3475       58.3143      18.067787       0.04780
   8     437.6       40.1752        2.1506       55.8422       57.9928      17.817638       0.05348
   7     480.5       40.1089        2.3464       55.2625       57.6090      17.500071       0.06237
   6     533.0       40.0444        2.5854       54.4972       57.0826      17.038221       0.07430
   5     589.8       39.9964        2.8397       53.6307       56.4704      16.473928       0.08376
   4     651.6       39.9752        3.1084       52.6606       55.7690      15.793789       0.09301
   3     718.7       39.9869        3.3920       51.6100       55.0020      15.015093       0.09786
   2     792.3       40.0400        3.6903       50.5019       54.1921      14.152153       0.09897
   1     891.5       16.2373       28.1087        1.6033       29.7120      13.474685       0.05765
   0    1013.0       16.3681       27.7342        1.5447       29.2789      12.910834       0.03915



 Wavenumbers: 16000. - 22650. cm-1, ATM      1
 LEVEL PRESSURE   UPWARD FLUX   DIFDOWN FLUX  DIRDOWN FLUX  DOWNWARD FLUX   NET FLUX    HEATING RATE
          mb          W/m2          W/m2          W/m2        W/m2          W/m2       degree/day
  51    .06700       77.7257        0.0000      100.7153      100.7153      22.989575       0.00000
  50    .07753       77.7256        0.0003      100.7147      100.7151      22.989457       0.09477
  49    .09103       77.7255        0.0007      100.7140      100.7147      22.989285       0.10749
  48    0.1069       77.7253        0.0012      100.7131      100.7144      22.989055       0.12258
  47    0.1255       77.7251        0.0018      100.7121      100.7139      22.988747       0.13972
  46    0.1487       77.7249        0.0024      100.7108      100.7132      22.988292       0.16557
  45    0.1794       77.7247        0.0034      100.7089      100.7123      22.987582       0.19494
  44    0.2165       77.7244        0.0045      100.7066      100.7110      22.986619       0.21909
  43    0.2613       77.7242        0.0058      100.7037      100.7095      22.985312       0.24631
  42    0.3336       77.7239        0.0080      100.6987      100.7067      22.982828       0.28965
  41    0.4307       77.7236        0.0109      100.6918      100.7027      22.979083       0.32559
  40    0.5894       77.7234        0.0156      100.6797      100.6954      22.971942       0.37977
  39     1.339       77.7283        0.0380      100.6095      100.6475      22.919191       0.59388
  38     1.782       77.7353        0.0511      100.5585      100.6095      22.874268       0.85528
  37     2.292       77.7472        0.0662      100.4903      100.5565      22.809260       1.07669
  36     2.964       77.7689        0.0862      100.3868      100.4729      22.703996       1.32138
  35     3.853       77.8059        0.1124      100.2306      100.3430      22.537086       1.58401
  34     5.035       77.8634        0.1473      100.0045      100.1517      22.288335       1.77697
  33     6.613       77.9444        0.1937       99.6939       99.8876      21.943166       1.84527
  32     8.786       78.0493        0.2562       99.2881       99.5442      21.494930       1.74079
  31     11.80       78.1832        0.3452       98.7496       99.0948      20.911648       1.63301
  30     15.07       78.3081        0.4405       98.2198       98.6603      20.352216       1.44434
  29     18.79       78.4323        0.5477       97.6651       98.2129      19.780567       1.29611
  28     23.16       78.5579        0.6726       97.0671       97.7397      19.181803       1.15782
  27     28.12       78.6788        0.8148       96.4406       97.2553      18.576565       1.02886
  26     33.73       78.7813        0.9733       95.8179       96.7912      18.009953       0.85192
  25     40.54       78.8674        1.1643       95.1548       96.3192      17.451801       0.69245
  24     48.69       78.9345        1.3937       94.4420       95.8356      16.901137       0.56985
  23     57.69       78.9729        1.6446       93.7416       95.3862      16.413232       0.45734
  22     68.43       78.9807        1.9421       92.9954       94.9375      15.956780       0.35883
  21     81.20       78.9380        2.2953       92.2231       94.5185      15.580473       0.24866
  20     96.49       78.8391        2.7142       91.4110       94.1252      15.286154       0.16244
  19     114.6       78.6979        3.2082       90.5070       93.7152      15.017330       0.12552
  18     136.5       78.5153        3.7889       89.4803       93.2691      14.753853       0.10131
  17     162.9       78.2847        4.4735       88.3022       92.7757      14.491011       0.08401
  16     196.4       77.9560        5.3511       86.8606       92.2117      14.255702       0.05923
  15     218.7       77.7301        5.9212       85.9492       91.8704      14.140254       0.04383
  14     243.0       77.4809        6.5353       84.9789       91.5142      14.033361       0.03707
  13     269.0       77.2071        7.1944       83.9493       91.1436      13.936516       0.03142
  12     297.5       76.9083        7.8992       82.8589       90.7582      13.849834       0.02571
  11     328.5       76.5859        8.6523       81.6982       90.3505      13.764675       0.02315
  10     361.9       76.2398        9.4534       80.4669       89.9203      13.680492       0.02130
   9     398.1       75.8694       10.3043       79.1611       89.4655      13.596040       0.01968
   8     437.6       75.4753       11.2055       77.7777       88.9833      13.507943       0.01884
   7     480.5       75.0579       12.1572       76.3136       88.4709      13.412956       0.01866
   6     533.0       74.5522       13.3087       74.5359       87.8445      13.292360       0.01940
   5     589.8       74.0185       14.5254       72.6469       87.1724      13.153902       0.02055
   4     651.6       73.4594       15.8055       70.6456       86.4511      12.991700       0.02218
   3     718.7       72.8756       17.1468       68.5367       85.6834      12.807839       0.02311
   2     792.3       72.2700       18.5438       66.3287       84.8725      12.602508       0.02355
   1     891.5       44.8248       55.1636        2.0744       57.2380      12.413134       0.01611
   0    1013.0       44.7331       54.9907        1.9640       56.9546      12.221478       0.01331



 Wavenumbers: 22650. - 29000. cm-1, ATM      1
 LEVEL PRESSURE   UPWARD FLUX   DIFDOWN FLUX  DIRDOWN FLUX  DOWNWARD FLUX   NET FLUX    HEATING RATE
          mb          W/m2          W/m2          W/m2        W/m2          W/m2       degree/day
  51    .06700       33.1843        0.0000       38.0063       38.0063       4.821973       0.00000
  50    .07753       33.1841        0.0004       38.0057       38.0061       4.821973       0.00000
  49    .09103       33.1839        0.0009       38.0050       38.0059       4.821973      -0.00000
  48    0.1069       33.1837        0.0014       38.0042       38.0057       4.821973       0.00000
  47    0.1255       33.1834        0.0020       38.0033       38.0054       4.821973       0.00000
  46    0.1487       33.1830        0.0028       38.0022       38.0050       4.821973       0.00000
  45    0.1794       33.1826        0.0039       38.0006       38.0045       4.821973       0.00000
  44    0.2165       33.1820        0.0052       37.9987       38.0040       4.821973       0.00000
  43    0.2613       33.1813        0.0068       37.9965       38.0033       4.821973       0.00000
  42    0.3336       33.1802        0.0093       37.9928       38.0021       4.821973       0.00000
  41    0.4307       33.1787        0.0127       37.9880       38.0006       4.821973       0.00000
  40    0.5894       33.1762        0.0182       37.9800       37.9982       4.821973      -0.00000
  39     1.339       33.1646        0.0441       37.9425       37.9866       4.821973       0.00000
  38     1.782       33.1578        0.0594       37.9204       37.9798       4.821973       0.00000
  37     2.292       33.1500        0.0770       37.8949       37.9719       4.821973      -0.00000
  36     2.964       33.1396        0.1002       37.8614       37.9616       4.821973       0.00000
  35     3.853       33.1260        0.1307       37.8172       37.9480       4.821973       0.00000
  34     5.035       33.1079        0.1713       37.7586       37.9299       4.821973      -0.00000
  33     6.613       33.0837        0.2254       37.6803       37.9057       4.821973       0.00000
  32     8.786       33.0512        0.2982       37.5750       37.8732       4.821973      -0.00000
  31     11.80       33.0049        0.4020       37.4249       37.8268       4.821973       0.00000
  30     15.07       32.9552        0.5130       37.2642       37.7772       4.821973       0.00000
  29     18.79       32.8993        0.6380       37.0833       37.7213       4.821973       0.00000
  28     23.16       32.8343        0.7832       36.8730       37.6562       4.821973       0.00000
  27     28.12       32.7603        0.9484       36.6338       37.5822       4.821973      -0.00000
  26     33.73       32.6779        1.1321       36.3677       37.4998       4.821973       0.00000
  25     40.54       32.5790        1.3524       36.0486       37.4009       4.821973       0.00000
  24     48.69       32.4607        1.6154       35.6672       37.2826       4.821973       0.00000
  23     57.69       32.3319        1.9012       35.2527       37.1539       4.821973      -0.00000
  22     68.43       32.1802        2.2373       34.7649       37.0022       4.821973       0.00000
  21     81.20       32.0018        2.6315       34.1922       36.8238       4.821973      -0.00000
  20     96.49       31.7925        3.0928       33.5217       36.6145       4.821973       0.00000
  19     114.6       31.5487        3.6283       32.7424       36.3707       4.821973       0.00000
  18     136.5       31.2660        4.2464       31.8416       36.0880       4.821973      -0.00000
  17     162.9       30.9383        4.9595       30.8008       35.7603       4.821973       0.00000
  16     196.4       30.5270        5.8483       29.5007       35.3490       4.821973      -0.00000
  15     218.7       30.2652        6.4104       28.6767       35.0871       4.821973       0.00000
  14     243.0       29.9877        7.0029       27.8068       34.8097       4.821973       0.00000
  13     269.0       29.6951        7.6237       26.8933       34.5170       4.821973      -0.00000
  12     297.5       29.3880        8.2707       25.9393       34.2100       4.821973       0.00000
  11     328.5       29.0663        8.9432       24.9451       33.8883       4.821973       0.00000
  10     361.9       28.7314        9.6373       23.9160       33.5533       4.821973      -0.00000
   9     398.1       28.3834       10.3513       22.8541       33.2054       4.821973       0.00000
   8     437.6       28.0237       11.0812       21.7645       32.8457       4.821973      -0.00000
   7     480.5       27.6534       11.8232       20.6521       32.4753       4.821973       0.00000
   6     533.0       27.2177       12.6828       19.3569       32.0397       4.821973       0.00000
   5     589.8       26.7715       13.5468       18.0467       31.5935       4.821973       0.00000
   4     651.6       26.3172       14.4075       16.7316       31.1391       4.821973       0.00000
   3     718.7       25.8570       15.2576       15.4214       30.6790       4.821973       0.00000
   2     792.3       25.3939       16.0883       14.1276       30.2159       4.821973      -0.00000
   1     891.5       17.7904       22.2019        0.4104       22.6123       4.821875       0.00001
   0    1013.0       17.6086       22.0748        0.3556       22.4304       4.821875       0.00000



 Wavenumbers: 29000. - 38000. cm-1, ATM      1
 LEVEL PRESSURE   UPWARD FLUX   DIFDOWN FLUX  DIRDOWN FLUX  DOWNWARD FLUX   NET FLUX    HEATING RATE
          mb          W/m2          W/m2          W/m2        W/m2          W/m2       degree/day
  51    .06700        4.8089        0.0000       13.4026       13.4026       8.593688       0.00000
  50    .07753        4.8087        0.0003       13.3983       13.3986       8.589890       3.04431
  49    .09103        4.8084        0.0007       13.3921       13.3928       8.584371       3.44958
  48    0.1069        4.8081        0.0011       13.3840       13.3851       8.576994       3.92667
  47    0.1255        4.8078        0.0016       13.3733       13.3749       8.567150       4.46306
  46    0.1487        4.8073        0.0022       13.3579       13.3600       8.552708       5.26424
  45    0.1794        4.8068        0.0030       13.3340       13.3371       8.530308       6.14910
  44    0.2165        4.8061        0.0040       13.3024       13.3064       8.500290       6.82858
  43    0.2613        4.8053        0.0051       13.2604       13.2656       8.460237       7.54989
  42    0.3336        4.8041        0.0070       13.1833       13.1903       8.386233       8.62816
  41    0.4307        4.8025        0.0095       13.0729       13.0824       8.279864       9.24850
  40    0.5894        4.8001        0.0134       12.8796       12.8930       8.092828       9.94635
  39     1.339        4.7916        0.0296       11.9165       11.9461       7.154543      10.56339
  38     1.782        4.7882        0.0379       11.4399       11.4778       6.689607       8.85163
  37     2.292        4.7856        0.0467       10.9796       11.0263       6.240738       7.43444
  36     2.964        4.7840        0.0576       10.4786       10.5362       5.752206       6.13256
  35     3.853        4.7844        0.0711        9.9429       10.0139       5.229498       4.96059
  34     5.035        4.7875        0.0878        9.4007        9.4885       4.700983       3.77550
  33     6.613        4.7934        0.1091        8.8752        8.9843       4.190885       2.72699
  32     8.786        4.8015        0.1365        8.3786        8.5151       3.713527       1.85388
  31     11.80        4.8114        0.1741        7.8897        8.0638       3.252358       1.29113
  30     15.07        4.8198        0.2129        7.5108        7.7237       2.903909       0.89963
  29     18.79        4.8275        0.2552        7.1776        7.4328       2.605308       0.67702
  28     23.16        4.8344        0.3028        6.8664        7.1692       2.334848       0.52298
  27     28.12        4.8397        0.3554        6.5780        6.9334       2.093741       0.40987
  26     33.73        4.8411        0.4127        6.3195        6.7322       1.891131       0.30463
  25     40.54        4.8372        0.4803        6.0663        6.5466       1.709338       0.22554
  24     48.69        4.8277        0.5595        5.8128        6.3723       1.544670       0.17041
  23     57.69        4.8124        0.6440        5.5777        6.2217       1.409298       0.12689
  22     68.43        4.7890        0.7417        5.3379        6.0796       1.290578       0.09333
  21     81.20        4.7534        0.8551        5.0965        5.9516       1.198187       0.06105
  20     96.49        4.7043        0.9860        4.8476        5.8337       1.129397       0.03797
  19     114.6        4.6447        1.1343        4.5799        5.7142       1.069529       0.02795
  18     136.5        4.5756        1.2999        4.2891        5.5890       1.013428       0.02157
  17     162.9        4.4966        1.4834        3.9732        5.4565       0.959959       0.01709
  16     196.4        4.3966        1.7029        3.6080        5.3109       0.914269       0.01150
  15     218.7        4.3336        1.8364        3.3898        5.2261       0.892524       0.00826
  14     243.0        4.2680        1.9723        3.1686        5.1408       0.872805       0.00684
  13     269.0        4.2002        2.1095        2.9461        5.0556       0.855417       0.00564
  12     297.5        4.1304        2.2469        2.7239        4.9708       0.840379       0.00446
  11     328.5        4.0596        2.3830        2.5029        4.8859       0.826259       0.00384
  10     361.9        3.9882        2.5166        2.2846        4.8012       0.813079       0.00333
   9     398.1        3.9165        2.6465        2.0708        4.7173       0.800832       0.00285
   8     437.6        3.8449        2.7716        1.8626        4.6342       0.789256       0.00248
   7     480.5        3.7740        2.8904        1.6621        4.5525       0.778477       0.00212
   6     533.0        3.6940        3.0173        1.4437        4.4610       0.766963       0.00185
   5     589.8        3.6159        3.1330        1.2390        4.3720       0.756050       0.00162
   4     651.6        3.5402        3.2358        1.0500        4.2858       0.745590       0.00143
   3     718.7        3.4672        3.3249        0.8778        4.2027       0.735548       0.00126
   2     792.3        3.3971        3.3992        0.7237        4.1230       0.725904       0.00111
   1     891.5        2.6213        3.3188        0.0182        3.3370       0.715742       0.00086
   0    1013.0        2.5737        3.2663        0.0132        3.2795       0.705798       0.00069



 Wavenumbers: 38000. - 50000. cm-1, ATM      1
 LEVEL PRESSURE   UPWARD FLUX   DIFDOWN FLUX  DIRDOWN FLUX  DOWNWARD FLUX   NET FLUX    HEATING RATE
          mb          W/m2          W/m2          W/m2        W/m2          W/m2       degree/day
  51    .06700        0.0051        0.0000        0.8267        0.8267       0.821528       0.00000
  50    .07753        0.0051        0.0001        0.8242        0.8243       0.819196       1.86936
  49    .09103        0.0050        0.0002        0.8207        0.8209       0.815872       2.07705
  48    0.1069        0.0049        0.0002        0.8162        0.8164       0.811514       2.31984
  47    0.1255        0.0048        0.0004        0.8103        0.8106       0.805801       2.59006
  46    0.1487        0.0047        0.0005        0.8018        0.8023       0.797567       3.00143
  45    0.1794        0.0045        0.0007        0.7889        0.7896       0.785013       3.44648
  44    0.2165        0.0044        0.0009        0.7720        0.7729       0.768507       3.75474
  43    0.2613        0.0042        0.0011        0.7500        0.7511       0.746955       4.06246
  42    0.3336        0.0039        0.0015        0.7106        0.7121       0.708267       4.51071
  41    0.4307        0.0035        0.0019        0.6566        0.6584       0.654972       4.63387
  40    0.5894        0.0029        0.0024        0.5680        0.5704       0.567464       4.65357
  39     1.339        0.0015        0.0030        0.2422        0.2452       0.243720       3.64476
  38     1.782        0.0010        0.0026        0.1493        0.1519       0.150889       1.76735
  37     2.292        0.0007        0.0022        0.0924        0.0946       0.093932       0.94336
  36     2.964        0.0005        0.0018        0.0539        0.0557       0.055224       0.48589
  35     3.853        0.0003        0.0013        0.0295        0.0308       0.030502       0.23462
  34     5.035        0.0002        0.0010        0.0154        0.0164       0.016181       0.10230
  33     6.613        0.0001        0.0007        0.0073        0.0080       0.007912       0.04420
  32     8.786        0.0000        0.0004        0.0030        0.0034       0.003390       0.01756
  31     11.80        0.0000        0.0003        0.0010        0.0012       0.001199       0.00613
  30     15.07        0.0000        0.0001        0.0003        0.0005       0.000463       0.00190
  29     18.79        0.0000        0.0001        0.0001        0.0002       0.000182       0.00064
  28     23.16        0.0000        0.0000        0.0000        0.0001       0.000071       0.00022
  27     28.12        0.0000        0.0000        0.0000        0.0000       0.000028       0.00007
  26     33.73        0.0000        0.0000        0.0000        0.0000       0.000011       0.00002
  25     40.54        0.0000        0.0000        0.0000        0.0000       0.000005       0.00001
  24     48.69        0.0000        0.0000        0.0000        0.0000       0.000002       0.00000
  23     57.69        0.0000        0.0000        0.0000        0.0000       0.000001       0.00000
  22     68.43        0.0000        0.0000        0.0000        0.0000       0.000000       0.00000
  21     81.20        0.0000        0.0000        0.0000        0.0000       0.000000       0.00000
  20     96.49        0.0000        0.0000        0.0000        0.0000       0.000000       0.00000
  19     114.6        0.0000        0.0000        0.0000        0.0000       0.000000       0.00000
  18     136.5        0.0000        0.0000        0.0000        0.0000       0.000000       0.00000
  17     162.9        0.0000        0.0000        0.0000        0.0000       0.000000       0.00000
  16     196.4        0.0000        0.0000        0.0000        0.0000       0.000000       0.00000
  15     218.7        0.0000        0.0000        0.0000        0.0000       0.000000       0.00000
  14     243.0        0.0000        0.0000        0.0000        0.0000       0.000000       0.00000
  13     269.0        0.0000        0.0000        0.0000        0.0000       0.000000       0.00000
  12     297.5        0.0000        0.0000        0.0000        0.0000       0.000000       0.00000
  11     328.5        0.0000        0.0000        0.0000        0.0000       0.000000       0.00000
  10     361.9        0.0000        0.0000        0.0000        0.0000       0.000000       0.00000
   9     398.1        0.0000        0.0000        0.0000        0.0000       0.000000       0.00000
   8     437.6        0.0000        0.0000        0.0000        0.0000       0.000000       0.00000
   7     480.5        0.0000        0.0000        0.0000        0.0000       0.000000       0.00000
   6     533.0        0.0000        0.0000        0.0000        0.0000       0.000000       0.00000
   5     589.8        0.0000        0.0000        0.0000        0.0000       0.000000       0.00000
   4     651.6        0.0000        0.0000        0.0000        0.0000       0.000000       0.00000
   3     718.7        0.0000        0.0000        0.0000        0.0000       0.000000       0.00000
   2     792.3        0.0000        0.0000        0.0000        0.0000       0.000000       0.00000
   1     891.5        0.0000        0.0000        0.0000        0.0000       0.000000       0.00000
   0    1013.0        0.0000        0.0000        0.0000        0.0000       0.000000       0.00000



 Wavenumbers:   820. -  2600. cm-1, ATM      1
 LEVEL PRESSURE   UPWARD FLUX   DIFDOWN FLUX  DIRDOWN FLUX  DOWNWARD FLUX   NET FLUX    HEATING RATE
          mb          W/m2          W/m2          W/m2        W/m2          W/m2       degree/day
  51    .06700        0.5900        0.0000        3.8670        3.8670       3.277066       0.00000
  50    .07753        0.5900        0.0000        3.8643        3.8643       3.274349       2.17771
  49    .09103        0.5900        0.0000        3.8635        3.8635       3.273539       0.50639
  48    0.1069        0.5900        0.0000        3.8626        3.8626       3.272648       0.47416
  47    0.1255        0.5900        0.0000        3.8616        3.8616       3.271687       0.43560
  46    0.1487        0.5900        0.0000        3.8605        3.8605       3.270578       0.40438
  45    0.1794        0.5900        0.0000        3.8592        3.8592       3.269243       0.36649
  44    0.2165        0.5900        0.0000        3.8578        3.8578       3.267865       0.31347
  43    0.2613        0.5900        0.0000        3.8564        3.8564       3.266405       0.27523
  42    0.3336        0.5900        0.0000        3.8541        3.8541       3.264173       0.26014
  41    0.4307        0.5900        0.0000        3.8512        3.8512       3.261291       0.25064
  40    0.5894        0.5900        0.0000        3.8465        3.8465       3.256564       0.25135
  39     1.339        0.5900        0.0000        3.8251        3.8251       3.235188       0.24066
  38     1.782        0.5900        0.0000        3.8133        3.8133       3.223374       0.22491
  37     2.292        0.5900        0.0000        3.8003        3.8003       3.210312       0.21634
  36     2.964        0.5900        0.0000        3.7841        3.7841       3.194182       0.20248
  35     3.853        0.5900        0.0000        3.7642        3.7642       3.174266       0.18901
  34     5.035        0.5900        0.0000        3.7395        3.7395       3.149573       0.17640
  33     6.613        0.5900        0.0000        3.7090        3.7090       3.119035       0.16326
  32     8.786        0.5900        0.0000        3.6726        3.6726       3.082638       0.14135
  31     11.80        0.5900        0.0000        3.6320        3.6320       3.042038       0.11367
  30     15.07        0.5900        0.0000        3.6016        3.6016       3.011647       0.07846
  29     18.79        0.5900        0.0000        3.5777        3.5777       2.987743       0.05420
  28     23.16        0.5900        0.0000        3.5564        3.5564       2.966380       0.04131
  27     28.12        0.5900        0.0000        3.5348        3.5348       2.944824       0.03664
  26     33.73        0.5900        0.0000        3.5118        3.5118       2.921780       0.03465
  25     40.54        0.5901        0.0000        3.4849        3.4849       2.894878       0.03337
  24     48.69        0.5901        0.0000        3.4537        3.4537       2.863609       0.03236
  23     57.69        0.5901        0.0000        3.4210        3.4210       2.830916       0.03064
  22     68.43        0.5901        0.0000        3.3844        3.3844       2.794308       0.02878
  21     81.20        0.5902        0.0000        3.3441        3.3441       2.753981       0.02665
  20     96.49        0.5902        0.0000        3.2998        3.2998       2.709582       0.02451
  19     114.6        0.5903        0.0000        3.2506        3.2506       2.660391       0.02297
  18     136.5        0.5903        0.0000        3.1936        3.1936       2.603281       0.02196
  17     162.9        0.5905        0.0000        3.1181        3.1181       2.527673       0.02417
  16     196.4        0.5907        0.0000        3.0090        3.0090       2.418282       0.02753
  15     218.7        0.5909        0.0000        2.9420        2.9420       2.351127       0.02550
  14     243.0        0.5911        0.0000        2.8605        2.8605       2.269344       0.02837
  13     269.0        0.5916        0.0000        2.7419        2.7420       2.150392       0.03859
  12     297.5        0.5923        0.0000        2.5729        2.5729       1.980573       0.05037
  11     328.5        0.5935        0.0000        2.3602        2.3602       1.766720       0.05815
  10     361.9        0.5953        0.0000        2.1524        2.1524       1.557175       0.05302
   9     398.1        0.5978        0.0000        1.9974        1.9974       1.399645       0.03670
   8     437.6        0.6013        0.0000        1.8835        1.8835       1.282214       0.02511
   7     480.5        0.6063        0.0000        1.7734        1.7734       1.167102       0.02261
   6     533.0        0.6146        0.0000        1.6397        1.6398       1.025159       0.02283
   5     589.8        0.6264        0.0000        1.5068        1.5069       0.880408       0.02149
   4     651.6        0.6440        0.0000        1.3807        1.3807       0.736774       0.01964
   3     718.7        0.6673        0.0000        1.2680        1.2681       0.600725       0.01710
   2     792.3        0.6966        0.0000        1.1659        1.1660       0.469415       0.01506
   1     891.5        0.0996        0.4477        0.0339        0.4816       0.382070       0.00743
   0    1013.0        0.1099        0.4035        0.0285        0.4320       0.322184       0.00416

  Modules and versions used in this calculation:

       rrtmg_sw.1col.f90:  $Revision$                    rrtmg_sw_init.f90:  $Revision$        
     rrtmgsw_cldprop.f90:  $Revision$                  rrtmgsw_cldprmc.f90:  NOT USED          
     rrtmg_sw_reftra.f90:  $Revision$                  rrtmg_sw_spcvrt.f90:  NOT USED          
     rrtmg_sw_spcvmc.f90:  NOT USED                    rrtmgsw_setcoef.f90:  NOT USED          
     rrtmg_sw_taumol.f90:  $Revision$                  rrtmg_sw_vrtqdr.f90:  NOT USED          
                rrtatm.f:  NOT USED                             util_xxx.f:  NOT USED          
                 extra.f:  NOT USED                       rrtmg_sw_k_g.f90:  $Revision$        

