

 Wavenumbers:   820. - 50000. cm-1, ATM      1
 LEVEL PRESSURE   UPWARD FLUX   DIFDOWN FLUX  DIRDOWN FLUX  DOWNWARD FLUX   NET FLUX    HEATING RATE
          mb          W/m2          W/m2          W/m2        W/m2          W/m2       degree/day
  51    .06700      207.3656        0.0000      397.8738      397.8738     190.508221       0.00000
  50    .07753      207.3649        0.0012      397.8577      397.8589     190.493936      11.44972
  49    .09103      207.3642        0.0026      397.8418      397.8444     190.480256       8.55023
  48    0.1069      207.3633        0.0043      397.8230      397.8272     190.463920       8.69594
  47    0.1255      207.3623        0.0062      397.7997      397.8058     190.443492       9.26078
  46    0.1487      207.3611        0.0086      397.7676      397.7762     190.415057      10.36487
  45    0.1794      207.3596        0.0119      397.7205      397.7324     190.372800      11.60055
  44    0.2165      207.3578        0.0157      397.6602      397.6760     190.318200      12.42072
  43    0.2613      207.3557        0.0203      397.5829      397.6032     190.247467      13.33279
  42    0.3336      207.3525        0.0278      397.4449      397.4727     190.120151      14.84384
  41    0.4307      207.3486        0.0376      397.2524      397.2900     189.941466      15.53623
  40    0.5894      207.3427        0.0534      396.9253      396.9788     189.636100      16.23897
  39     1.339      207.3255        0.1241      395.4254      395.5495     188.223947      15.89828
  38     1.782      207.3226        0.1637      394.7288      394.8925     187.569885      12.45229
  37     2.292      207.3254        0.2087      394.0572      394.2659     186.940462      10.42488
  36     2.964      207.3384        0.2672      393.3007      393.5679     186.229449       8.92536
  35     3.853      207.3684        0.3436      392.4318      392.7754     185.406961       7.80556
  34     5.035      207.4210        0.4441      391.4441      391.8882     184.467158       6.71356
  33     6.613      207.4983        0.5773      390.3268      390.9040     183.405668       5.67473
  32     8.786      207.5976        0.7553      389.0624      389.8177     182.220123       4.60423
  31     11.80      207.7182        1.0079      387.5500      388.5579     180.839704       3.86474
  30     15.07      207.8228        1.2769      386.1556      387.4325     179.609766       3.17546
  29     18.79      207.9186        1.5784      384.7502      386.3285     178.409906       2.72045
  28     23.16      208.0050        1.9276      383.2686      385.1962     177.191170       2.35664
  27     28.12      208.0738        2.3235      381.7329      384.0564     175.982630       2.05444
  26     33.73      208.1068        2.7634      380.1982      382.9616     174.854738       1.69582
  25     40.54      208.0958        3.2908      378.5384      381.8292     173.733375       1.39118
  24     48.69      208.0339        3.9209      376.7214      380.6423     172.608476       1.16409
  23     57.69      207.9192        4.6063      374.8959      379.5022     171.583036       0.96120
  22     68.43      207.7327        5.4142      372.8999      378.3142     170.581431       0.78740
  21     81.20      207.4416        6.3662      370.7496      377.1158     169.674229       0.59946
  20     96.49      207.0327        7.4859      368.4056      375.8914     168.858704       0.45011
  19     114.6      206.5280        8.7932      365.7513      374.5445     168.016430       0.39328
  18     136.5      205.9176       10.3109      362.7231      373.0340     167.116335       0.34611
  17     162.9      205.1856       12.0743      359.1748      371.2490     166.063435       0.33655
  16     196.4      204.2140       14.2962      354.5718      368.8680     164.654023       0.35477
  15     218.7      203.5739       15.7166      351.4437      367.1602     163.586336       0.40536
  14     243.0      202.8840       17.2266      347.7111      364.9377     162.053748       0.53155
  13     269.0      202.1452       18.8243      342.9441      361.7684     159.623231       0.78845
  12     297.5      201.3597       20.5074      337.4137      357.9211     156.561385       0.90811
  11     328.5      200.5327       22.2772      331.1302      353.4074     152.874731       1.00239
  10     361.9      199.6702       24.1282      324.1219      348.2501     148.579838       1.08665
   9     398.1      198.7773       26.0593      316.6066      342.6659     143.888619       1.09295
   8     437.6      197.8661       28.0660      308.5895      336.6554     138.789307       1.09026
   7     480.5      196.9581       30.1419      299.9349      330.0768     133.118639       1.11370
   6     533.0      195.9487       32.5976      289.7021      322.2998     126.351054       1.08869
   5     589.8      195.0107       35.1285      279.3388      314.4673     119.456575       1.02337
   4     651.6      194.2138       37.7219      268.7786      306.5005     112.286756       0.98049
   3     718.7      193.6114       40.3684      258.2837      298.6521     105.040699       0.91063
   2     792.3      193.2710       43.0535      248.0774      291.1310      97.859958       0.82355
   1     891.5      114.0732      145.6916       59.9598      205.6514      91.578198       0.53455
   0    1013.0      114.0447      144.1633       56.3832      200.5464      86.501729       0.35249



 Wavenumbers:  2600. -  3250. cm-1, ATM      1
 LEVEL PRESSURE   UPWARD FLUX   DIFDOWN FLUX  DIRDOWN FLUX  DOWNWARD FLUX   NET FLUX    HEATING RATE
          mb          W/m2          W/m2          W/m2        W/m2          W/m2       degree/day
  51    .06700        0.6077        0.0000        3.5066        3.5066       2.898886       0.00000
  50    .07753        0.6077        0.0000        3.5066        3.5066       2.898878       0.00640
  49    .09103        0.6077        0.0000        3.5066        3.5066       2.898868       0.00627
  48    0.1069        0.6077        0.0000        3.5066        3.5066       2.898856       0.00613
  47    0.1255        0.6077        0.0000        3.5066        3.5066       2.898843       0.00599
  46    0.1487        0.6077        0.0000        3.5066        3.5066       2.898827       0.00607
  45    0.1794        0.6077        0.0000        3.5065        3.5065       2.898804       0.00624
  44    0.2165        0.6077        0.0000        3.5065        3.5065       2.898777       0.00611
  43    0.2613        0.6077        0.0000        3.5065        3.5065       2.898745       0.00598
  42    0.3336        0.6077        0.0000        3.5064        3.5064       2.898693       0.00615
  41    0.4307        0.6077        0.0000        3.5064        3.5064       2.898622       0.00618
  40    0.5894        0.6077        0.0000        3.5062        3.5062       2.898502       0.00633
  39     1.339        0.6077        0.0000        3.5055        3.5055       2.897804       0.00787
  38     1.782        0.6077        0.0000        3.5050        3.5050       2.897273       0.01011
  37     2.292        0.6077        0.0000        3.5043        3.5043       2.896580       0.01147
  36     2.964        0.6077        0.0000        3.5033        3.5033       2.895589       0.01245
  35     3.853        0.6077        0.0000        3.5019        3.5019       2.894212       0.01307
  34     5.035        0.6077        0.0000        3.5001        3.5001       2.892351       0.01329
  33     6.613        0.6077        0.0000        3.4977        3.4977       2.889941       0.01288
  32     8.786        0.6077        0.0000        3.4947        3.4947       2.886970       0.01154
  31     11.80        0.6077        0.0000        3.4911        3.4911       2.883335       0.01018
  30     15.07        0.6077        0.0000        3.4878        3.4878       2.880113       0.00832
  29     18.79        0.6077        0.0000        3.4848        3.4848       2.877049       0.00695
  28     23.16        0.6077        0.0000        3.4816        3.4816       2.873828       0.00623
  27     28.12        0.6077        0.0000        3.4779        3.4779       2.870209       0.00615
  26     33.73        0.6077        0.0000        3.4735        3.4735       2.865741       0.00672
  25     40.54        0.6077        0.0000        3.4671        3.4671       2.859412       0.00785
  24     48.69        0.6077        0.0000        3.4582        3.4583       2.850512       0.00921
  23     57.69        0.6077        0.0000        3.4472        3.4472       2.839458       0.01036
  22     68.43        0.6078        0.0000        3.4329        3.4329       2.825189       0.01122
  21     81.20        0.6078        0.0000        3.4152        3.4152       2.807447       0.01172
  20     96.49        0.6078        0.0000        3.3940        3.3941       2.786284       0.01168
  19     114.6        0.6078        0.0000        3.3692        3.3692       2.761368       0.01163
  18     136.5        0.6079        0.0001        3.3419        3.3420       2.734111       0.01048
  17     162.9        0.6080        0.0001        3.3129        3.3129       2.704977       0.00931
  16     196.4        0.6081        0.0001        3.2793        3.2794       2.671295       0.00848
  15     218.7        0.6083        0.0001        3.2578        3.2578       2.649571       0.00825
  14     243.0        0.6085        0.0001        3.2320        3.2321       2.623530       0.00903
  13     269.0        0.6089        0.0001        3.1968        3.1969       2.588007       0.01152
  12     297.5        0.6096        0.0001        3.1489        3.1491       2.539501       0.01439
  11     328.5        0.6105        0.0001        3.0821        3.0822       2.471676       0.01844
  10     361.9        0.6119        0.0001        2.9902        2.9904       2.378463       0.02358
   9     398.1        0.6139        0.0001        2.8715        2.8716       2.257708       0.02813
   8     437.6        0.6168        0.0001        2.7276        2.7278       2.110983       0.03137
   7     480.5        0.6211        0.0002        2.5595        2.5597       1.938523       0.03387
   6     533.0        0.6284        0.0002        2.3617        2.3619       1.733460       0.03299
   5     589.8        0.6391        0.0002        2.1649        2.1651       1.525973       0.03080
   4     651.6        0.6549        0.0002        1.9608        1.9609       1.306029       0.03008
   3     718.7        0.6773        0.0002        1.7593        1.7595       1.082237       0.02812
   2     792.3        0.7081        0.0002        1.5761        1.5762       0.868166       0.02455
   1     891.5        0.1942        0.5405        0.3492        0.8897       0.695512       0.01469
   0    1013.0        0.2119        0.4865        0.2949        0.7815       0.569534       0.00875



 Wavenumbers:  3250. -  4000. cm-1, ATM      1
 LEVEL PRESSURE   UPWARD FLUX   DIFDOWN FLUX  DIRDOWN FLUX  DOWNWARD FLUX   NET FLUX    HEATING RATE
          mb          W/m2          W/m2          W/m2        W/m2          W/m2       degree/day
  51    .06700        0.0032        0.0000        5.9117        5.9117       5.908476       0.00000
  50    .07753        0.0032        0.0000        5.9075        5.9075       5.904287       3.35808
  49    .09103        0.0032        0.0000        5.9050        5.9050       5.901844       1.52677
  48    0.1069        0.0032        0.0000        5.9032        5.9032       5.899978       0.99346
  47    0.1255        0.0032        0.0000        5.9014        5.9014       5.898220       0.79708
  46    0.1487        0.0032        0.0000        5.8995        5.8995       5.896331       0.68848
  45    0.1794        0.0032        0.0000        5.8974        5.8974       5.894182       0.58983
  44    0.2165        0.0032        0.0000        5.8952        5.8952       5.892065       0.48155
  43    0.2613        0.0032        0.0000        5.8931        5.8931       5.889906       0.40696
  42    0.3336        0.0032        0.0000        5.8899        5.8899       5.886748       0.36820
  41    0.4307        0.0032        0.0000        5.8861        5.8861       5.882911       0.33365
  40    0.5894        0.0032        0.0000        5.8803        5.8803       5.877109       0.30857
  39     1.339        0.0032        0.0000        5.8597        5.8597       5.856511       0.23189
  38     1.782        0.0032        0.0000        5.8513        5.8513       5.848086       0.16039
  37     2.292        0.0032        0.0000        5.8431        5.8431       5.839915       0.13533
  36     2.964        0.0032        0.0000        5.8334        5.8334       5.830276       0.12100
  35     3.853        0.0032        0.0000        5.8213        5.8213       5.818100       0.11555
  34     5.035        0.0032        0.0000        5.8052        5.8052       5.802005       0.11498
  33     6.613        0.0032        0.0000        5.7833        5.7834       5.780184       0.11666
  32     8.786        0.0032        0.0000        5.7531        5.7531       5.749982       0.11729
  31     11.80        0.0032        0.0000        5.7090        5.7090       5.705813       0.12366
  30     15.07        0.0032        0.0000        5.6615        5.6615       5.658349       0.12254
  29     18.79        0.0032        0.0000        5.6093        5.6094       5.606213       0.11821
  28     23.16        0.0031        0.0000        5.5524        5.5524       5.549287       0.11008
  27     28.12        0.0031        0.0000        5.4935        5.4935       5.490408       0.10009
  26     33.73        0.0031        0.0000        5.4348        5.4349       5.431720       0.08824
  25     40.54        0.0031        0.0001        5.3707        5.3708       5.367658       0.07948
  24     48.69        0.0031        0.0001        5.2985        5.2985       5.295425       0.07475
  23     57.69        0.0031        0.0001        5.2215        5.2216       5.218486       0.07212
  22     68.43        0.0031        0.0001        5.1318        5.1319       5.128826       0.07048
  21     81.20        0.0031        0.0001        5.0284        5.0285       5.025397       0.06834
  20     96.49        0.0031        0.0001        4.9122        4.9123       4.909262       0.06410
  19     114.6        0.0030        0.0001        4.7780        4.7782       4.775151       0.06262
  18     136.5        0.0030        0.0002        4.6285        4.6287       4.625673       0.05748
  17     162.9        0.0030        0.0002        4.4406        4.4407       4.437760       0.06006
  16     196.4        0.0029        0.0002        4.1548        4.1550       4.152086       0.07191
  15     218.7        0.0029        0.0002        3.9564        3.9566       3.953705       0.07532
  14     243.0        0.0029        0.0002        3.7055        3.7058       3.702869       0.08700
  13     269.0        0.0029        0.0002        3.3399        3.3401       3.337227       0.11861
  12     297.5        0.0029        0.0002        2.8954        2.8956       2.892729       0.13183
  11     328.5        0.0029        0.0002        2.4388        2.4390       2.436172       0.12414
  10     361.9        0.0029        0.0002        2.0269        2.0271       2.024205       0.10423
   9     398.1        0.0029        0.0002        1.6753        1.6755       1.672565       0.08192
   8     437.6        0.0030        0.0002        1.3592        1.3594       1.356357       0.06761
   7     480.5        0.0032        0.0002        1.0616        1.0618       1.058613       0.05848
   6     533.0        0.0035        0.0001        0.7543        0.7544       0.750945       0.04949
   5     589.8        0.0041        0.0001        0.4951        0.4952       0.491137       0.03856
   4     651.6        0.0053        0.0001        0.2943        0.2943       0.289042       0.02764
   3     718.7        0.0077        0.0001        0.1528        0.1529       0.145189       0.01808
   2     792.3        0.0125        0.0000        0.0658        0.0658       0.053323       0.01054
   1     891.5        0.0001        0.0076        0.0040        0.0116       0.011480       0.00356
   0    1013.0        0.0006        0.0018        0.0003        0.0022       0.001595       0.00069



 Wavenumbers:  4000. -  4650. cm-1, ATM      1
 LEVEL PRESSURE   UPWARD FLUX   DIFDOWN FLUX  DIRDOWN FLUX  DOWNWARD FLUX   NET FLUX    HEATING RATE
          mb          W/m2          W/m2          W/m2        W/m2          W/m2       degree/day
  51    .06700        2.2729        0.0000        6.9421        6.9421       4.669175       0.00000
  50    .07753        2.2729        0.0000        6.9421        6.9421       4.669174       0.00079
  49    .09103        2.2729        0.0000        6.9421        6.9421       4.669173       0.00078
  48    0.1069        2.2729        0.0000        6.9421        6.9421       4.669171       0.00076
  47    0.1255        2.2729        0.0000        6.9421        6.9421       4.669170       0.00074
  46    0.1487        2.2729        0.0000        6.9421        6.9421       4.669168       0.00075
  45    0.1794        2.2729        0.0000        6.9421        6.9421       4.669165       0.00077
  44    0.2165        2.2729        0.0000        6.9421        6.9421       4.669161       0.00076
  43    0.2613        2.2729        0.0000        6.9420        6.9420       4.669158       0.00074
  42    0.3336        2.2729        0.0000        6.9420        6.9420       4.669151       0.00076
  41    0.4307        2.2729        0.0000        6.9420        6.9420       4.669142       0.00077
  40    0.5894        2.2729        0.0000        6.9420        6.9420       4.669127       0.00079
  39     1.339        2.2729        0.0000        6.9419        6.9419       4.669038       0.00100
  38     1.782        2.2729        0.0000        6.9418        6.9419       4.668969       0.00132
  37     2.292        2.2729        0.0000        6.9418        6.9418       4.668876       0.00155
  36     2.964        2.2729        0.0000        6.9416        6.9416       4.668736       0.00175
  35     3.853        2.2729        0.0000        6.9414        6.9414       4.668530       0.00196
  34     5.035        2.2729        0.0000        6.9411        6.9411       4.668225       0.00218
  33     6.613        2.2729        0.0000        6.9406        6.9407       4.667777       0.00239
  32     8.786        2.2729        0.0000        6.9399        6.9400       4.667117       0.00256
  31     11.80        2.2729        0.0000        6.9389        6.9389       4.666082       0.00290
  30     15.07        2.2729        0.0001        6.9377        6.9377       4.664871       0.00313
  29     18.79        2.2728        0.0001        6.9362        6.9363       4.663412       0.00331
  28     23.16        2.2728        0.0001        6.9343        6.9344       4.661607       0.00349
  27     28.12        2.2728        0.0001        6.9321        6.9323       4.659431       0.00370
  26     33.73        2.2728        0.0001        6.9294        6.9296       4.656761       0.00401
  25     40.54        2.2728        0.0002        6.9258        6.9260       4.653160       0.00447
  24     48.69        2.2728        0.0002        6.9210        6.9212       4.648393       0.00493
  23     57.69        2.2728        0.0002        6.9154        6.9156       4.642783       0.00526
  22     68.43        2.2728        0.0003        6.9083        6.9086       4.635807       0.00548
  21     81.20        2.2728        0.0003        6.8998        6.9001       4.627273       0.00564
  20     96.49        2.2729        0.0004        6.8894        6.8898       4.616962       0.00569
  19     114.6        2.2729        0.0005        6.8765        6.8770       4.604045       0.00603
  18     136.5        2.2731        0.0005        6.8610        6.8615       4.588452       0.00600
  17     162.9        2.2733        0.0006        6.8417        6.8423       4.569035       0.00621
  16     196.4        2.2737        0.0008        6.8147        6.8155       4.541763       0.00686
  15     218.7        2.2741        0.0009        6.7948        6.7957       4.521653       0.00764
  14     243.0        2.2746        0.0010        6.7698        6.7707       4.496119       0.00886
  13     269.0        2.2755        0.0011        6.7349        6.7359       4.460361       0.01160
  12     297.5        2.2770        0.0012        6.6869        6.6880       4.411056       0.01462
  11     328.5        2.2790        0.0013        6.6194        6.6206       4.341658       0.01887
  10     361.9        2.2817        0.0014        6.5295        6.5309       4.249180       0.02340
   9     398.1        2.2852        0.0015        6.4202        6.4217       4.136506       0.02625
   8     437.6        2.2900        0.0016        6.2962        6.2978       4.007847       0.02751
   7     480.5        2.2965        0.0018        6.1555        6.1573       3.860727       0.02889
   6     533.0        2.3073        0.0019        5.9675        5.9695       3.662190       0.03194
   5     589.8        2.3230        0.0021        5.7368        5.7388       3.415827       0.03657
   4     651.6        2.3463        0.0022        5.4662        5.4684       3.122137       0.04016
   3     718.7        2.3792        0.0024        5.1912        5.1935       2.814344       0.03868
   2     792.3        2.4238        0.0025        4.9395        4.9420       2.518180       0.03397
   1     891.5        0.7458        1.8336        1.1833        3.0169       2.271172       0.02102
   0    1013.0        0.7744        1.7515        1.0992        2.8507       2.076350       0.01353



 Wavenumbers:  4650. -  5150. cm-1, ATM      1
 LEVEL PRESSURE   UPWARD FLUX   DIFDOWN FLUX  DIRDOWN FLUX  DOWNWARD FLUX   NET FLUX    HEATING RATE
          mb          W/m2          W/m2          W/m2        W/m2          W/m2       degree/day
  51    .06700        1.5762        0.0000        6.5710        6.5710       4.994763       0.00000
  50    .07753        1.5762        0.0000        6.5708        6.5708       4.994527       0.18887
  49    .09103        1.5762        0.0000        6.5705        6.5705       4.994233       0.18362
  48    0.1069        1.5762        0.0000        6.5701        6.5701       4.993899       0.17806
  47    0.1255        1.5762        0.0000        6.5697        6.5697       4.993518       0.17238
  46    0.1487        1.5762        0.0000        6.5693        6.5693       4.993045       0.17268
  45    0.1794        1.5762        0.0000        6.5686        6.5686       4.992408       0.17473
  44    0.2165        1.5762        0.0000        6.5679        6.5679       4.991670       0.16788
  43    0.2613        1.5762        0.0000        6.5670        6.5670       4.990817       0.16078
  42    0.3336        1.5762        0.0000        6.5657        6.5657       4.989454       0.15894
  41    0.4307        1.5762        0.0000        6.5640        6.5640       4.987732       0.14971
  40    0.5894        1.5762        0.0000        6.5613        6.5613       4.985116       0.13913
  39     1.339        1.5762        0.0000        6.5516        6.5516       4.975338       0.11008
  38     1.782        1.5762        0.0000        6.5473        6.5473       4.971122       0.08026
  37     2.292        1.5762        0.0000        6.5434        6.5435       4.967235       0.06438
  36     2.964        1.5762        0.0000        6.5395        6.5395       4.963280       0.04964
  35     3.853        1.5762        0.0000        6.5355        6.5356       4.959337       0.03742
  34     5.035        1.5762        0.0000        6.5315        6.5315       4.955334       0.02860
  33     6.613        1.5762        0.0000        6.5271        6.5271       4.950939       0.02350
  32     8.786        1.5762        0.0001        6.5216        6.5216       4.945442       0.02135
  31     11.80        1.5762        0.0001        6.5135        6.5135       4.937359       0.02263
  30     15.07        1.5762        0.0001        6.5041        6.5042       4.927985       0.02420
  29     18.79        1.5762        0.0001        6.4925        6.4926       4.916461       0.02613
  28     23.16        1.5762        0.0001        6.4779        6.4780       4.901858       0.02824
  27     28.12        1.5762        0.0002        6.4599        6.4600       4.883868       0.03058
  26     33.73        1.5762        0.0002        6.4384        6.4386       4.862417       0.03225
  25     40.54        1.5762        0.0002        6.4112        6.4115       4.835264       0.03369
  24     48.69        1.5762        0.0003        6.3775        6.3778       4.801589       0.03485
  23     57.69        1.5763        0.0003        6.3404        6.3407       4.764448       0.03481
  22     68.43        1.5763        0.0004        6.2971        6.2975       4.721191       0.03401
  21     81.20        1.5764        0.0005        6.2483        6.2487       4.672284       0.03232
  20     96.49        1.5766        0.0006        6.1948        6.1954       4.618787       0.02953
  19     114.6        1.5768        0.0007        6.1381        6.1388       4.561979       0.02653
  18     136.5        1.5772        0.0008        6.0790        6.0798       4.502632       0.02282
  17     162.9        1.5776        0.0009        6.0160        6.0170       4.439340       0.02023
  16     196.4        1.5784        0.0011        5.9399        5.9410       4.362583       0.01932
  15     218.7        1.5790        0.0012        5.8896        5.8909       4.311840       0.01927
  14     243.0        1.5798        0.0013        5.8322        5.8335       4.253678       0.02017
  13     269.0        1.5811        0.0015        5.7624        5.7639       4.182808       0.02299
  12     297.5        1.5828        0.0016        5.6767        5.6783       4.095519       0.02589
  11     328.5        1.5852        0.0018        5.5726        5.5744       3.989108       0.02893
  10     361.9        1.5885        0.0019        5.4473        5.4492       3.860699       0.03249
   9     398.1        1.5930        0.0021        5.2995        5.3015       3.708572       0.03544
   8     437.6        1.5989        0.0022        5.1275        5.1297       3.530740       0.03802
   7     480.5        1.6071        0.0024        4.9290        4.9313       3.324235       0.04056
   6     533.0        1.6200        0.0025        4.6794        4.6819       3.061885       0.04220
   5     589.8        1.6381        0.0027        4.4188        4.4214       2.783349       0.04134
   4     651.6        1.6638        0.0028        4.1521        4.1549       2.491133       0.03996
   3     718.7        1.6987        0.0029        3.8929        3.8959       2.197199       0.03694
   2     792.3        1.7453        0.0031        3.6469        3.6500       1.904693       0.03355
   1     891.5        0.5214        1.3243        0.8537        2.1779       1.656558       0.02112
   0    1013.0        0.5483        1.2460        0.7735        2.0195       1.471179       0.01287



 Wavenumbers:  5150. -  6150. cm-1, ATM      1
 LEVEL PRESSURE   UPWARD FLUX   DIFDOWN FLUX  DIRDOWN FLUX  DOWNWARD FLUX   NET FLUX    HEATING RATE
          mb          W/m2          W/m2          W/m2        W/m2          W/m2       degree/day
  51    .06700        3.9878        0.0000       16.4735       16.4735      12.485682       0.00000
  50    .07753        3.9878        0.0000       16.4735       16.4735      12.485648       0.02762
  49    .09103        3.9878        0.0000       16.4734       16.4734      12.485603       0.02812
  48    0.1069        3.9878        0.0000       16.4734       16.4734      12.485549       0.02860
  47    0.1255        3.9878        0.0000       16.4733       16.4733      12.485485       0.02905
  46    0.1487        3.9878        0.0000       16.4732       16.4732      12.485401       0.03061
  45    0.1794        3.9878        0.0000       16.4731       16.4731      12.485282       0.03270
  44    0.2165        3.9878        0.0000       16.4730       16.4730      12.485135       0.03332
  43    0.2613        3.9878        0.0000       16.4728       16.4728      12.484956       0.03377
  42    0.3336        3.9878        0.0000       16.4725       16.4725      12.484650       0.03565
  41    0.4307        3.9878        0.0000       16.4720       16.4720      12.484231       0.03647
  40    0.5894        3.9878        0.0000       16.4713       16.4713      12.483530       0.03730
  39     1.339        3.9878        0.0000       16.4679       16.4679      12.480119       0.03839
  38     1.782        3.9878        0.0000       16.4659       16.4659      12.478119       0.03809
  37     2.292        3.9878        0.0001       16.4635       16.4636      12.475826       0.03798
  36     2.964        3.9878        0.0001       16.4605       16.4606      12.472854       0.03731
  35     3.853        3.9878        0.0001       16.4567       16.4568      12.468997       0.03660
  34     5.035        3.9877        0.0001       16.4516       16.4517      12.463995       0.03573
  33     6.613        3.9877        0.0002       16.4451       16.4452      12.457527       0.03458
  32     8.786        3.9877        0.0002       16.4367       16.4369      12.449203       0.03233
  31     11.80        3.9876        0.0003       16.4254       16.4257      12.438034       0.03127
  30     15.07        3.9876        0.0004       16.4141       16.4145      12.426926       0.02868
  29     18.79        3.9876        0.0005       16.4024       16.4029      12.415379       0.02618
  28     23.16        3.9875        0.0006       16.3900       16.3906      12.403086       0.02377
  27     28.12        3.9875        0.0008       16.3771       16.3779      12.390383       0.02159
  26     33.73        3.9874        0.0009       16.3641       16.3650      12.377608       0.01921
  25     40.54        3.9874        0.0011       16.3502       16.3513      12.363901       0.01700
  24     48.69        3.9873        0.0013       16.3354       16.3367      12.349339       0.01507
  23     57.69        3.9873        0.0016       16.3211       16.3226      12.335333       0.01313
  22     68.43        3.9873        0.0019       16.3062       16.3081      12.320810       0.01142
  21     81.20        3.9873        0.0022       16.2903       16.2925      12.305250       0.01028
  20     96.49        3.9873        0.0026       16.2726       16.2752      12.287969       0.00954
  19     114.6        3.9873        0.0031       16.2521       16.2552      12.267902       0.00937
  18     136.5        3.9873        0.0037       16.2245       16.2282      12.240930       0.01037
  17     162.9        3.9874        0.0044       16.1747       16.1791      12.191758       0.01572
  16     196.4        3.9875        0.0053       16.0518       16.0571      12.069619       0.03074
  15     218.7        3.9876        0.0058       15.8984       15.9042      11.916598       0.05810
  14     243.0        3.9878        0.0064       15.6153       15.6216      11.633850       0.09807
  13     269.0        3.9882        0.0069       15.1390       15.1459      11.157767       0.15444
  12     297.5        3.9888        0.0075       14.5779       14.5853      10.596577       0.16644
  11     328.5        3.9898        0.0079       13.8780       13.8860       9.896190       0.19043
  10     361.9        3.9914        0.0084       13.0814       13.0898       9.098459       0.20183
   9     398.1        3.9938        0.0088       12.2728       12.2816       8.287861       0.18885
   8     437.6        3.9974        0.0091       11.4776       11.4867       7.489320       0.17073
   7     480.5        4.0030        0.0094       10.7300       10.7394       6.736393       0.14787
   6     533.0        4.0132        0.0098       10.0326       10.0424       6.029276       0.11375
   5     589.8        4.0294        0.0104        9.5050        9.5154       5.486009       0.08064
   4     651.6        4.0554        0.0110        9.0814        9.0923       5.036947       0.06141
   3     718.7        4.0950        0.0117        8.7024        8.7141       4.619052       0.05252
   2     792.3        4.1531        0.0124        8.3379        8.3504       4.197298       0.04837
   1     891.5        1.3044        3.1299        2.0131        5.1430       3.838607       0.03052
   0    1013.0        1.3367        3.0167        1.9031        4.9197       3.583022       0.01775



 Wavenumbers:  6150. -  7700. cm-1, ATM      1
 LEVEL PRESSURE   UPWARD FLUX   DIFDOWN FLUX  DIRDOWN FLUX  DOWNWARD FLUX   NET FLUX    HEATING RATE
          mb          W/m2          W/m2          W/m2        W/m2          W/m2       degree/day
  51    .06700        6.1212        0.0000       30.4684       30.4684      24.347141       0.00000
  50    .07753        6.1212        0.0000       30.4683       30.4683      24.347089       0.04144
  49    .09103        6.1212        0.0000       30.4683       30.4683      24.347022       0.04174
  48    0.1069        6.1212        0.0000       30.4682       30.4682      24.346944       0.04202
  47    0.1255        6.1212        0.0000       30.4681       30.4681      24.346850       0.04227
  46    0.1487        6.1212        0.0000       30.4680       30.4680      24.346729       0.04411
  45    0.1794        6.1212        0.0000       30.4678       30.4678      24.346559       0.04669
  44    0.2165        6.1212        0.0000       30.4676       30.4676      24.346352       0.04715
  43    0.2613        6.1212        0.0000       30.4673       30.4673      24.346100       0.04744
  42    0.3336        6.1212        0.0000       30.4669       30.4669      24.345674       0.04974
  41    0.4307        6.1212        0.0000       30.4663       30.4663      24.345093       0.05052
  40    0.5894        6.1212        0.0001       30.4653       30.4653      24.344125       0.05146
  39     1.339        6.1211        0.0001       30.4604       30.4606      24.339441       0.05273
  38     1.782        6.1211        0.0002       30.4576       30.4578      24.336691       0.05235
  37     2.292        6.1210        0.0003       30.4543       30.4546      24.333533       0.05231
  36     2.964        6.1210        0.0003       30.4501       30.4504      24.329426       0.05156
  35     3.853        6.1209        0.0004       30.4445       30.4449      24.324068       0.05084
  34     5.035        6.1208        0.0006       30.4373       30.4378      24.317069       0.05000
  33     6.613        6.1206        0.0007       30.4278       30.4285      24.307921       0.04890
  32     8.786        6.1204        0.0010       30.4154       30.4164      24.295968       0.04642
  31     11.80        6.1201        0.0013       30.3984       30.3997      24.279583       0.04587
  30     15.07        6.1198        0.0017       30.3810       30.3827      24.262869       0.04315
  29     18.79        6.1195        0.0021       30.3623       30.3644      24.244968       0.04059
  28     23.16        6.1191        0.0026       30.3417       30.3443      24.225285       0.03806
  27     28.12        6.1186        0.0032       30.3196       30.3228      24.204184       0.03587
  26     33.73        6.1181        0.0038       30.2965       30.3003      24.182265       0.03296
  25     40.54        6.1174        0.0046       30.2708       30.2753      24.157927       0.03019
  24     48.69        6.1167        0.0055       30.2423       30.2478      24.131149       0.02771
  23     57.69        6.1158        0.0065       30.2139       30.2204      24.104581       0.02490
  22     68.43        6.1148        0.0077       30.1834       30.1911      24.076303       0.02223
  21     81.20        6.1136        0.0092       30.1500       30.1592      24.045571       0.02031
  20     96.49        6.1122        0.0109       30.1126       30.1235      24.011348       0.01889
  19     114.6        6.1105        0.0129       30.0695       30.0824      23.971956       0.01839
  18     136.5        6.1085        0.0154       30.0139       30.0293      23.920789       0.01967
  17     162.9        6.1061        0.0182       29.9225       29.9407      23.834586       0.02755
  16     196.4        6.1031        0.0219       29.7333       29.7552      23.652141       0.04592
  15     218.7        6.1012        0.0243       29.5259       29.5501      23.448949       0.07714
  14     243.0        6.0992        0.0267       29.1375       29.1642      23.065003       0.13317
  13     269.0        6.0974        0.0291       28.3800       28.4091      22.311742       0.24435
  12     297.5        6.0959        0.0313       27.3895       27.4209      21.324986       0.29266
  11     328.5        6.0951        0.0335       26.2257       26.2592      20.164033       0.31566
  10     361.9        6.0956        0.0354       24.8453       24.8808      18.785147       0.34887
   9     398.1        6.0980        0.0372       23.3471       23.3842      17.286225       0.34922
   8     437.6        6.1035        0.0387       21.7966       21.8353      15.731816       0.33234
   7     480.5        6.1144        0.0398       20.1977       20.2376      14.123209       0.31592
   6     533.0        6.1367        0.0411       18.4969       18.5380      12.401338       0.27699
   5     589.8        6.1748        0.0423       16.9754       17.0177      10.842869       0.23133
   4     651.6        6.2385        0.0436       15.6022       15.6457       9.407185       0.19633
   3     718.7        6.3368        0.0450       14.4232       14.4682       8.131344       0.16034
   2     792.3        6.4812        0.0466       13.4386       13.4852       7.003995       0.12929
   1     891.5        1.9563        4.9204        3.1506        8.0710       6.114702       0.07567
   0    1013.0        2.0402        4.6404        2.8750        7.5154       5.475191       0.04440



 Wavenumbers:  7700. -  8050. cm-1, ATM      1
 LEVEL PRESSURE   UPWARD FLUX   DIFDOWN FLUX  DIRDOWN FLUX  DOWNWARD FLUX   NET FLUX    HEATING RATE
          mb          W/m2          W/m2          W/m2        W/m2          W/m2       degree/day
  51    .06700        2.9898        0.0000        7.2006        7.2006       4.210817       0.00000
  50    .07753        2.9898        0.0000        7.2006        7.2006       4.210798       0.01578
  49    .09103        2.9898        0.0000        7.2005        7.2005       4.210773       0.01547
  48    0.1069        2.9898        0.0000        7.2005        7.2005       4.210744       0.01514
  47    0.1255        2.9898        0.0000        7.2005        7.2005       4.210712       0.01482
  46    0.1487        2.9898        0.0000        7.2004        7.2005       4.210671       0.01504
  45    0.1794        2.9898        0.0000        7.2004        7.2004       4.210614       0.01547
  44    0.2165        2.9898        0.0000        7.2003        7.2003       4.210547       0.01518
  43    0.2613        2.9898        0.0000        7.2003        7.2003       4.210468       0.01489
  42    0.3336        2.9898        0.0000        7.2001        7.2001       4.210338       0.01524
  41    0.4307        2.9898        0.0000        7.2000        7.2000       4.210164       0.01507
  40    0.5894        2.9898        0.0000        7.1997        7.1997       4.209881       0.01505
  39     1.339        2.9900        0.0001        7.1984        7.1985       4.208542       0.01507
  38     1.782        2.9900        0.0001        7.1977        7.1978       4.207756       0.01497
  37     2.292        2.9901        0.0001        7.1968        7.1969       4.206847       0.01507
  36     2.964        2.9902        0.0001        7.1957        7.1958       4.205652       0.01499
  35     3.853        2.9903        0.0002        7.1942        7.1944       4.204076       0.01496
  34     5.035        2.9905        0.0002        7.1922        7.1925       4.201982       0.01495
  33     6.613        2.9907        0.0003        7.1896        7.1899       4.199189       0.01493
  32     8.786        2.9910        0.0004        7.1860        7.1865       4.195430       0.01460
  31     11.80        2.9915        0.0006        7.1810        7.1815       4.190063       0.01503
  30     15.07        2.9920        0.0007        7.1755        7.1763       4.184316       0.01484
  29     18.79        2.9925        0.0009        7.1694        7.1703       4.177843       0.01468
  28     23.16        2.9931        0.0011        7.1623        7.1634       4.170308       0.01457
  27     28.12        2.9939        0.0013        7.1542        7.1556       4.161728       0.01459
  26     33.73        2.9947        0.0016        7.1452        7.1469       4.152172       0.01437
  25     40.54        2.9957        0.0019        7.1344        7.1364       4.140691       0.01424
  24     48.69        2.9969        0.0023        7.1215        7.1238       4.126945       0.01423
  23     57.69        2.9982        0.0027        7.1074        7.1102       4.111965       0.01404
  22     68.43        2.9998        0.0032        7.0909        7.0941       4.094284       0.01390
  21     81.20        3.0017        0.0038        7.0713        7.0752       4.073444       0.01377
  20     96.49        3.0041        0.0046        7.0484        7.0530       4.048924       0.01353
  19     114.6        3.0068        0.0054        7.0217        7.0271       4.020237       0.01340
  18     136.5        3.0102        0.0064        6.9906        6.9970       3.986808       0.01285
  17     162.9        3.0142        0.0076        6.9544        6.9620       3.947761       0.01248
  16     196.4        3.0196        0.0091        6.9087        6.9179       3.898292       0.01245
  15     218.7        3.0231        0.0101        6.8794        6.8895       3.866408       0.01211
  14     243.0        3.0271        0.0112        6.8481        6.8593       3.832234       0.01185
  13     269.0        3.0315        0.0124        6.8147        6.8271       3.795634       0.01187
  12     297.5        3.0363        0.0136        6.7791        6.7927       3.756396       0.01164
  11     328.5        3.0418        0.0150        6.7409        6.7560       3.714195       0.01147
  10     361.9        3.0479        0.0165        6.7002        6.7166       3.668757       0.01150
   9     398.1        3.0548        0.0180        6.6563        6.6743       3.619529       0.01147
   8     437.6        3.0626        0.0197        6.6089        6.6286       3.565926       0.01146
   7     480.5        3.0718        0.0215        6.5570        6.5785       3.506751       0.01162
   6     533.0        3.0840        0.0237        6.4915        6.5152       3.431178       0.01216
   5     589.8        3.0987        0.0260        6.4182        6.4443       3.345624       0.01270
   4     651.6        3.1163        0.0285        6.3359        6.3644       3.248066       0.01334
   3     718.7        3.1375        0.0312        6.2441        6.2753       3.137784       0.01386
   2     792.3        3.1625        0.0339        6.1437        6.1777       3.015218       0.01406
   1     891.5        1.0274        2.3968        1.5288        3.9255       2.898172       0.00996
   0    1013.0        1.0432        2.3569        1.4831        3.8400       2.796772       0.00704



 Wavenumbers:  8050. - 12850. cm-1, ATM      1
 LEVEL PRESSURE   UPWARD FLUX   DIFDOWN FLUX  DIRDOWN FLUX  DOWNWARD FLUX   NET FLUX    HEATING RATE
          mb          W/m2          W/m2          W/m2        W/m2          W/m2       degree/day
  51    .06700       38.6998        0.0000      100.8135      100.8135      62.113751       0.00000
  50    .07753       38.6997        0.0000      100.8135      100.8135      62.113751       0.00000
  49    .09103       38.6997        0.0001      100.8134      100.8135      62.113751      -0.00000
  48    0.1069       38.6997        0.0001      100.8134      100.8135      62.113751       0.00000
  47    0.1255       38.6997        0.0001      100.8133      100.8134      62.113751       0.00000
  46    0.1487       38.6996        0.0002      100.8132      100.8134      62.113751      -0.00000
  45    0.1794       38.6996        0.0003      100.8131      100.8133      62.113751       0.00000
  44    0.2165       38.6995        0.0004      100.8129      100.8133      62.113751      -0.00000
  43    0.2613       38.6994        0.0005      100.8127      100.8132      62.113751       0.00000
  42    0.3336       38.6993        0.0006      100.8125      100.8131      62.113751      -0.00000
  41    0.4307       38.6992        0.0008      100.8121      100.8129      62.113751       0.00000
  40    0.5894       38.6989        0.0012      100.8115      100.8127      62.113751      -0.00000
  39     1.339       38.6977        0.0030      100.8085      100.8115      62.113751       0.00000
  38     1.782       38.6970        0.0040      100.8068      100.8107      62.113751      -0.00000
  37     2.292       38.6962        0.0052      100.8047      100.8099      62.113751       0.00000
  36     2.964       38.6951        0.0067      100.8021      100.8088      62.113751       0.00000
  35     3.853       38.6937        0.0088      100.7986      100.8074      62.113751       0.00000
  34     5.035       38.6918        0.0115      100.7940      100.8055      62.113751      -0.00000
  33     6.613       38.6892        0.0152      100.7878      100.8030      62.113751      -0.00000
  32     8.786       38.6858        0.0201      100.7794      100.7995      62.113751       0.00000
  31     11.80       38.6809        0.0272      100.7674      100.7946      62.113751      -0.00000
  30     15.07       38.6756        0.0348      100.7546      100.7893      62.113751       0.00000
  29     18.79       38.6696        0.0434      100.7400      100.7834      62.113751       0.00000
  28     23.16       38.6626        0.0534      100.7230      100.7764      62.113751      -0.00000
  27     28.12       38.6547        0.0649      100.7035      100.7684      62.113751       0.00000
  26     33.73       38.6457        0.0778      100.6817      100.7594      62.113751      -0.00000
  25     40.54       38.6349        0.0934      100.6552      100.7486      62.113751       0.00000
  24     48.69       38.6218        0.1122      100.6234      100.7355      62.113751      -0.00000
  23     57.69       38.6074        0.1329      100.5883      100.7211      62.113751       0.00000
  22     68.43       38.5902        0.1575      100.5464      100.7040      62.113751       0.00000
  21     81.20       38.5697        0.1870      100.4965      100.6835      62.113751      -0.00000
  20     96.49       38.5453        0.2221      100.4370      100.6590      62.113751       0.00000
  19     114.6       38.5163        0.2639      100.3585      100.6223      62.106019       0.00361
  18     136.5       38.4819        0.3134      100.2634      100.5768      62.094894       0.00428
  17     162.9       38.4409        0.3726      100.1407      100.5133      62.072336       0.00721
  16     196.4       38.3878        0.4494       99.9505      100.3999      62.012144       0.01515
  15     218.7       38.3529        0.4999       99.7889      100.2888      61.935960       0.02892
  14     243.0       38.3152        0.5547       99.5472      100.1018      61.786693       0.05177
  13     269.0       38.2753        0.6137       99.1452       99.7589      61.483663       0.09830
  12     297.5       38.2339        0.6770       98.5975       99.2745      61.040561       0.13142
  11     328.5       38.1924        0.7449       97.8659       98.6107      60.418299       0.16919
  10     361.9       38.1528        0.8170       96.8848       97.7017      59.548954       0.21995
   9     398.1       38.1176        0.8931       95.6330       96.5260      58.408421       0.26572
   8     437.6       38.0919        0.9727       94.0655       95.0382      56.946258       0.31262
   7     480.5       38.0856        1.0550       92.0807       93.1358      55.050141       0.37239
   6     533.0       38.1140        1.1522       89.4449       90.5971      52.483037       0.41297
   5     589.8       38.1994        1.2525       86.5544       87.8069      49.607506       0.42682
   4     651.6       38.3752        1.3555       83.4174       84.7729      46.397671       0.43895
   3     718.7       38.6677        1.4618       80.2037       81.6655      42.997746       0.42728
   2     792.3       39.1077        1.5722       77.0811       78.6532      39.545537       0.39593
   1     891.5       12.4055       30.2796       18.6502       48.9298      36.524291       0.25709
   0    1013.0       12.6895       29.2652       17.5498       46.8151      34.125588       0.16655



 Wavenumbers: 12850. - 16000. cm-1, ATM      1
 LEVEL PRESSURE   UPWARD FLUX   DIFDOWN FLUX  DIRDOWN FLUX  DOWNWARD FLUX   NET FLUX    HEATING RATE
          mb          W/m2          W/m2          W/m2        W/m2          W/m2       degree/day
  51    .06700       37.0864        0.0000       63.1686       63.1686      26.082129       0.00000
  50    .07753       37.0864        0.0001       63.1677       63.1678      26.081349       0.62527
  49    .09103       37.0864        0.0001       63.1666       63.1668      26.080377       0.60774
  48    0.1069       37.0864        0.0002       63.1654       63.1656      26.079269       0.58941
  47    0.1255       37.0863        0.0003       63.1640       63.1643      26.078010       0.57103
  46    0.1487       37.0863        0.0004       63.1623       63.1627      26.076439       0.57271
  45    0.1794       37.0862        0.0006       63.1600       63.1606      26.074331       0.57852
  44    0.2165       37.0862        0.0008       63.1573       63.1581      26.071894       0.55450
  43    0.2613       37.0861        0.0010       63.1542       63.1552      26.069081       0.53013
  42    0.3336       37.0861        0.0014       63.1493       63.1507      26.064599       0.52263
  41    0.4307       37.0861        0.0019       63.1431       63.1450      26.058990       0.48766
  40    0.5894       37.0861        0.0027       63.1338       63.1366      26.050488       0.45210
  39     1.339       37.0875        0.0067       63.0956       63.1022      26.014698       0.40294
  38     1.782       37.0894        0.0090       63.0740       63.0830      25.993586       0.40193
  37     2.292       37.0925        0.0116       63.0477       63.0593      25.966787       0.44387
  36     2.964       37.0980        0.0151       63.0095       63.0246      25.926633       0.50406
  35     3.853       37.1073        0.0197       62.9533       62.9730      25.865666       0.57858
  34     5.035       37.1217        0.0258       62.8725       62.8983      25.776670       0.63575
  33     6.613       37.1419        0.0340       62.7621       62.7961      25.654186       0.65480
  32     8.786       37.1680        0.0450       62.6182       62.6632      25.495190       0.61749
  31     11.80       37.2015        0.0606       62.4284       62.4890      25.287495       0.58148
  30     15.07       37.2328        0.0774       62.2426       62.3200      25.087181       0.51717
  29     18.79       37.2641        0.0963       62.0493       62.1456      24.881508       0.46632
  28     23.16       37.2959        0.1183       61.8424       61.9608      24.664933       0.41879
  27     28.12       37.3266        0.1435       61.6278       61.7713      24.444681       0.37441
  26     33.73       37.3531        0.1716       61.4177       61.5892      24.236150       0.31353
  25     40.54       37.3759        0.2054       61.1983       61.4037      24.027877       0.25839
  24     48.69       37.3944        0.2462       60.9680       61.2142      23.819818       0.21531
  23     57.69       37.4061        0.2909       60.7478       61.0387      23.632680       0.17541
  22     68.43       37.4106        0.3442       60.5202       60.8644      23.453742       0.14067
  21     81.20       37.4032        0.4075       60.2938       60.7014      23.298174       0.10280
  20     96.49       37.3825        0.4830       60.0643       60.5473      23.164801       0.07361
  19     114.6       37.3582        0.5732       59.8078       60.3809      23.022775       0.06632
  18     136.5       37.3240        0.6798       59.5157       60.1955      22.871480       0.05818
  17     162.9       37.2786        0.8065       59.1770       59.9835      22.704934       0.05323
  16     196.4       37.2093        0.9703       58.7604       59.7308      22.521413       0.04619
  15     218.7       37.1602        1.0776       58.4948       59.5724      22.412234       0.04145
  14     243.0       37.1053        1.1941       58.2089       59.4030      22.297709       0.03972
  13     269.0       37.0444        1.3200       57.9006       59.2205      22.176127       0.03944
  12     297.5       36.9778        1.4557       57.5668       59.0225      22.044676       0.03899
  11     328.5       36.9065        1.6020       57.2005       58.8025      21.895997       0.04043
  10     361.9       36.8312        1.7590       56.7963       58.5553      21.724140       0.04348
   9     398.1       36.7528        1.9273       56.3475       58.2748      21.522047       0.04708
   8     437.6       36.6734        2.1073       55.8422       57.9495      21.276050       0.05260
   7     480.5       36.5970        2.2989       55.2625       57.5614      20.964444       0.06120
   6     533.0       36.5174        2.5327       54.4972       57.0299      20.512473       0.07271
   5     589.8       36.4500        2.7814       53.6307       56.4121      19.962122       0.08169
   4     651.6       36.4030        3.0441       52.6606       55.7047      19.301715       0.09031
   3     718.7       36.3813        3.3212       51.6100       54.9312      18.549898       0.09448
   2     792.3       36.3916        3.6125       50.5019       54.1143      17.722773       0.09486
   1     891.5       20.8354       25.2411       12.4791       37.7202      16.884768       0.07131
   0    1013.0       20.9582       25.0089       12.0232       37.0321      16.073902       0.05630



 Wavenumbers: 16000. - 22650. cm-1, ATM      1
 LEVEL PRESSURE   UPWARD FLUX   DIFDOWN FLUX  DIRDOWN FLUX  DOWNWARD FLUX   NET FLUX    HEATING RATE
          mb          W/m2          W/m2          W/m2        W/m2          W/m2       degree/day
  51    .06700       76.1254        0.0000      100.7153      100.7153      24.589867       0.00000
  50    .07753       76.1253        0.0003      100.7147      100.7151      24.589749       0.09414
  49    .09103       76.1252        0.0007      100.7140      100.7147      24.589578       0.10678
  48    0.1069       76.1250        0.0012      100.7131      100.7143      24.589350       0.12176
  47    0.1255       76.1248        0.0017      100.7121      100.7139      24.589043       0.13879
  46    0.1487       76.1246        0.0024      100.7108      100.7132      24.588592       0.16446
  45    0.1794       76.1244        0.0034      100.7089      100.7122      24.587887       0.19364
  44    0.2165       76.1241        0.0045      100.7066      100.7110      24.586930       0.21763
  43    0.2613       76.1238        0.0058      100.7037      100.7095      24.585632       0.24466
  42    0.3336       76.1235        0.0080      100.6987      100.7066      24.583164       0.28772
  41    0.4307       76.1232        0.0108      100.6918      100.7026      24.579445       0.32342
  40    0.5894       76.1229        0.0155      100.6797      100.6953      24.572351       0.37723
  39     1.339       76.1273        0.0378      100.6095      100.6473      24.519952       0.58991
  38     1.782       76.1339        0.0508      100.5585      100.6093      24.475329       0.84956
  37     2.292       76.1454        0.0659      100.4903      100.5562      24.410756       1.06950
  36     2.964       76.1663        0.0857      100.3868      100.4725      24.306196       1.31254
  35     3.853       76.2021        0.1119      100.2306      100.3425      24.140405       1.57339
  34     5.035       76.2577        0.1465      100.0045      100.1510      23.893327       1.76502
  33     6.613       76.3361        0.1927       99.6939       99.8866      23.550488       1.83282
  32     8.786       76.4376        0.2549       99.2881       99.5429      23.105294       1.72897
  31     11.80       76.5670        0.3434       98.7496       99.0930      22.525997       1.62185
  30     15.07       76.6876        0.4382       98.2198       98.6580      21.970420       1.43439
  29     18.79       76.8073        0.5449       97.6651       98.2100      21.402740       1.28711
  28     23.16       76.9280        0.6690       97.0671       97.7362      20.808168       1.14971
  27     28.12       77.0438        0.8105       96.4406       97.2510      20.207206       1.02160
  26     33.73       77.1415        0.9682       95.8179       96.7861      19.644630       0.84585
  25     40.54       77.2225        1.1582       95.1548       96.3130      19.090490       0.68747
  24     48.69       77.2844        1.3862       94.4420       95.8282      18.543821       0.56572
  23     57.69       77.3179        1.6358       93.7416       95.3774      18.059487       0.45399
  22     68.43       77.3207        1.9317       92.9954       94.9271      17.606405       0.35618
  21     81.20       77.2731        2.2829       92.2231       94.5060      17.232902       0.24681
  20     96.49       77.1697        2.6995       91.4110       94.1104      16.940794       0.16122
  19     114.6       77.0237        3.1906       90.5070       93.6976      16.673974       0.12459
  18     136.5       76.8357        3.7679       89.4803       93.2482      16.412481       0.10055
  17     162.9       76.5991        4.4485       88.3022       92.7507      16.151639       0.08338
  16     196.4       76.2633        5.3209       86.8606       92.1815      15.918142       0.05877
  15     218.7       76.0331        5.8875       85.9492       91.8367      15.803595       0.04349
  14     243.0       75.7793        6.4979       84.9789       91.4768      15.697543       0.03678
  13     269.0       75.5007        7.1529       83.9493       91.1021      15.601476       0.03116
  12     297.5       75.1967        7.8533       82.8589       90.7122      15.515507       0.02550
  11     328.5       74.8687        8.6015       81.6982       90.2998      15.431074       0.02296
  10     361.9       74.5167        9.3974       80.4669       89.8643      15.347641       0.02111
   9     398.1       74.1398       10.2427       79.1611       89.4038      15.263982       0.01949
   8     437.6       73.7387       11.1378       77.7777       88.9155      15.176769       0.01865
   7     480.5       73.3137       12.0829       76.3136       88.3965      15.082818       0.01845
   6     533.0       72.7984       13.2262       74.5359       87.7620      14.963657       0.01917
   5     589.8       72.2540       14.4341       72.6469       87.0810      14.826995       0.02029
   4     651.6       71.6830       15.7045       70.6456       86.3501      14.667087       0.02187
   3     718.7       71.0859       17.0353       68.5367       85.5720      14.486032       0.02275
   2     792.3       70.4657       18.4210       66.3287       84.7497      14.284030       0.02317
   1     891.5       52.1037       50.0124       16.1481       66.1605      14.056801       0.01934
   0    1013.0       51.8120       50.3340       15.2885       65.6225      13.810530       0.01710



 Wavenumbers: 22650. - 29000. cm-1, ATM      1
 LEVEL PRESSURE   UPWARD FLUX   DIFDOWN FLUX  DIRDOWN FLUX  DOWNWARD FLUX   NET FLUX    HEATING RATE
          mb          W/m2          W/m2          W/m2        W/m2          W/m2       degree/day
  51    .06700       32.6843        0.0000       38.0063       38.0063       5.322022       0.00000
  50    .07753       32.6841        0.0004       38.0057       38.0061       5.322022       0.00000
  49    .09103       32.6839        0.0009       38.0050       38.0059       5.322022      -0.00000
  48    0.1069       32.6836        0.0014       38.0042       38.0057       5.322022       0.00000
  47    0.1255       32.6833        0.0020       38.0033       38.0054       5.322022       0.00000
  46    0.1487       32.6830        0.0028       38.0022       38.0050       5.322022       0.00000
  45    0.1794       32.6825        0.0039       38.0006       38.0045       5.322022       0.00000
  44    0.2165       32.6819        0.0052       37.9987       38.0039       5.322022      -0.00000
  43    0.2613       32.6812        0.0067       37.9965       38.0032       5.322022       0.00000
  42    0.3336       32.6801        0.0093       37.9928       38.0021       5.322022       0.00000
  41    0.4307       32.6786        0.0126       37.9880       38.0006       5.322022       0.00000
  40    0.5894       32.6761        0.0181       37.9800       37.9981       5.322022      -0.00000
  39     1.339       32.6644        0.0439       37.9425       37.9864       5.322022       0.00000
  38     1.782       32.6575        0.0591       37.9204       37.9796       5.322022       0.00000
  37     2.292       32.6496        0.0767       37.8949       37.9716       5.322022       0.00000
  36     2.964       32.6392        0.0998       37.8614       37.9612       5.322022       0.00000
  35     3.853       32.6254        0.1302       37.8172       37.9474       5.322022       0.00000
  34     5.035       32.6071        0.1706       37.7586       37.9292       5.322022      -0.00000
  33     6.613       32.5828        0.2245       37.6803       37.9048       5.322022       0.00000
  32     8.786       32.5500        0.2969       37.5750       37.8720       5.322022       0.00000
  31     11.80       32.5032        0.4003       37.4249       37.8252       5.322022       0.00000
  30     15.07       32.4531        0.5109       37.2642       37.7751       5.322022       0.00000
  29     18.79       32.3966        0.6354       37.0833       37.7187       5.322022      -0.00000
  28     23.16       32.3310        0.7800       36.8730       37.6530       5.322022      -0.00000
  27     28.12       32.2563        0.9445       36.6338       37.5783       5.322022       0.00000
  26     33.73       32.1731        1.1274       36.3677       37.4951       5.322022       0.00000
  25     40.54       32.0732        1.3467       36.0486       37.3953       5.322022      -0.00000
  24     48.69       31.9538        1.6086       35.6672       37.2758       5.322022       0.00000
  23     57.69       31.8238        1.8931       35.2527       37.1458       5.322022       0.00000
  22     68.43       31.6706        2.2277       34.7649       36.9926       5.322022      -0.00000
  21     81.20       31.4904        2.6202       34.1922       36.8124       5.322022       0.00000
  20     96.49       31.2790        3.0793       33.5217       36.6010       5.322022       0.00000
  19     114.6       31.0326        3.6123       32.7424       36.3546       5.322022      -0.00000
  18     136.5       30.7469        4.2274       31.8416       36.0689       5.322022       0.00000
  17     162.9       30.4156        4.9368       30.8008       35.7376       5.322022       0.00000
  16     196.4       29.9996        5.8209       29.5007       35.3216       5.322022       0.00000
  15     218.7       29.7346        6.3800       28.6767       35.0567       5.322022      -0.00000
  14     243.0       29.4538        6.9690       27.8068       34.7758       5.322022       0.00000
  13     269.0       29.1575        7.5862       26.8933       34.4795       5.322022       0.00000
  12     297.5       28.8464        8.2292       25.9393       34.1685       5.322022      -0.00000
  11     328.5       28.5204        8.8974       24.9451       33.8425       5.322022       0.00000
  10     361.9       28.1808        9.5868       23.9160       33.5028       5.322022       0.00000
   9     398.1       27.8278       10.2957       22.8541       33.1498       5.322022      -0.00000
   8     437.6       27.4626       11.0202       21.7645       32.7846       5.322022      -0.00000
   7     480.5       27.0864       11.7563       20.6521       32.4084       5.322022       0.00000
   6     533.0       26.6434       12.6085       19.3569       31.9654       5.322022      -0.00000
   5     589.8       26.1892       13.4645       18.0467       31.5112       5.322022       0.00000
   4     651.6       25.7262       14.3166       16.7316       31.0483       5.322022       0.00000
   3     718.7       25.2567       15.1573       15.4214       30.5787       5.322022       0.00000
   2     792.3       24.7835       15.9779       14.1276       30.1055       5.322022      -0.00000
   1     891.5       19.9674       22.0952        3.1941       25.2893       5.321978       0.00000
   0    1013.0       19.6643       22.2184        2.7679       24.9863       5.321978      -0.00000



 Wavenumbers: 29000. - 38000. cm-1, ATM      1
 LEVEL PRESSURE   UPWARD FLUX   DIFDOWN FLUX  DIRDOWN FLUX  DOWNWARD FLUX   NET FLUX    HEATING RATE
          mb          W/m2          W/m2          W/m2        W/m2          W/m2       degree/day
  51    .06700        4.7543        0.0000       13.4026       13.4026       8.648279       0.00000
  50    .07753        4.7541        0.0003       13.3983       13.3986       8.644481       3.04426
  49    .09103        4.7538        0.0007       13.3921       13.3928       8.638962       3.44952
  48    0.1069        4.7535        0.0011       13.3840       13.3851       8.631585       3.92660
  47    0.1255        4.7532        0.0016       13.3733       13.3749       8.621741       4.46298
  46    0.1487        4.7527        0.0022       13.3579       13.3600       8.607299       5.26415
  45    0.1794        4.7522        0.0030       13.3340       13.3371       8.584900       6.14898
  44    0.2165        4.7515        0.0040       13.3024       13.3064       8.554883       6.82844
  43    0.2613        4.7507        0.0051       13.2604       13.2655       8.514830       7.54974
  42    0.3336        4.7495        0.0070       13.1833       13.1903       8.440828       8.62798
  41    0.4307        4.7479        0.0095       13.0729       13.0824       8.334462       9.24829
  40    0.5894        4.7455        0.0133       12.8796       12.8929       8.147430       9.94609
  39     1.339        4.7369        0.0295       11.9165       11.9461       7.209181      10.56298
  38     1.782        4.7335        0.0378       11.4399       11.4777       6.744276       8.85105
  37     2.292        4.7308        0.0467       10.9796       11.0263       6.295450       7.43372
  36     2.964        4.7292        0.0575       10.4786       10.5361       5.806987       6.13169
  35     3.853        4.7294        0.0709        9.9429       10.0138       5.284388       4.95956
  34     5.035        4.7323        0.0877        9.4007        9.4884       4.756032       3.77436
  33     6.613        4.7379        0.1089        8.8752        8.9841       4.246154       2.72581
  32     8.786        4.7457        0.1362        8.3786        8.5148       3.769082       1.85277
  31     11.80        4.7551        0.1737        7.8897        8.0634       3.308287       1.29008
  30     15.07        4.7630        0.2124        7.5108        7.7232       2.960204       0.89868
  29     18.79        4.7702        0.2546        7.1776        7.4322       2.661983       0.67616
  28     23.16        4.7765        0.3020        6.8664        7.1685       2.391931       0.52219
  27     28.12        4.7813        0.3545        6.5780        6.9325       2.151248       0.40915
  26     33.73        4.7821        0.4116        6.3195        6.7311       1.949047       0.30401
  25     40.54        4.7776        0.4790        6.0663        6.5453       1.767670       0.22502
  24     48.69        4.7673        0.5579        5.8128        6.3708       1.603427       0.16997
  23     57.69        4.7514        0.6421        5.5777        6.2198       1.468444       0.12653
  22     68.43        4.7273        0.7395        5.3379        6.0774       1.350102       0.09303
  21     81.20        4.6909        0.8525        5.0965        5.9489       1.258033       0.06084
  20     96.49        4.6410        0.9828        4.8476        5.8305       1.189504       0.03782
  19     114.6        4.5805        1.1305        4.5799        5.7104       1.129883       0.02784
  18     136.5        4.5104        1.2953        4.2891        5.5844       1.074034       0.02148
  17     162.9        4.4302        1.4779        3.9732        5.4511       1.020828       0.01701
  16     196.4        4.3289        1.6962        3.6080        5.3042       0.975387       0.01144
  15     218.7        4.2649        1.8289        3.3898        5.2187       0.953771       0.00821
  14     243.0        4.1984        1.9640        3.1686        5.1325       0.934176       0.00680
  13     269.0        4.1294        2.1003        2.9461        5.0464       0.916906       0.00560
  12     297.5        4.0586        2.2366        2.7239        4.9606       0.901976       0.00443
  11     328.5        3.9866        2.3716        2.5029        4.8745       0.887966       0.00381
  10     361.9        3.9138        2.5041        2.2846        4.7887       0.874895       0.00331
   9     398.1        3.8407        2.6327        2.0708        4.7034       0.862757       0.00283
   8     437.6        3.7676        2.7563        1.8626        4.6189       0.851291       0.00245
   7     480.5        3.6951        2.8736        1.6621        4.5357       0.840623       0.00210
   6     533.0        3.6131        2.9987        1.4437        4.4423       0.829237       0.00183
   5     589.8        3.5328        3.1123        1.2390        4.3512       0.818457       0.00160
   4     651.6        3.4547        3.2128        1.0500        4.2628       0.808135       0.00141
   3     718.7        3.3790        3.2995        0.8778        4.1773       0.798238       0.00124
   2     792.3        3.3061        3.3712        0.7237        4.0949       0.788745       0.00109
   1     891.5        2.8668        3.5033        0.1416        3.6449       0.778061       0.00091
   0    1013.0        2.8058        3.4701        0.1028        3.5729       0.767115       0.00076



 Wavenumbers: 38000. - 50000. cm-1, ATM      1
 LEVEL PRESSURE   UPWARD FLUX   DIFDOWN FLUX  DIRDOWN FLUX  DOWNWARD FLUX   NET FLUX    HEATING RATE
          mb          W/m2          W/m2          W/m2        W/m2          W/m2       degree/day
  51    .06700        0.0051        0.0000        0.8267        0.8267       0.821528       0.00000
  50    .07753        0.0051        0.0001        0.8242        0.8243       0.819196       1.86936
  49    .09103        0.0050        0.0002        0.8207        0.8209       0.815872       2.07705
  48    0.1069        0.0049        0.0002        0.8162        0.8164       0.811514       2.31984
  47    0.1255        0.0048        0.0004        0.8103        0.8106       0.805801       2.59006
  46    0.1487        0.0047        0.0005        0.8018        0.8023       0.797567       3.00143
  45    0.1794        0.0045        0.0007        0.7889        0.7896       0.785013       3.44648
  44    0.2165        0.0044        0.0009        0.7720        0.7729       0.768507       3.75474
  43    0.2613        0.0042        0.0011        0.7500        0.7511       0.746955       4.06246
  42    0.3336        0.0039        0.0015        0.7106        0.7121       0.708267       4.51071
  41    0.4307        0.0035        0.0019        0.6566        0.6584       0.654972       4.63387
  40    0.5894        0.0029        0.0024        0.5680        0.5704       0.567464       4.65357
  39     1.339        0.0015        0.0030        0.2422        0.2452       0.243720       3.64476
  38     1.782        0.0010        0.0026        0.1493        0.1519       0.150889       1.76735
  37     2.292        0.0007        0.0022        0.0924        0.0946       0.093932       0.94336
  36     2.964        0.0005        0.0018        0.0539        0.0557       0.055224       0.48589
  35     3.853        0.0003        0.0013        0.0295        0.0308       0.030502       0.23462
  34     5.035        0.0002        0.0010        0.0154        0.0164       0.016181       0.10230
  33     6.613        0.0001        0.0007        0.0073        0.0080       0.007912       0.04420
  32     8.786        0.0000        0.0004        0.0030        0.0034       0.003390       0.01756
  31     11.80        0.0000        0.0003        0.0010        0.0012       0.001199       0.00613
  30     15.07        0.0000        0.0001        0.0003        0.0005       0.000463       0.00190
  29     18.79        0.0000        0.0001        0.0001        0.0002       0.000182       0.00064
  28     23.16        0.0000        0.0000        0.0000        0.0001       0.000071       0.00022
  27     28.12        0.0000        0.0000        0.0000        0.0000       0.000028       0.00007
  26     33.73        0.0000        0.0000        0.0000        0.0000       0.000011       0.00002
  25     40.54        0.0000        0.0000        0.0000        0.0000       0.000005       0.00001
  24     48.69        0.0000        0.0000        0.0000        0.0000       0.000002       0.00000
  23     57.69        0.0000        0.0000        0.0000        0.0000       0.000001       0.00000
  22     68.43        0.0000        0.0000        0.0000        0.0000       0.000000       0.00000
  21     81.20        0.0000        0.0000        0.0000        0.0000       0.000000       0.00000
  20     96.49        0.0000        0.0000        0.0000        0.0000       0.000000       0.00000
  19     114.6        0.0000        0.0000        0.0000        0.0000       0.000000       0.00000
  18     136.5        0.0000        0.0000        0.0000        0.0000       0.000000       0.00000
  17     162.9        0.0000        0.0000        0.0000        0.0000       0.000000       0.00000
  16     196.4        0.0000        0.0000        0.0000        0.0000       0.000000       0.00000
  15     218.7        0.0000        0.0000        0.0000        0.0000       0.000000       0.00000
  14     243.0        0.0000        0.0000        0.0000        0.0000       0.000000       0.00000
  13     269.0        0.0000        0.0000        0.0000        0.0000       0.000000       0.00000
  12     297.5        0.0000        0.0000        0.0000        0.0000       0.000000       0.00000
  11     328.5        0.0000        0.0000        0.0000        0.0000       0.000000       0.00000
  10     361.9        0.0000        0.0000        0.0000        0.0000       0.000000       0.00000
   9     398.1        0.0000        0.0000        0.0000        0.0000       0.000000       0.00000
   8     437.6        0.0000        0.0000        0.0000        0.0000       0.000000       0.00000
   7     480.5        0.0000        0.0000        0.0000        0.0000       0.000000       0.00000
   6     533.0        0.0000        0.0000        0.0000        0.0000       0.000000       0.00000
   5     589.8        0.0000        0.0000        0.0000        0.0000       0.000000       0.00000
   4     651.6        0.0000        0.0000        0.0000        0.0000       0.000000       0.00000
   3     718.7        0.0000        0.0000        0.0000        0.0000       0.000000       0.00000
   2     792.3        0.0000        0.0000        0.0000        0.0000       0.000000       0.00000
   1     891.5        0.0000        0.0000        0.0000        0.0000       0.000000       0.00000
   0    1013.0        0.0000        0.0000        0.0000        0.0000       0.000000       0.00000



 Wavenumbers:   820. -  2600. cm-1, ATM      1
 LEVEL PRESSURE   UPWARD FLUX   DIFDOWN FLUX  DIRDOWN FLUX  DOWNWARD FLUX   NET FLUX    HEATING RATE
          mb          W/m2          W/m2          W/m2        W/m2          W/m2       degree/day
  51    .06700        0.4513        0.0000        3.8670        3.8670       3.415705       0.00000
  50    .07753        0.4513        0.0000        3.8643        3.8643       3.412988       2.17770
  49    .09103        0.4513        0.0000        3.8635        3.8635       3.412177       0.50639
  48    0.1069        0.4513        0.0000        3.8626        3.8626       3.411287       0.47416
  47    0.1255        0.4513        0.0000        3.8616        3.8616       3.410326       0.43560
  46    0.1487        0.4513        0.0000        3.8605        3.8605       3.409216       0.40438
  45    0.1794        0.4513        0.0000        3.8592        3.8592       3.407881       0.36648
  44    0.2165        0.4513        0.0000        3.8578        3.8578       3.406503       0.31347
  43    0.2613        0.4513        0.0000        3.8564        3.8564       3.405043       0.27523
  42    0.3336        0.4513        0.0000        3.8541        3.8541       3.402812       0.26013
  41    0.4307        0.4513        0.0000        3.8512        3.8512       3.399930       0.25064
  40    0.5894        0.4513        0.0000        3.8465        3.8465       3.395203       0.25134
  39     1.339        0.4513        0.0000        3.8251        3.8251       3.373827       0.24065
  38     1.782        0.4513        0.0000        3.8133        3.8133       3.362014       0.22490
  37     2.292        0.4513        0.0000        3.8003        3.8003       3.348952       0.21634
  36     2.964        0.4513        0.0000        3.7841        3.7841       3.332823       0.20248
  35     3.853        0.4513        0.0000        3.7642        3.7642       3.312907       0.18900
  34     5.035        0.4513        0.0000        3.7395        3.7395       3.288215       0.17639
  33     6.613        0.4513        0.0000        3.7090        3.7090       3.257677       0.16325
  32     8.786        0.4513        0.0000        3.6726        3.6726       3.221282       0.14135
  31     11.80        0.4513        0.0000        3.6320        3.6320       3.180684       0.11366
  30     15.07        0.4513        0.0000        3.6016        3.6016       3.150296       0.07846
  29     18.79        0.4513        0.0000        3.5777        3.5777       3.126394       0.05419
  28     23.16        0.4514        0.0000        3.5564        3.5564       3.105035       0.04130
  27     28.12        0.4514        0.0000        3.5348        3.5348       3.083483       0.03664
  26     33.73        0.4514        0.0000        3.5118        3.5118       3.060443       0.03464
  25     40.54        0.4514        0.0000        3.4849        3.4849       3.033546       0.03337
  24     48.69        0.4514        0.0000        3.4537        3.4537       3.002283       0.03235
  23     57.69        0.4514        0.0000        3.4210        3.4210       2.969598       0.03064
  22     68.43        0.4514        0.0000        3.3844        3.3844       2.932997       0.02877
  21     81.20        0.4515        0.0000        3.3441        3.3441       2.892681       0.02664
  20     96.49        0.4515        0.0000        3.2998        3.2998       2.848294       0.02450
  19     114.6        0.4515        0.0000        3.2506        3.2506       2.799118       0.02296
  18     136.5        0.4516        0.0000        3.1936        3.1936       2.742029       0.02195
  17     162.9        0.4517        0.0000        3.1181        3.1181       2.666457       0.02416
  16     196.4        0.4518        0.0000        3.0090        3.0090       2.557135       0.02752
  15     218.7        0.4520        0.0000        2.9420        2.9420       2.490031       0.02548
  14     243.0        0.4522        0.0000        2.8605        2.8605       2.408322       0.02834
  13     269.0        0.4525        0.0000        2.7419        2.7420       2.289493       0.03855
  12     297.5        0.4530        0.0000        2.5729        2.5729       2.119877       0.05031
  11     328.5        0.4539        0.0000        2.3602        2.3602       1.906342       0.05806
  10     361.9        0.4552        0.0000        2.1524        2.1524       1.697278       0.05290
   9     398.1        0.4570        0.0000        1.9974        1.9974       1.540424       0.03654
   8     437.6        0.4596        0.0000        1.8835        1.8835       1.423929       0.02491
   7     480.5        0.4633        0.0000        1.7734        1.7734       1.310142       0.02235
   6     533.0        0.4694        0.0000        1.6397        1.6398       1.170356       0.02249
   5     589.8        0.4782        0.0000        1.5068        1.5069       1.028684       0.02103
   4     651.6        0.4911        0.0000        1.3807        1.3807       0.889588       0.01902
   3     718.7        0.5084        0.0000        1.2680        1.2681       0.759615       0.01633
   2     792.3        0.5300        0.0000        1.1659        1.1660       0.635976       0.01418
   1     891.5        0.1448        0.4069        0.2640        0.6709       0.526094       0.00935
   0    1013.0        0.1596        0.3667        0.2218        0.5886       0.428971       0.00674

  Modules and versions used in this calculation:

       rrtmg_sw.1col.f90:  $Revision$                    rrtmg_sw_init.f90:  $Revision$        
     rrtmgsw_cldprop.f90:  $Revision$                  rrtmgsw_cldprmc.f90:  NOT USED          
     rrtmg_sw_reftra.f90:  $Revision$                  rrtmg_sw_spcvrt.f90:  NOT USED          
     rrtmg_sw_spcvmc.f90:  NOT USED                    rrtmgsw_setcoef.f90:  NOT USED          
     rrtmg_sw_taumol.f90:  $Revision$                  rrtmg_sw_vrtqdr.f90:  NOT USED          
                rrtatm.f:  NOT USED                             util_xxx.f:  NOT USED          
                 extra.f:  NOT USED                       rrtmg_sw_k_g.f90:  $Revision$        

