

 Wavenumbers:   820. - 50000. cm-1, ATM      1
 LEVEL PRESSURE   UPWARD FLUX   DIFDOWN FLUX  DIRDOWN FLUX  DOWNWARD FLUX   NET FLUX    HEATING RATE
          mb          W/m2          W/m2          W/m2        W/m2          W/m2       degree/day
  51    .06700      201.5880        0.0000      397.8738      397.8738     196.285830       0.00000
  50    .07753      201.5873        0.0012      397.8577      397.8589     196.271546      11.44920
  49    .09103      201.5866        0.0026      397.8418      397.8444     196.257867       8.54966
  48    0.1069      201.5857        0.0043      397.8230      397.8272     196.241532       8.69532
  47    0.1255      201.5847        0.0062      397.7997      397.8058     196.221106       9.26009
  46    0.1487      201.5835        0.0086      397.7676      397.7762     196.192673      10.36406
  45    0.1794      201.5819        0.0118      397.7205      397.7324     196.150420      11.59961
  44    0.2165      201.5801        0.0157      397.6602      397.6759     196.095823      12.41969
  43    0.2613      201.5781        0.0203      397.5829      397.6032     196.025097      13.33165
  42    0.3336      201.5749        0.0278      397.4449      397.4726     195.897792      14.84252
  41    0.4307      201.5708        0.0376      397.2524      397.2900     195.719124      15.53475
  40    0.5894      201.5649        0.0534      396.9253      396.9787     195.413790      16.23726
  39     1.339      201.5474        0.1239      395.4254      395.5493     194.001868      15.89568
  38     1.782      201.5442        0.1635      394.7288      394.8922     193.348001      12.44858
  37     2.292      201.5467        0.2084      394.0572      394.2656     192.718858      10.42025
  36     2.964      201.5592        0.2668      393.3007      393.5675     192.008296       8.91971
  35     3.853      201.5884        0.3431      392.4318      392.7749     191.186521       7.79879
  34     5.035      201.6397        0.4434      391.4441      391.8875     190.247781       6.70597
  33     6.613      201.7153        0.5764      390.3268      390.9031     189.187770       5.66682
  32     8.786      201.8124        0.7541      389.0624      389.8165     188.004157       4.59673
  31     11.80      201.9300        1.0063      387.5500      388.5563     186.626274       3.85764
  30     15.07      202.0317        1.2749      386.1556      387.4305     185.398792       3.16912
  29     18.79      202.1245        1.5758      384.7502      386.3260     184.201468       2.71470
  28     23.16      202.2076        1.9244      383.2686      385.1930     182.985420       2.35144
  27     28.12      202.2730        2.3197      381.7329      384.0526     181.779630       2.04976
  26     33.73      202.3026        2.7588      380.1982      382.9570     180.654354       1.69188
  25     40.54      202.2881        3.2853      378.5384      381.8237     179.535615       1.38792
  24     48.69      202.2223        3.9143      376.7214      380.6357     178.413359       1.16136
  23     57.69      202.1040        4.5985      374.8959      379.4944     177.390319       0.95895
  22     68.43      201.9138        5.4049      372.8999      378.3048     176.391027       0.78558
  21     81.20      201.6189        6.3551      370.7496      377.1047     175.485830       0.59814
  20     96.49      201.2063        7.4727      368.4056      375.8783     174.671999       0.44918
  19     114.6      200.6973        8.7775      365.7513      374.5287     173.831457       0.39247
  18     136.5      200.0821       10.2922      362.7231      373.0153     172.933177       0.34541
  17     162.9      199.3445       12.0520      359.1748      371.2267     171.882242       0.33592
  16     196.4      198.3662       14.2693      354.5718      368.8411     170.474943       0.35423
  15     218.7      197.7217       15.6865      351.4437      367.1302     169.408514       0.40488
  14     243.0      197.0270       17.1932      347.7111      364.9043     167.877313       0.53107
  13     269.0      196.2829       18.7873      342.9441      361.7314     165.448475       0.78790
  12     297.5      195.4913       20.4664      337.4137      357.8801     162.388787       0.90747
  11     328.5      194.6571       22.2319      331.1302      353.3622     158.705114       1.00158
  10     361.9      193.7857       24.0783      324.1219      348.2002     154.414437       1.08558
   9     398.1      192.8818       26.0044      316.6066      342.6110     149.729235       1.09155
   8     437.6      191.9563       28.0056      308.5895      336.5951     144.638752       1.08838
   7     480.5      191.0289       30.0757      299.9349      330.0106     138.981674       1.11103
   6     533.0      189.9884       32.5242      289.7021      322.2264     132.237962       1.08485
   5     589.8      189.0059       35.0473      279.3388      314.3861     125.380158       1.01792
   4     651.6      188.1438       37.6323      268.7786      306.4109     118.267051       0.97274
   3     718.7      187.4490       40.2696      258.2837      298.5533     111.104287       0.90016
   2     792.3      186.9803       42.9449      248.0774      291.0223     104.042024       0.80996
   1     891.5      120.4399      133.4576       84.4116      217.8692      97.429290       0.56271
   0    1013.0      120.2894      132.6127       79.3767      211.9894      91.699993       0.39781



 Wavenumbers:  2600. -  3250. cm-1, ATM      1
 LEVEL PRESSURE   UPWARD FLUX   DIFDOWN FLUX  DIRDOWN FLUX  DOWNWARD FLUX   NET FLUX    HEATING RATE
          mb          W/m2          W/m2          W/m2        W/m2          W/m2       degree/day
  51    .06700        0.5533        0.0000        3.5066        3.5066       2.953348       0.00000
  50    .07753        0.5533        0.0000        3.5066        3.5066       2.953340       0.00640
  49    .09103        0.5533        0.0000        3.5066        3.5066       2.953330       0.00627
  48    0.1069        0.5533        0.0000        3.5066        3.5066       2.953319       0.00613
  47    0.1255        0.5533        0.0000        3.5066        3.5066       2.953306       0.00599
  46    0.1487        0.5533        0.0000        3.5066        3.5066       2.953289       0.00607
  45    0.1794        0.5533        0.0000        3.5065        3.5065       2.953266       0.00624
  44    0.2165        0.5533        0.0000        3.5065        3.5065       2.953239       0.00611
  43    0.2613        0.5533        0.0000        3.5065        3.5065       2.953208       0.00598
  42    0.3336        0.5533        0.0000        3.5064        3.5064       2.953155       0.00615
  41    0.4307        0.5533        0.0000        3.5064        3.5064       2.953084       0.00618
  40    0.5894        0.5533        0.0000        3.5062        3.5062       2.952965       0.00633
  39     1.339        0.5533        0.0000        3.5055        3.5055       2.952266       0.00787
  38     1.782        0.5533        0.0000        3.5050        3.5050       2.951735       0.01011
  37     2.292        0.5533        0.0000        3.5043        3.5043       2.951043       0.01147
  36     2.964        0.5533        0.0000        3.5033        3.5033       2.950051       0.01245
  35     3.853        0.5533        0.0000        3.5019        3.5019       2.948674       0.01307
  34     5.035        0.5533        0.0000        3.5001        3.5001       2.946813       0.01329
  33     6.613        0.5533        0.0000        3.4977        3.4977       2.944403       0.01288
  32     8.786        0.5533        0.0000        3.4947        3.4947       2.941432       0.01154
  31     11.80        0.5533        0.0000        3.4911        3.4911       2.937797       0.01018
  30     15.07        0.5533        0.0000        3.4878        3.4878       2.934576       0.00832
  29     18.79        0.5533        0.0000        3.4848        3.4848       2.931512       0.00695
  28     23.16        0.5533        0.0000        3.4816        3.4816       2.928291       0.00623
  27     28.12        0.5533        0.0000        3.4779        3.4779       2.924672       0.00615
  26     33.73        0.5533        0.0000        3.4735        3.4735       2.920204       0.00672
  25     40.54        0.5533        0.0000        3.4671        3.4671       2.913876       0.00785
  24     48.69        0.5533        0.0000        3.4582        3.4583       2.904977       0.00921
  23     57.69        0.5533        0.0000        3.4472        3.4472       2.893924       0.01036
  22     68.43        0.5533        0.0000        3.4329        3.4329       2.879656       0.01122
  21     81.20        0.5533        0.0000        3.4152        3.4152       2.861917       0.01172
  20     96.49        0.5533        0.0000        3.3940        3.3941       2.840757       0.01168
  19     114.6        0.5534        0.0000        3.3692        3.3692       2.815845       0.01163
  18     136.5        0.5534        0.0001        3.3419        3.3420       2.788594       0.01048
  17     162.9        0.5535        0.0001        3.3129        3.3129       2.759470       0.00931
  16     196.4        0.5536        0.0001        3.2793        3.2794       2.725805       0.00847
  15     218.7        0.5537        0.0001        3.2578        3.2578       2.704098       0.00824
  14     243.0        0.5540        0.0001        3.2320        3.2321       2.678084       0.00902
  13     269.0        0.5543        0.0001        3.1968        3.1969       2.642604       0.01151
  12     297.5        0.5549        0.0001        3.1489        3.1491       2.594165       0.01437
  11     328.5        0.5557        0.0001        3.0821        3.0822       2.526440       0.01841
  10     361.9        0.5570        0.0001        2.9902        2.9904       2.433376       0.02355
   9     398.1        0.5588        0.0001        2.8715        2.8716       2.312837       0.02808
   8     437.6        0.5614        0.0001        2.7276        2.7278       2.166426       0.03130
   7     480.5        0.5652        0.0002        2.5595        2.5597       1.994441       0.03378
   6     533.0        0.5717        0.0002        2.3617        2.3619       1.790184       0.03286
   5     589.8        0.5812        0.0002        2.1649        2.1651       1.583890       0.03062
   4     651.6        0.5952        0.0002        1.9608        1.9609       1.365739       0.02983
   3     718.7        0.6150        0.0002        1.7593        1.7595       1.144540       0.02780
   2     792.3        0.6421        0.0002        1.5761        1.5762       0.934148       0.02413
   1     891.5        0.2145        0.4753        0.4915        0.9668       0.752308       0.01547
   0    1013.0        0.2339        0.4279        0.4152        0.8430       0.609134       0.00994



 Wavenumbers:  3250. -  4000. cm-1, ATM      1
 LEVEL PRESSURE   UPWARD FLUX   DIFDOWN FLUX  DIRDOWN FLUX  DOWNWARD FLUX   NET FLUX    HEATING RATE
          mb          W/m2          W/m2          W/m2        W/m2          W/m2       degree/day
  51    .06700        0.0027        0.0000        5.9117        5.9117       5.909002       0.00000
  50    .07753        0.0027        0.0000        5.9075        5.9075       5.904812       3.35808
  49    .09103        0.0027        0.0000        5.9050        5.9050       5.902370       1.52677
  48    0.1069        0.0027        0.0000        5.9032        5.9032       5.900503       0.99346
  47    0.1255        0.0027        0.0000        5.9014        5.9014       5.898745       0.79708
  46    0.1487        0.0027        0.0000        5.8995        5.8995       5.896856       0.68848
  45    0.1794        0.0027        0.0000        5.8974        5.8974       5.894708       0.58983
  44    0.2165        0.0027        0.0000        5.8952        5.8952       5.892591       0.48155
  43    0.2613        0.0027        0.0000        5.8931        5.8931       5.890432       0.40696
  42    0.3336        0.0027        0.0000        5.8899        5.8899       5.887274       0.36820
  41    0.4307        0.0027        0.0000        5.8861        5.8861       5.883437       0.33365
  40    0.5894        0.0027        0.0000        5.8803        5.8803       5.877634       0.30857
  39     1.339        0.0027        0.0000        5.8597        5.8597       5.857037       0.23189
  38     1.782        0.0027        0.0000        5.8513        5.8513       5.848612       0.16039
  37     2.292        0.0026        0.0000        5.8431        5.8431       5.840441       0.13533
  36     2.964        0.0026        0.0000        5.8334        5.8334       5.830801       0.12100
  35     3.853        0.0026        0.0000        5.8213        5.8213       5.818626       0.11555
  34     5.035        0.0026        0.0000        5.8052        5.8052       5.802531       0.11498
  33     6.613        0.0026        0.0000        5.7833        5.7834       5.780709       0.11666
  32     8.786        0.0026        0.0000        5.7531        5.7531       5.750508       0.11729
  31     11.80        0.0026        0.0000        5.7090        5.7090       5.706339       0.12366
  30     15.07        0.0026        0.0000        5.6615        5.6615       5.658874       0.12254
  29     18.79        0.0026        0.0000        5.6093        5.6094       5.606739       0.11821
  28     23.16        0.0026        0.0000        5.5524        5.5524       5.549813       0.11008
  27     28.12        0.0026        0.0000        5.4935        5.4935       5.490934       0.10009
  26     33.73        0.0026        0.0000        5.4348        5.4349       5.432245       0.08824
  25     40.54        0.0026        0.0001        5.3707        5.3708       5.368184       0.07948
  24     48.69        0.0026        0.0001        5.2985        5.2985       5.295951       0.07475
  23     57.69        0.0026        0.0001        5.2215        5.2216       5.219012       0.07212
  22     68.43        0.0026        0.0001        5.1318        5.1319       5.129351       0.07048
  21     81.20        0.0025        0.0001        5.0284        5.0285       5.025922       0.06834
  20     96.49        0.0025        0.0001        4.9122        4.9123       4.909788       0.06410
  19     114.6        0.0025        0.0001        4.7780        4.7782       4.775677       0.06262
  18     136.5        0.0025        0.0002        4.6285        4.6287       4.626199       0.05748
  17     162.9        0.0025        0.0002        4.4406        4.4407       4.438286       0.06006
  16     196.4        0.0024        0.0002        4.1548        4.1550       4.152612       0.07191
  15     218.7        0.0024        0.0002        3.9564        3.9566       3.954231       0.07532
  14     243.0        0.0024        0.0002        3.7055        3.7058       3.703395       0.08700
  13     269.0        0.0024        0.0002        3.3399        3.3401       3.337753       0.11861
  12     297.5        0.0023        0.0002        2.8954        2.8956       2.893258       0.13183
  11     328.5        0.0023        0.0002        2.4388        2.4390       2.436704       0.12414
  10     361.9        0.0024        0.0002        2.0269        2.0271       2.024742       0.10423
   9     398.1        0.0024        0.0002        1.6753        1.6755       1.673112       0.08192
   8     437.6        0.0024        0.0002        1.3592        1.3594       1.356921       0.06760
   7     480.5        0.0026        0.0002        1.0616        1.0618       1.059207       0.05847
   6     533.0        0.0028        0.0001        0.7543        0.7544       0.751603       0.04948
   5     589.8        0.0033        0.0001        0.4951        0.4952       0.491913       0.03855
   4     651.6        0.0043        0.0001        0.2943        0.2943       0.290047       0.02761
   3     718.7        0.0062        0.0001        0.1528        0.1529       0.146644       0.01802
   2     792.3        0.0101        0.0000        0.0658        0.0658       0.055699       0.01043
   1     891.5        0.0001        0.0067        0.0056        0.0123       0.012167       0.00370
   0    1013.0        0.0005        0.0016        0.0005        0.0021       0.001524       0.00074



 Wavenumbers:  4000. -  4650. cm-1, ATM      1
 LEVEL PRESSURE   UPWARD FLUX   DIFDOWN FLUX  DIRDOWN FLUX  DOWNWARD FLUX   NET FLUX    HEATING RATE
          mb          W/m2          W/m2          W/m2        W/m2          W/m2       degree/day
  51    .06700        2.0954        0.0000        6.9421        6.9421       4.846670       0.00000
  50    .07753        2.0954        0.0000        6.9421        6.9421       4.846669       0.00079
  49    .09103        2.0954        0.0000        6.9421        6.9421       4.846668       0.00078
  48    0.1069        2.0954        0.0000        6.9421        6.9421       4.846666       0.00076
  47    0.1255        2.0954        0.0000        6.9421        6.9421       4.846665       0.00074
  46    0.1487        2.0954        0.0000        6.9421        6.9421       4.846663       0.00075
  45    0.1794        2.0954        0.0000        6.9421        6.9421       4.846660       0.00077
  44    0.2165        2.0954        0.0000        6.9421        6.9421       4.846656       0.00076
  43    0.2613        2.0954        0.0000        6.9420        6.9420       4.846652       0.00074
  42    0.3336        2.0954        0.0000        6.9420        6.9420       4.846646       0.00076
  41    0.4307        2.0954        0.0000        6.9420        6.9420       4.846637       0.00077
  40    0.5894        2.0954        0.0000        6.9420        6.9420       4.846622       0.00079
  39     1.339        2.0954        0.0000        6.9419        6.9419       4.846533       0.00100
  38     1.782        2.0954        0.0000        6.9418        6.9419       4.846464       0.00132
  37     2.292        2.0954        0.0000        6.9418        6.9418       4.846370       0.00155
  36     2.964        2.0954        0.0000        6.9416        6.9416       4.846231       0.00175
  35     3.853        2.0954        0.0000        6.9414        6.9414       4.846024       0.00196
  34     5.035        2.0954        0.0000        6.9411        6.9411       4.845720       0.00218
  33     6.613        2.0954        0.0000        6.9406        6.9407       4.845272       0.00239
  32     8.786        2.0954        0.0000        6.9399        6.9400       4.844612       0.00256
  31     11.80        2.0954        0.0000        6.9389        6.9389       4.843577       0.00290
  30     15.07        2.0954        0.0001        6.9377        6.9377       4.842366       0.00313
  29     18.79        2.0953        0.0001        6.9362        6.9363       4.840907       0.00331
  28     23.16        2.0953        0.0001        6.9343        6.9344       4.839103       0.00349
  27     28.12        2.0953        0.0001        6.9321        6.9323       4.836928       0.00370
  26     33.73        2.0953        0.0001        6.9294        6.9296       4.834258       0.00401
  25     40.54        2.0953        0.0002        6.9258        6.9260       4.830659       0.00447
  24     48.69        2.0953        0.0002        6.9210        6.9212       4.825894       0.00493
  23     57.69        2.0953        0.0002        6.9154        6.9156       4.820287       0.00526
  22     68.43        2.0953        0.0003        6.9083        6.9086       4.813315       0.00548
  21     81.20        2.0953        0.0003        6.8998        6.9001       4.804787       0.00563
  20     96.49        2.0953        0.0004        6.8894        6.8898       4.794485       0.00569
  19     114.6        2.0954        0.0005        6.8765        6.8770       4.781581       0.00602
  18     136.5        2.0955        0.0005        6.8610        6.8615       4.766007       0.00599
  17     162.9        2.0957        0.0006        6.8417        6.8423       4.746619       0.00620
  16     196.4        2.0960        0.0008        6.8147        6.8154       4.719397       0.00685
  15     218.7        2.0964        0.0009        6.7948        6.7957       4.699329       0.00762
  14     243.0        2.0969        0.0009        6.7698        6.7707       4.673856       0.00883
  13     269.0        2.0977        0.0010        6.7349        6.7359       4.638195       0.01157
  12     297.5        2.0990        0.0012        6.6869        6.6880       4.589032       0.01458
  11     328.5        2.1008        0.0013        6.6194        6.6206       4.519834       0.01881
  10     361.9        2.1032        0.0014        6.5295        6.5308       4.427621       0.02333
   9     398.1        2.1064        0.0015        6.4202        6.4217       4.315298       0.02617
   8     437.6        2.1107        0.0016        6.2962        6.2978       4.187112       0.02741
   7     480.5        2.1166        0.0018        6.1555        6.1572       4.040655       0.02876
   6     533.0        2.1262        0.0019        5.9675        5.9694       3.843216       0.03176
   5     589.8        2.1403        0.0021        5.7368        5.7388       3.598483       0.03633
   4     651.6        2.1612        0.0022        5.4662        5.4684       3.307246       0.03983
   3     718.7        2.1905        0.0023        5.1912        5.1935       3.002995       0.03824
   2     792.3        2.2301        0.0025        4.9395        4.9419       2.711799       0.03340
   1     891.5        0.8267        1.6121        1.6659        3.2781       2.451325       0.02217
   0    1013.0        0.8581        1.5401        1.5474        3.0875       2.229443       0.01541



 Wavenumbers:  4650. -  5150. cm-1, ATM      1
 LEVEL PRESSURE   UPWARD FLUX   DIFDOWN FLUX  DIRDOWN FLUX  DOWNWARD FLUX   NET FLUX    HEATING RATE
          mb          W/m2          W/m2          W/m2        W/m2          W/m2       degree/day
  51    .06700        1.4494        0.0000        6.5710        6.5710       5.121614       0.00000
  50    .07753        1.4494        0.0000        6.5708        6.5708       5.121378       0.18887
  49    .09103        1.4494        0.0000        6.5705        6.5705       5.121085       0.18362
  48    0.1069        1.4494        0.0000        6.5701        6.5701       5.120750       0.17806
  47    0.1255        1.4494        0.0000        6.5697        6.5697       5.120370       0.17238
  46    0.1487        1.4494        0.0000        6.5693        6.5693       5.119896       0.17268
  45    0.1794        1.4494        0.0000        6.5686        6.5686       5.119260       0.17473
  44    0.2165        1.4494        0.0000        6.5679        6.5679       5.118522       0.16788
  43    0.2613        1.4494        0.0000        6.5670        6.5670       5.117669       0.16078
  42    0.3336        1.4494        0.0000        6.5657        6.5657       5.116306       0.15894
  41    0.4307        1.4494        0.0000        6.5640        6.5640       5.114584       0.14971
  40    0.5894        1.4494        0.0000        6.5613        6.5613       5.111967       0.13913
  39     1.339        1.4494        0.0000        6.5516        6.5516       5.102190       0.11008
  38     1.782        1.4494        0.0000        6.5473        6.5473       5.097974       0.08026
  37     2.292        1.4494        0.0000        6.5434        6.5435       5.094087       0.06438
  36     2.964        1.4494        0.0000        6.5395        6.5395       5.090132       0.04964
  35     3.853        1.4494        0.0000        6.5355        6.5356       5.086189       0.03742
  34     5.035        1.4494        0.0000        6.5315        6.5315       5.082186       0.02859
  33     6.613        1.4494        0.0000        6.5271        6.5271       5.077791       0.02350
  32     8.786        1.4493        0.0001        6.5216        6.5216       5.072294       0.02135
  31     11.80        1.4493        0.0001        6.5135        6.5135       5.064212       0.02263
  30     15.07        1.4493        0.0001        6.5041        6.5042       5.054839       0.02420
  29     18.79        1.4493        0.0001        6.4925        6.4926       5.043317       0.02612
  28     23.16        1.4493        0.0001        6.4779        6.4780       5.028716       0.02823
  27     28.12        1.4493        0.0002        6.4599        6.4600       5.010729       0.03058
  26     33.73        1.4493        0.0002        6.4384        6.4386       4.989282       0.03225
  25     40.54        1.4493        0.0002        6.4112        6.4115       4.962134       0.03368
  24     48.69        1.4493        0.0003        6.3775        6.3778       4.928466       0.03484
  23     57.69        1.4494        0.0003        6.3404        6.3407       4.891335       0.03480
  22     68.43        1.4494        0.0004        6.2971        6.2975       4.848091       0.03400
  21     81.20        1.4495        0.0005        6.2483        6.2487       4.799202       0.03231
  20     96.49        1.4497        0.0006        6.1948        6.1954       4.745730       0.02951
  19     114.6        1.4498        0.0007        6.1381        6.1388       4.688956       0.02651
  18     136.5        1.4501        0.0008        6.0790        6.0798       4.629656       0.02280
  17     162.9        1.4505        0.0009        6.0160        6.0170       4.566430       0.02021
  16     196.4        1.4512        0.0011        5.9399        5.9410       4.489774       0.01930
  15     218.7        1.4517        0.0012        5.8896        5.8908       4.439109       0.01924
  14     243.0        1.4525        0.0013        5.8322        5.8335       4.381051       0.02014
  13     269.0        1.4535        0.0015        5.7624        5.7639       4.310325       0.02294
  12     297.5        1.4551        0.0016        5.6767        5.6783       4.223238       0.02583
  11     328.5        1.4572        0.0017        5.5726        5.5743       4.117100       0.02886
  10     361.9        1.4602        0.0019        5.4473        5.4492       3.989059       0.03240
   9     398.1        1.4641        0.0020        5.2995        5.3015       3.837424       0.03533
   8     437.6        1.4694        0.0022        5.1275        5.1297       3.660251       0.03788
   7     480.5        1.4767        0.0023        4.9290        4.9313       3.454645       0.04038
   6     533.0        1.4881        0.0025        4.6794        4.6819       3.193721       0.04197
   5     589.8        1.5042        0.0026        4.4188        4.4214       2.917188       0.04105
   4     651.6        1.5270        0.0028        4.1521        4.1549       2.627832       0.03957
   3     718.7        1.5580        0.0029        3.8929        3.8959       2.337833       0.03644
   2     792.3        1.5993        0.0030        3.6469        3.6499       2.050659       0.03294
   1     891.5        0.5774        1.1646        1.2018        2.3664       1.788981       0.02227
   0    1013.0        0.6068        1.0958        1.0889        2.1847       1.577895       0.01466



 Wavenumbers:  5150. -  6150. cm-1, ATM      1
 LEVEL PRESSURE   UPWARD FLUX   DIFDOWN FLUX  DIRDOWN FLUX  DOWNWARD FLUX   NET FLUX    HEATING RATE
          mb          W/m2          W/m2          W/m2        W/m2          W/m2       degree/day
  51    .06700        3.6890        0.0000       16.4735       16.4735      12.784553       0.00000
  50    .07753        3.6890        0.0000       16.4735       16.4735      12.784519       0.02762
  49    .09103        3.6890        0.0000       16.4734       16.4734      12.784474       0.02812
  48    0.1069        3.6890        0.0000       16.4734       16.4734      12.784420       0.02860
  47    0.1255        3.6890        0.0000       16.4733       16.4733      12.784356       0.02905
  46    0.1487        3.6890        0.0000       16.4732       16.4732      12.784272       0.03061
  45    0.1794        3.6890        0.0000       16.4731       16.4731      12.784153       0.03270
  44    0.2165        3.6890        0.0000       16.4730       16.4730      12.784006       0.03332
  43    0.2613        3.6890        0.0000       16.4728       16.4728      12.783827       0.03377
  42    0.3336        3.6889        0.0000       16.4725       16.4725      12.783521       0.03565
  41    0.4307        3.6889        0.0000       16.4720       16.4720      12.783102       0.03646
  40    0.5894        3.6889        0.0000       16.4713       16.4713      12.782401       0.03730
  39     1.339        3.6889        0.0000       16.4679       16.4679      12.778991       0.03839
  38     1.782        3.6889        0.0000       16.4659       16.4659      12.776990       0.03809
  37     2.292        3.6889        0.0001       16.4635       16.4636      12.774697       0.03797
  36     2.964        3.6889        0.0001       16.4605       16.4606      12.771726       0.03730
  35     3.853        3.6889        0.0001       16.4567       16.4568      12.767870       0.03660
  34     5.035        3.6889        0.0001       16.4516       16.4517      12.762868       0.03573
  33     6.613        3.6888        0.0002       16.4451       16.4452      12.756401       0.03457
  32     8.786        3.6888        0.0002       16.4367       16.4369      12.748079       0.03232
  31     11.80        3.6888        0.0003       16.4254       16.4257      12.736912       0.03126
  30     15.07        3.6887        0.0004       16.4141       16.4145      12.725807       0.02867
  29     18.79        3.6887        0.0005       16.4024       16.4029      12.714264       0.02617
  28     23.16        3.6886        0.0006       16.3900       16.3906      12.701975       0.02376
  27     28.12        3.6886        0.0008       16.3771       16.3779      12.689278       0.02159
  26     33.73        3.6885        0.0009       16.3641       16.3650      12.676509       0.01920
  25     40.54        3.6885        0.0011       16.3502       16.3513      12.662812       0.01699
  24     48.69        3.6884        0.0013       16.3354       16.3367      12.648262       0.01506
  23     57.69        3.6884        0.0016       16.3211       16.3226      12.634271       0.01311
  22     68.43        3.6883        0.0018       16.3062       16.3081      12.619768       0.01140
  21     81.20        3.6883        0.0022       16.2903       16.2925      12.604231       0.01027
  20     96.49        3.6882        0.0026       16.2726       16.2752      12.586980       0.00952
  19     114.6        3.6882        0.0031       16.2521       16.2552      12.566949       0.00935
  18     136.5        3.6882        0.0037       16.2245       16.2282      12.540021       0.01035
  17     162.9        3.6882        0.0044       16.1747       16.1791      12.490904       0.01570
  16     196.4        3.6882        0.0052       16.0518       16.0571      12.368842       0.03072
  15     218.7        3.6883        0.0058       15.8984       15.9042      12.215873       0.05808
  14     243.0        3.6884        0.0064       15.6153       15.6216      11.933189       0.09804
  13     269.0        3.6887        0.0069       15.1390       15.1459      11.457189       0.15441
  12     297.5        3.6892        0.0074       14.5779       14.5853      10.896111       0.16641
  11     328.5        3.6900        0.0079       13.8780       13.8859      10.195880       0.19039
  10     361.9        3.6914        0.0083       13.0814       13.0897       9.398373       0.20178
   9     398.1        3.6934        0.0087       12.2728       12.2815       8.588092       0.18878
   8     437.6        3.6966        0.0090       11.4776       11.4866       7.790014       0.17063
   7     480.5        3.7015        0.0093       10.7300       10.7393       7.037796       0.14773
   6     533.0        3.7104        0.0097       10.0326       10.0423       6.331947       0.11355
   5     589.8        3.7245        0.0102        9.5050        9.5153       5.790711       0.08034
   4     651.6        3.7473        0.0108        9.0814        9.0922       5.344948       0.06096
   3     718.7        3.7818        0.0115        8.7024        8.7140       4.932176       0.05187
   2     792.3        3.8321        0.0123        8.3379        8.3502       4.518092       0.04749
   1     891.5        1.4479        2.7552        2.8335        5.5887       4.140818       0.03210
   0    1013.0        1.4828        2.6558        2.6786        5.3345       3.851653       0.02008



 Wavenumbers:  6150. -  7700. cm-1, ATM      1
 LEVEL PRESSURE   UPWARD FLUX   DIFDOWN FLUX  DIRDOWN FLUX  DOWNWARD FLUX   NET FLUX    HEATING RATE
          mb          W/m2          W/m2          W/m2        W/m2          W/m2       degree/day
  51    .06700        5.6411        0.0000       30.4684       30.4684      24.827252       0.00000
  50    .07753        5.6411        0.0000       30.4683       30.4683      24.827200       0.04144
  49    .09103        5.6411        0.0000       30.4683       30.4683      24.827133       0.04174
  48    0.1069        5.6411        0.0000       30.4682       30.4682      24.827054       0.04202
  47    0.1255        5.6411        0.0000       30.4681       30.4681      24.826961       0.04227
  46    0.1487        5.6411        0.0000       30.4680       30.4680      24.826840       0.04411
  45    0.1794        5.6411        0.0000       30.4678       30.4678      24.826670       0.04669
  44    0.2165        5.6411        0.0000       30.4676       30.4676      24.826463       0.04715
  43    0.2613        5.6411        0.0000       30.4673       30.4673      24.826211       0.04744
  42    0.3336        5.6411        0.0000       30.4669       30.4669      24.825784       0.04974
  41    0.4307        5.6411        0.0000       30.4663       30.4663      24.825203       0.05052
  40    0.5894        5.6411        0.0001       30.4653       30.4653      24.824236       0.05146
  39     1.339        5.6410        0.0001       30.4604       30.4606      24.819552       0.05273
  38     1.782        5.6410        0.0002       30.4576       30.4578      24.816802       0.05235
  37     2.292        5.6409        0.0003       30.4543       30.4546      24.813644       0.05231
  36     2.964        5.6409        0.0003       30.4501       30.4504      24.809536       0.05156
  35     3.853        5.6408        0.0004       30.4445       30.4449      24.804179       0.05084
  34     5.035        5.6407        0.0006       30.4373       30.4378      24.797179       0.05000
  33     6.613        5.6405        0.0007       30.4278       30.4285      24.788032       0.04890
  32     8.786        5.6403        0.0010       30.4154       30.4164      24.776079       0.04642
  31     11.80        5.6400        0.0013       30.3984       30.3997      24.759693       0.04587
  30     15.07        5.6397        0.0017       30.3810       30.3827      24.742980       0.04315
  29     18.79        5.6393        0.0021       30.3623       30.3644      24.725079       0.04059
  28     23.16        5.6389        0.0026       30.3417       30.3443      24.705396       0.03806
  27     28.12        5.6384        0.0032       30.3196       30.3227      24.684295       0.03587
  26     33.73        5.6379        0.0038       30.2965       30.3003      24.662376       0.03296
  25     40.54        5.6373        0.0046       30.2708       30.2753      24.638038       0.03019
  24     48.69        5.6365        0.0055       30.2423       30.2478      24.611260       0.02771
  23     57.69        5.6357        0.0065       30.2139       30.2203      24.584693       0.02490
  22     68.43        5.6346        0.0077       30.1834       30.1911      24.556416       0.02223
  21     81.20        5.6334        0.0091       30.1500       30.1591      24.525684       0.02031
  20     96.49        5.6320        0.0108       30.1126       30.1235      24.491462       0.01889
  19     114.6        5.6303        0.0129       30.0695       30.0824      24.452071       0.01839
  18     136.5        5.6283        0.0153       30.0139       30.0292      24.400907       0.01967
  17     162.9        5.6259        0.0181       29.9225       29.9406      24.314708       0.02755
  16     196.4        5.6228        0.0218       29.7333       29.7551      24.132274       0.04592
  15     218.7        5.6209        0.0241       29.5259       29.5500      23.929093       0.07714
  14     243.0        5.6189        0.0266       29.1375       29.1640      23.545168       0.13316
  13     269.0        5.6170        0.0289       28.3800       28.4089      22.791957       0.24434
  12     297.5        5.6154        0.0311       27.3895       27.4207      21.805303       0.29263
  11     328.5        5.6144        0.0332       26.2257       26.2589      20.644541       0.31561
  10     361.9        5.6145        0.0352       24.8453       24.8805      19.265994       0.34879
   9     398.1        5.6163        0.0369       23.3471       23.3839      17.767636       0.34908
   8     437.6        5.6208        0.0383       21.7966       21.8350      16.214157       0.33214
   7     480.5        5.6301        0.0395       20.1977       20.2372      14.607126       0.31561
   6     533.0        5.6494        0.0407       18.4969       18.5376      12.888240       0.27651
   5     589.8        5.6826        0.0419       16.9754       17.0173      11.334681       0.23060
   4     651.6        5.7382        0.0431       15.6022       15.6452       9.907076       0.19523
   3     718.7        5.8239        0.0445       14.4232       14.4677       8.643768       0.15876
   2     792.3        5.9495        0.0461       13.4386       13.4847       7.535198       0.12714
   1     891.5        2.1679        4.3324        4.4353        8.7677       6.599760       0.07960
   0    1013.0        2.2590        4.0867        4.0474        8.1341       5.875099       0.05032



 Wavenumbers:  7700. -  8050. cm-1, ATM      1
 LEVEL PRESSURE   UPWARD FLUX   DIFDOWN FLUX  DIRDOWN FLUX  DOWNWARD FLUX   NET FLUX    HEATING RATE
          mb          W/m2          W/m2          W/m2        W/m2          W/m2       degree/day
  51    .06700        2.7719        0.0000        7.2006        7.2006       4.428722       0.00000
  50    .07753        2.7719        0.0000        7.2006        7.2006       4.428702       0.01566
  49    .09103        2.7719        0.0000        7.2005        7.2005       4.428678       0.01535
  48    0.1069        2.7719        0.0000        7.2005        7.2005       4.428650       0.01503
  47    0.1255        2.7719        0.0000        7.2005        7.2005       4.428617       0.01471
  46    0.1487        2.7719        0.0000        7.2004        7.2005       4.428576       0.01492
  45    0.1794        2.7719        0.0000        7.2004        7.2004       4.428520       0.01536
  44    0.2165        2.7719        0.0000        7.2003        7.2003       4.428454       0.01506
  43    0.2613        2.7719        0.0000        7.2003        7.2003       4.428376       0.01478
  42    0.3336        2.7719        0.0000        7.2001        7.2001       4.428246       0.01512
  41    0.4307        2.7719        0.0000        7.2000        7.2000       4.428074       0.01496
  40    0.5894        2.7719        0.0000        7.1997        7.1997       4.427793       0.01494
  39     1.339        2.7720        0.0001        7.1984        7.1985       4.426464       0.01496
  38     1.782        2.7721        0.0001        7.1977        7.1978       4.425684       0.01485
  37     2.292        2.7722        0.0001        7.1968        7.1969       4.424781       0.01495
  36     2.964        2.7722        0.0001        7.1957        7.1958       4.423596       0.01488
  35     3.853        2.7724        0.0002        7.1942        7.1944       4.422031       0.01485
  34     5.035        2.7725        0.0002        7.1922        7.1925       4.419954       0.01484
  33     6.613        2.7727        0.0003        7.1896        7.1899       4.417182       0.01482
  32     8.786        2.7730        0.0004        7.1860        7.1865       4.413451       0.01449
  31     11.80        2.7734        0.0006        7.1810        7.1815       4.408126       0.01491
  30     15.07        2.7738        0.0007        7.1755        7.1763       4.402423       0.01472
  29     18.79        2.7743        0.0009        7.1694        7.1703       4.396000       0.01456
  28     23.16        2.7749        0.0011        7.1623        7.1634       4.388525       0.01445
  27     28.12        2.7756        0.0013        7.1542        7.1556       4.380012       0.01447
  26     33.73        2.7763        0.0016        7.1452        7.1468       4.370532       0.01425
  25     40.54        2.7772        0.0019        7.1344        7.1363       4.359143       0.01413
  24     48.69        2.7783        0.0023        7.1215        7.1238       4.345508       0.01411
  23     57.69        2.7795        0.0027        7.1074        7.1102       4.330651       0.01393
  22     68.43        2.7810        0.0032        7.0909        7.0941       4.313118       0.01378
  21     81.20        2.7827        0.0038        7.0713        7.0751       4.292455       0.01365
  20     96.49        2.7848        0.0045        7.0484        7.0529       4.268148       0.01342
  19     114.6        2.7873        0.0053        7.0217        7.0270       4.239716       0.01328
  18     136.5        2.7903        0.0063        6.9906        6.9969       4.206593       0.01274
  17     162.9        2.7940        0.0075        6.9544        6.9619       4.167916       0.01236
  16     196.4        2.7988        0.0090        6.9087        6.9177       4.118934       0.01233
  15     218.7        2.8021        0.0100        6.8794        6.8894       4.087375       0.01198
  14     243.0        2.8056        0.0111        6.8481        6.8592       4.053561       0.01173
  13     269.0        2.8096        0.0122        6.8147        6.8270       4.017357       0.01174
  12     297.5        2.8140        0.0135        6.7791        6.7926       3.978558       0.01151
  11     328.5        2.8189        0.0148        6.7409        6.7558       3.936846       0.01134
  10     361.9        2.8245        0.0163        6.7002        6.7164       3.891955       0.01136
   9     398.1        2.8308        0.0178        6.6563        6.6741       3.843341       0.01133
   8     437.6        2.8379        0.0195        6.6089        6.6283       3.790432       0.01131
   7     480.5        2.8462        0.0213        6.5570        6.5782       3.732054       0.01147
   6     533.0        2.8573        0.0234        6.4915        6.5149       3.657544       0.01199
   5     589.8        2.8707        0.0257        6.4182        6.4440       3.573250       0.01251
   4     651.6        2.8869        0.0282        6.3359        6.3641       3.477202       0.01313
   3     718.7        2.9062        0.0308        6.2441        6.2749       3.368717       0.01363
   2     792.3        2.9290        0.0335        6.1437        6.1773       3.248261       0.01381
   1     891.5        1.1402        2.1128        2.1516        4.2645       3.124216       0.01056
   0    1013.0        1.1577        2.0783        2.0874        4.1656       3.007974       0.00807



 Wavenumbers:  8050. - 12850. cm-1, ATM      1
 LEVEL PRESSURE   UPWARD FLUX   DIFDOWN FLUX  DIRDOWN FLUX  DOWNWARD FLUX   NET FLUX    HEATING RATE
          mb          W/m2          W/m2          W/m2        W/m2          W/m2       degree/day
  51    .06700       35.8828        0.0000      100.8135      100.8135      64.930695       0.00000
  50    .07753       35.8828        0.0000      100.8135      100.8135      64.930695       0.00000
  49    .09103       35.8828        0.0001      100.8134      100.8135      64.930695       0.00000
  48    0.1069       35.8828        0.0001      100.8134      100.8134      64.930695      -0.00000
  47    0.1255       35.8827        0.0001      100.8133      100.8134      64.930695       0.00000
  46    0.1487       35.8827        0.0002      100.8132      100.8134      64.930695      -0.00000
  45    0.1794       35.8826        0.0003      100.8131      100.8133      64.930695       0.00000
  44    0.2165       35.8826        0.0003      100.8129      100.8133      64.930695      -0.00000
  43    0.2613       35.8825        0.0004      100.8127      100.8132      64.930695       0.00000
  42    0.3336       35.8824        0.0006      100.8125      100.8131      64.930695       0.00000
  41    0.4307       35.8822        0.0008      100.8121      100.8129      64.930695       0.00000
  40    0.5894       35.8820        0.0012      100.8115      100.8127      64.930695      -0.00000
  39     1.339       35.8807        0.0029      100.8085      100.8114      64.930695       0.00000
  38     1.782       35.8800        0.0039      100.8068      100.8107      64.930695      -0.00000
  37     2.292       35.8792        0.0051      100.8047      100.8099      64.930695       0.00000
  36     2.964       35.8781        0.0067      100.8021      100.8088      64.930695       0.00000
  35     3.853       35.8766        0.0087      100.7986      100.8073      64.930695       0.00000
  34     5.035       35.8747        0.0114      100.7940      100.8054      64.930695      -0.00000
  33     6.613       35.8721        0.0150      100.7878      100.8028      64.930695       0.00000
  32     8.786       35.8686        0.0199      100.7794      100.7993      64.930695       0.00000
  31     11.80       35.8636        0.0269      100.7674      100.7943      64.930695       0.00000
  30     15.07       35.8583        0.0344      100.7546      100.7890      64.930695       0.00000
  29     18.79       35.8522        0.0429      100.7400      100.7829      64.930695      -0.00000
  28     23.16       35.8451        0.0528      100.7230      100.7758      64.930695      -0.00000
  27     28.12       35.8370        0.0642      100.7035      100.7677      64.930695       0.00000
  26     33.73       35.8279        0.0769      100.6817      100.7586      64.930695       0.00000
  25     40.54       35.8169        0.0923      100.6552      100.7476      64.930695      -0.00000
  24     48.69       35.8036        0.1109      100.6234      100.7343      64.930695       0.00000
  23     57.69       35.7890        0.1314      100.5883      100.7197      64.930695       0.00000
  22     68.43       35.7716        0.1558      100.5464      100.7022      64.930695       0.00000
  21     81.20       35.7507        0.1849      100.4965      100.6814      64.930695      -0.00000
  20     96.49       35.7259        0.2196      100.4370      100.6566      64.930695      -0.00000
  19     114.6       35.6965        0.2610      100.3585      100.6194      64.922971       0.00361
  18     136.5       35.6615        0.3100      100.2634      100.5734      64.911858       0.00427
  17     162.9       35.6198        0.3685      100.1407      100.5092      64.889319       0.00720
  16     196.4       35.5658        0.4444       99.9505      100.3949      64.829162       0.01514
  15     218.7       35.5303        0.4943       99.7889      100.2833      64.753009       0.02891
  14     243.0       35.4919        0.5485       99.5472      100.0957      64.603803       0.05175
  13     269.0       35.4512        0.6069       99.1452       99.7521      64.300938       0.09825
  12     297.5       35.4088        0.6695       98.5975       99.2670      63.858192       0.13131
  11     328.5       35.3658        0.7366       97.8659       98.6024      63.236627       0.16900
  10     361.9       35.3240        0.8078       96.8848       97.6926      62.368539       0.21964
   9     398.1       35.2858        0.8830       95.6330       96.5160      61.230121       0.26523
   8     437.6       35.2557        0.9617       94.0655       95.0271      59.771474       0.31187
   7     480.5       35.2423        1.0429       92.0807       93.1237      57.881343       0.37121
   6     533.0       35.2582        1.1388       89.4449       90.5837      55.325439       0.41116
   5     589.8       35.3242        1.2377       86.5544       87.7921      52.467910       0.42415
   4     651.6       35.4698        1.3392       83.4174       84.7566      49.286766       0.43503
   3     718.7       35.7179        1.4439       80.2037       81.6476      45.929678       0.42189
   2     792.3       36.0949        1.5526       77.0811       78.6337      42.538799       0.38890
   1     891.5       13.7439       26.8423       26.2587       53.1011      39.357142       0.27074
   0    1013.0       14.0471       25.9699       24.7098       50.6797      36.632550       0.18918



 Wavenumbers: 12850. - 16000. cm-1, ATM      1
 LEVEL PRESSURE   UPWARD FLUX   DIFDOWN FLUX  DIRDOWN FLUX  DOWNWARD FLUX   NET FLUX    HEATING RATE
          mb          W/m2          W/m2          W/m2        W/m2          W/m2       degree/day
  51    .06700       36.1003        0.0000       63.1686       63.1686      27.068290       0.00000
  50    .07753       36.1003        0.0001       63.1677       63.1678      27.067510       0.62507
  49    .09103       36.1002        0.0001       63.1666       63.1668      27.066538       0.60751
  48    0.1069       36.1002        0.0002       63.1654       63.1656      27.065431       0.58915
  47    0.1255       36.1002        0.0003       63.1640       63.1643      27.064172       0.57073
  46    0.1487       36.1001        0.0004       63.1623       63.1627      27.062602       0.57236
  45    0.1794       36.1001        0.0006       63.1600       63.1606      27.060496       0.57810
  44    0.2165       36.1000        0.0008       63.1573       63.1581      27.058060       0.55403
  43    0.2613       36.1000        0.0010       63.1542       63.1552      27.055251       0.52961
  42    0.3336       36.0999        0.0014       63.1493       63.1507      27.050774       0.52201
  41    0.4307       36.0999        0.0019       63.1431       63.1450      27.045173       0.48697
  40    0.5894       36.0999        0.0027       63.1338       63.1366      27.036687       0.45129
  39     1.339       36.1012        0.0066       63.0956       63.1022      27.001009       0.40167
  38     1.782       36.1029        0.0089       63.0740       63.0829      26.979993       0.40010
  37     2.292       36.1059        0.0115       63.0477       63.0592      26.953333       0.44156
  36     2.964       36.1111        0.0150       63.0095       63.0246      26.913404       0.50123
  35     3.853       36.1201        0.0196       62.9533       62.9729      26.852795       0.57519
  34     5.035       36.1339        0.0257       62.8725       62.8982      26.764334       0.63193
  33     6.613       36.1533        0.0338       62.7621       62.7959      26.642595       0.65081
  32     8.786       36.1784        0.0447       62.6182       62.6630      26.484571       0.61371
  31     11.80       36.2105        0.0603       62.4284       62.4886      26.278148       0.57792
  30     15.07       36.2405        0.0770       62.2426       62.3196      26.079064       0.51400
  29     18.79       36.2704        0.0958       62.0493       62.1451      25.874658       0.46345
  28     23.16       36.3007        0.1177       61.8424       61.9601      25.659419       0.41620
  27     28.12       36.3300        0.1427       61.6278       61.7705      25.440530       0.37210
  26     33.73       36.3550        0.1706       61.4177       61.5883      25.233287       0.31160
  25     40.54       36.3763        0.2043       61.1983       61.4026      25.026295       0.25680
  24     48.69       36.3933        0.2448       60.9680       61.2128      24.819513       0.21399
  23     57.69       36.4036        0.2893       60.7478       61.0371      24.633519       0.17434
  22     68.43       36.4067        0.3422       60.5202       60.8624      24.455665       0.13982
  21     81.20       36.3980        0.4052       60.2938       60.6990      24.301002       0.10220
  20     96.49       36.3762        0.4803       60.0643       60.5445      24.168354       0.07321
  19     114.6       36.3506        0.5699       59.8078       60.3777      24.027080       0.06597
  18     136.5       36.3151        0.6759       59.5157       60.1916      23.876541       0.05789
  17     162.9       36.2681        0.8018       59.1770       59.9788      23.710773       0.05299
  16     196.4       36.1971        0.9647       58.7604       59.7251      23.527999       0.04601
  15     218.7       36.1469        1.0713       58.4948       59.5661      23.419221       0.04130
  14     243.0       36.0909        1.1870       58.2089       59.3960      23.305098       0.03958
  13     269.0       36.0288        1.3122       57.9006       59.2128      23.183935       0.03930
  12     297.5       35.9609        1.4471       57.5668       59.0139      23.052937       0.03885
  11     328.5       35.8881        1.5924       57.2005       58.7929      22.904803       0.04028
  10     361.9       35.8112        1.7485       56.7963       58.5448      22.733630       0.04331
   9     398.1       35.7309        1.9158       56.3475       58.2633      22.532424       0.04688
   8     437.6       35.6492        2.0946       55.8422       57.9368      22.287635       0.05234
   7     480.5       35.5698        2.2850       55.2625       57.5475      21.977764       0.06086
   6     533.0       35.4858        2.5173       54.4972       57.0145      21.528672       0.07224
   5     589.8       35.4126        2.7643       53.6307       56.3950      20.982384       0.08109
   4     651.6       35.3582        3.0253       52.6606       55.6859      20.327725       0.08953
   3     718.7       35.3268        3.3005       51.6100       54.9105      19.583732       0.09350
   2     792.3       35.3246        3.5897       50.5019       54.0916      18.767020       0.09367
   1     891.5       22.2772       22.5963       17.5659       40.1622      17.885055       0.07505
   0    1013.0       22.3892       22.4507       16.9242       39.3749      16.985635       0.06245



 Wavenumbers: 16000. - 22650. cm-1, ATM      1
 LEVEL PRESSURE   UPWARD FLUX   DIFDOWN FLUX  DIRDOWN FLUX  DOWNWARD FLUX   NET FLUX    HEATING RATE
          mb          W/m2          W/m2          W/m2        W/m2          W/m2       degree/day
  51    .06700       75.6773        0.0000      100.7153      100.7153      25.038020       0.00000
  50    .07753       75.6772        0.0003      100.7147      100.7151      25.037903       0.09396
  49    .09103       75.6770        0.0007      100.7140      100.7147      25.037732       0.10657
  48    0.1069       75.6768        0.0012      100.7131      100.7143      25.037504       0.12153
  47    0.1255       75.6767        0.0017      100.7121      100.7139      25.037199       0.13852
  46    0.1487       75.6765        0.0024      100.7108      100.7132      25.036748       0.16414
  45    0.1794       75.6762        0.0034      100.7089      100.7122      25.036044       0.19327
  44    0.2165       75.6759        0.0045      100.7066      100.7110      25.035089       0.21721
  43    0.2613       75.6757        0.0058      100.7037      100.7095      25.033794       0.24419
  42    0.3336       75.6753        0.0079      100.6987      100.7066      25.031331       0.28716
  41    0.4307       75.6750        0.0108      100.6918      100.7026      25.027618       0.32279
  40    0.5894       75.6747        0.0155      100.6797      100.6953      25.020538       0.37651
  39     1.339       75.6790        0.0377      100.6095      100.6472      24.968241       0.58878
  38     1.782       75.6855        0.0507      100.5585      100.6092      24.923703       0.84793
  37     2.292       75.6968        0.0658      100.4903      100.5561      24.859255       1.06743
  36     2.964       75.7175        0.0856      100.3868      100.4724      24.754897       1.31000
  35     3.853       75.7529        0.1117      100.2306      100.3423      24.589427       1.57034
  34     5.035       75.8079        0.1463      100.0045      100.1508      24.342829       1.76160
  33     6.613       75.8857        0.1925       99.6939       99.8863      24.000659       1.82924
  32     8.786       75.9862        0.2545       99.2881       99.5425      23.556338       1.72558
  31     11.80       76.1144        0.3429       98.7496       99.0925      22.978186       1.61864
  30     15.07       76.2337        0.4376       98.2198       98.6574      22.423714       1.43154
  29     18.79       76.3521        0.5441       97.6651       98.2092      21.857173       1.28452
  28     23.16       76.4714        0.6681       97.0671       97.7352      21.263805       1.14738
  27     28.12       76.5858        0.8093       96.4406       97.2499      20.664069       1.01951
  26     33.73       76.6820        0.9668       95.8179       96.7847      20.102653       0.84411
  25     40.54       76.7616        1.1565       95.1548       96.3113      19.549665       0.68604
  24     48.69       76.8220        1.3842       94.4420       95.8262      19.004142       0.56453
  23     57.69       76.8541        1.6333       93.7416       95.3749      18.520833       0.45303
  22     68.43       76.8555        1.9288       92.9954       94.9242      18.068718       0.35542
  21     81.20       76.8066        2.2795       92.2231       94.5026      17.696020       0.24627
  20     96.49       76.7018        2.6954       91.4110       94.1064      17.404547       0.16087
  19     114.6       76.5545        3.1858       90.5070       93.6928      17.138301       0.12432
  18     136.5       76.3650        3.7621       89.4803       93.2424      16.877375       0.10033
  17     162.9       76.1267        4.4416       88.3022       92.7438      16.617105       0.08319
  16     196.4       75.7890        5.3125       86.8606       92.1731      16.384128       0.05864
  15     218.7       75.5576        5.8782       85.9492       91.8274      16.269838       0.04339
  14     243.0       75.3024        6.4875       84.9789       91.4665      16.164028       0.03670
  13     269.0       75.0225        7.1414       83.9493       91.0906      16.068183       0.03109
  12     297.5       74.7171        7.8405       82.8589       90.6995      15.982419       0.02544
  11     328.5       74.3875        8.5875       81.6982       90.2857      15.898194       0.02290
  10     361.9       74.0338        9.3819       80.4669       89.8488      15.814977       0.02105
   9     398.1       73.6552       10.2256       79.1611       89.3868      15.731549       0.01944
   8     437.6       73.2522       11.1190       77.7777       88.8968      15.644592       0.01859
   7     480.5       72.8250       12.0623       76.3136       88.3759      15.550945       0.01839
   6     533.0       72.3070       13.2033       74.5359       87.7392      15.432206       0.01910
   5     589.8       71.7596       14.4088       72.6469       87.0557      15.296074       0.02021
   4     651.6       71.1853       15.6765       70.6456       86.3221      15.136844       0.02178
   3     718.7       70.5845       17.0044       68.5367       85.5411      14.956622       0.02265
   2     792.3       69.9601       18.3871       66.3287       84.7157      14.755607       0.02305
   1     891.5       54.4049       46.1891       22.7334       68.9225      14.517656       0.02025
   0    1013.0       54.0208       46.7489       21.5232       68.2721      14.251300       0.01849



 Wavenumbers: 22650. - 29000. cm-1, ATM      1
 LEVEL PRESSURE   UPWARD FLUX   DIFDOWN FLUX  DIRDOWN FLUX  DOWNWARD FLUX   NET FLUX    HEATING RATE
          mb          W/m2          W/m2          W/m2        W/m2          W/m2       degree/day
  51    .06700       32.5663        0.0000       38.0063       38.0063       5.439955       0.00000
  50    .07753       32.5662        0.0004       38.0057       38.0061       5.439955       0.00000
  49    .09103       32.5659        0.0009       38.0050       38.0059       5.439955       0.00000
  48    0.1069       32.5657        0.0014       38.0042       38.0057       5.439955      -0.00000
  47    0.1255       32.5654        0.0020       38.0033       38.0054       5.439955       0.00000
  46    0.1487       32.5651        0.0028       38.0022       38.0050       5.439955       0.00000
  45    0.1794       32.5646        0.0039       38.0006       38.0045       5.439955       0.00000
  44    0.2165       32.5640        0.0052       37.9987       38.0039       5.439955       0.00000
  43    0.2613       32.5633        0.0067       37.9965       38.0032       5.439955       0.00000
  42    0.3336       32.5621        0.0093       37.9928       38.0021       5.439955       0.00000
  41    0.4307       32.5606        0.0126       37.9880       38.0006       5.439955      -0.00000
  40    0.5894       32.5581        0.0181       37.9800       37.9981       5.439955       0.00000
  39     1.339       32.5464        0.0439       37.9425       37.9864       5.439955       0.00000
  38     1.782       32.5396        0.0591       37.9204       37.9795       5.439955      -0.00000
  37     2.292       32.5316        0.0766       37.8949       37.9715       5.439955       0.00000
  36     2.964       32.5211        0.0997       37.8614       37.9611       5.439955      -0.00000
  35     3.853       32.5074        0.1301       37.8172       37.9473       5.439955       0.00000
  34     5.035       32.4890        0.1704       37.7586       37.9290       5.439955       0.00000
  33     6.613       32.4646        0.2243       37.6803       37.9046       5.439955      -0.00000
  32     8.786       32.4318        0.2967       37.5750       37.8717       5.439955       0.00000
  31     11.80       32.3848        0.3999       37.4249       37.8248       5.439955       0.00000
  30     15.07       32.3346        0.5104       37.2642       37.7746       5.439955       0.00000
  29     18.79       32.2781        0.6347       37.0833       37.7180       5.439955      -0.00000
  28     23.16       32.2123        0.7793       36.8730       37.6523       5.439955       0.00000
  27     28.12       32.1374        0.9436       36.6338       37.5774       5.439955      -0.00000
  26     33.73       32.0541        1.1263       36.3677       37.4940       5.439955       0.00000
  25     40.54       31.9540        1.3454       36.0486       37.3939       5.439955       0.00000
  24     48.69       31.8343        1.6070       35.6672       37.2742       5.439955       0.00000
  23     57.69       31.7040        1.8913       35.2527       37.1439       5.439955       0.00000
  22     68.43       31.5504        2.2255       34.7649       36.9904       5.439955      -0.00000
  21     81.20       31.3698        2.6176       34.1922       36.8098       5.439955       0.00000
  20     96.49       31.1579        3.0761       33.5217       36.5979       5.439955      -0.00000
  19     114.6       30.9109        3.6085       32.7424       36.3509       5.439955      -0.00000
  18     136.5       30.6246        4.2229       31.8416       36.0645       5.439955       0.00000
  17     162.9       30.2924        4.9315       30.8008       35.7323       5.439955       0.00000
  16     196.4       29.8753        5.8146       29.5007       35.3152       5.439955      -0.00000
  15     218.7       29.6096        6.3729       28.6767       35.0496       5.439955       0.00000
  14     243.0       29.3280        6.9612       27.8068       34.7680       5.439955       0.00000
  13     269.0       29.0309        7.5775       26.8933       34.4708       5.439955      -0.00000
  12     297.5       28.7189        8.2196       25.9393       34.1588       5.439955      -0.00000
  11     328.5       28.3919        8.8867       24.9451       33.8318       5.439955       0.00000
  10     361.9       28.0512        9.5751       23.9160       33.4911       5.439955       0.00000
   9     398.1       27.6970       10.2828       22.8541       33.1370       5.439955       0.00000
   8     437.6       27.3305       11.0060       21.7645       32.7705       5.439955       0.00000
   7     480.5       26.9529       11.7407       20.6521       32.3929       5.439955       0.00000
   6     533.0       26.5083       12.5913       19.3569       31.9482       5.439955       0.00000
   5     589.8       26.0522       13.4455       18.0467       31.4922       5.439955      -0.00000
   4     651.6       25.5873       14.2956       16.7316       31.0272       5.439955       0.00000
   3     718.7       25.1155       15.1341       15.4214       30.5555       5.439955       0.00000
   2     792.3       24.6400       15.9523       14.1276       30.0799       5.439955      -0.00000
   1     891.5       20.5590       21.5018        4.4971       25.9989       5.439922       0.00000
   0    1013.0       20.2033       21.7462        3.8970       25.6432       5.439922      -0.00000



 Wavenumbers: 29000. - 38000. cm-1, ATM      1
 LEVEL PRESSURE   UPWARD FLUX   DIFDOWN FLUX  DIRDOWN FLUX  DOWNWARD FLUX   NET FLUX    HEATING RATE
          mb          W/m2          W/m2          W/m2        W/m2          W/m2       degree/day
  51    .06700        4.7435        0.0000       13.4026       13.4026       8.659137       0.00000
  50    .07753        4.7432        0.0003       13.3983       13.3986       8.655339       3.04425
  49    .09103        4.7430        0.0007       13.3921       13.3928       8.649820       3.44951
  48    0.1069        4.7427        0.0011       13.3840       13.3851       8.642444       3.92658
  47    0.1255        4.7423        0.0016       13.3733       13.3749       8.632599       4.46296
  46    0.1487        4.7419        0.0022       13.3579       13.3600       8.618158       5.26413
  45    0.1794        4.7413        0.0030       13.3340       13.3371       8.595759       6.14896
  44    0.2165        4.7406        0.0040       13.3024       13.3064       8.565742       6.82842
  43    0.2613        4.7399        0.0051       13.2604       13.2655       8.525689       7.54971
  42    0.3336        4.7386        0.0070       13.1833       13.1903       8.451687       8.62794
  41    0.4307        4.7371        0.0095       13.0729       13.0824       8.345321       9.24824
  40    0.5894        4.7346        0.0133       12.8796       12.8929       8.158291       9.94604
  39     1.339        4.7260        0.0295       11.9165       11.9461       7.220049      10.56290
  38     1.782        4.7226        0.0378       11.4399       11.4777       6.755150       8.85093
  37     2.292        4.7199        0.0467       10.9796       11.0263       6.306333       7.43358
  36     2.964        4.7182        0.0575       10.4786       10.5361       5.817883       6.13152
  35     3.853        4.7185        0.0709        9.9429       10.0138       5.295305       4.95936
  34     5.035        4.7213        0.0876        9.4007        9.4883       4.766980       3.77413
  33     6.613        4.7269        0.1088        8.8752        8.9840       4.257145       2.72558
  32     8.786        4.7346        0.1361        8.3786        8.5147       3.780130       1.85256
  31     11.80        4.7439        0.1737        7.8897        8.0633       3.319408       1.28987
  30     15.07        4.7517        0.2123        7.5108        7.7231       2.971396       0.89850
  29     18.79        4.7588        0.2545        7.1776        7.4321       2.673250       0.67599
  28     23.16        4.7650        0.3019        6.8664        7.1683       2.403278       0.52204
  27     28.12        4.7697        0.3543        6.5780        6.9323       2.162678       0.40900
  26     33.73        4.7703        0.4114        6.3195        6.7309       1.960557       0.30389
  25     40.54        4.7658        0.4787        6.0663        6.5450       1.779261       0.22492
  24     48.69        4.7553        0.5576        5.8128        6.3704       1.615102       0.16988
  23     57.69        4.7392        0.6417        5.5777        6.2194       1.480195       0.12645
  22     68.43        4.7150        0.7391        5.3379        6.0769       1.361927       0.09297
  21     81.20        4.6785        0.8519        5.0965        5.9484       1.269921       0.06080
  20     96.49        4.6284        0.9822        4.8476        5.8299       1.201443       0.03779
  19     114.6        4.5677        1.1297        4.5799        5.7096       1.141871       0.02782
  18     136.5        4.4974        1.2944        4.2891        5.5835       1.086070       0.02146
  17     162.9        4.4171        1.4768        3.9732        5.4500       1.032916       0.01699
  16     196.4        4.3154        1.6949        3.6080        5.3029       0.987524       0.01143
  15     218.7        4.2513        1.8274        3.3898        5.2172       0.965933       0.00820
  14     243.0        4.1845        1.9623        3.1686        5.1309       0.946363       0.00679
  13     269.0        4.1154        2.0984        2.9461        5.0445       0.929115       0.00559
  12     297.5        4.0443        2.2346        2.7239        4.9585       0.914207       0.00442
  11     328.5        3.9720        2.3694        2.5029        4.8723       0.900218       0.00380
  10     361.9        3.8990        2.5016        2.2846        4.7862       0.887168       0.00330
   9     398.1        3.8256        2.6299        2.0708        4.7007       0.875051       0.00282
   8     437.6        3.7523        2.7533        1.8626        4.6159       0.863608       0.00245
   7     480.5        3.6794        2.8702        1.6621        4.5324       0.852961       0.00209
   6     533.0        3.5970        2.9949        1.4437        4.4386       0.841600       0.00183
   5     589.8        3.5163        3.1081        1.2390        4.3471       0.830846       0.00160
   4     651.6        3.4377        3.2083        1.0500        4.2583       0.820551       0.00141
   3     718.7        3.3615        3.2944        0.8778        4.1722       0.810682       0.00124
   2     792.3        3.2881        3.3656        0.7237        4.0893       0.801219       0.00109
   1     891.5        2.9203        3.5113        0.1994        3.7107       0.790411       0.00092
   0    1013.0        2.8541        3.4885        0.1448        3.6333       0.779237       0.00078



 Wavenumbers: 38000. - 50000. cm-1, ATM      1
 LEVEL PRESSURE   UPWARD FLUX   DIFDOWN FLUX  DIRDOWN FLUX  DOWNWARD FLUX   NET FLUX    HEATING RATE
          mb          W/m2          W/m2          W/m2        W/m2          W/m2       degree/day
  51    .06700        0.0051        0.0000        0.8267        0.8267       0.821528       0.00000
  50    .07753        0.0051        0.0001        0.8242        0.8243       0.819196       1.86936
  49    .09103        0.0050        0.0002        0.8207        0.8209       0.815872       2.07705
  48    0.1069        0.0049        0.0002        0.8162        0.8164       0.811514       2.31984
  47    0.1255        0.0048        0.0004        0.8103        0.8106       0.805801       2.59006
  46    0.1487        0.0047        0.0005        0.8018        0.8023       0.797567       3.00143
  45    0.1794        0.0045        0.0007        0.7889        0.7896       0.785013       3.44648
  44    0.2165        0.0044        0.0009        0.7720        0.7729       0.768507       3.75474
  43    0.2613        0.0042        0.0011        0.7500        0.7511       0.746955       4.06246
  42    0.3336        0.0039        0.0015        0.7106        0.7121       0.708267       4.51071
  41    0.4307        0.0035        0.0019        0.6566        0.6584       0.654972       4.63387
  40    0.5894        0.0029        0.0024        0.5680        0.5704       0.567464       4.65357
  39     1.339        0.0015        0.0030        0.2422        0.2452       0.243720       3.64476
  38     1.782        0.0010        0.0026        0.1493        0.1519       0.150889       1.76735
  37     2.292        0.0007        0.0022        0.0924        0.0946       0.093932       0.94336
  36     2.964        0.0005        0.0018        0.0539        0.0557       0.055224       0.48589
  35     3.853        0.0003        0.0013        0.0295        0.0308       0.030502       0.23462
  34     5.035        0.0002        0.0010        0.0154        0.0164       0.016181       0.10230
  33     6.613        0.0001        0.0007        0.0073        0.0080       0.007912       0.04420
  32     8.786        0.0000        0.0004        0.0030        0.0034       0.003390       0.01756
  31     11.80        0.0000        0.0003        0.0010        0.0012       0.001199       0.00613
  30     15.07        0.0000        0.0001        0.0003        0.0005       0.000463       0.00190
  29     18.79        0.0000        0.0001        0.0001        0.0002       0.000182       0.00064
  28     23.16        0.0000        0.0000        0.0000        0.0001       0.000071       0.00022
  27     28.12        0.0000        0.0000        0.0000        0.0000       0.000028       0.00007
  26     33.73        0.0000        0.0000        0.0000        0.0000       0.000011       0.00002
  25     40.54        0.0000        0.0000        0.0000        0.0000       0.000005       0.00001
  24     48.69        0.0000        0.0000        0.0000        0.0000       0.000002       0.00000
  23     57.69        0.0000        0.0000        0.0000        0.0000       0.000001       0.00000
  22     68.43        0.0000        0.0000        0.0000        0.0000       0.000000       0.00000
  21     81.20        0.0000        0.0000        0.0000        0.0000       0.000000       0.00000
  20     96.49        0.0000        0.0000        0.0000        0.0000       0.000000       0.00000
  19     114.6        0.0000        0.0000        0.0000        0.0000       0.000000       0.00000
  18     136.5        0.0000        0.0000        0.0000        0.0000       0.000000       0.00000
  17     162.9        0.0000        0.0000        0.0000        0.0000       0.000000       0.00000
  16     196.4        0.0000        0.0000        0.0000        0.0000       0.000000       0.00000
  15     218.7        0.0000        0.0000        0.0000        0.0000       0.000000       0.00000
  14     243.0        0.0000        0.0000        0.0000        0.0000       0.000000       0.00000
  13     269.0        0.0000        0.0000        0.0000        0.0000       0.000000       0.00000
  12     297.5        0.0000        0.0000        0.0000        0.0000       0.000000       0.00000
  11     328.5        0.0000        0.0000        0.0000        0.0000       0.000000       0.00000
  10     361.9        0.0000        0.0000        0.0000        0.0000       0.000000       0.00000
   9     398.1        0.0000        0.0000        0.0000        0.0000       0.000000       0.00000
   8     437.6        0.0000        0.0000        0.0000        0.0000       0.000000       0.00000
   7     480.5        0.0000        0.0000        0.0000        0.0000       0.000000       0.00000
   6     533.0        0.0000        0.0000        0.0000        0.0000       0.000000       0.00000
   5     589.8        0.0000        0.0000        0.0000        0.0000       0.000000       0.00000
   4     651.6        0.0000        0.0000        0.0000        0.0000       0.000000       0.00000
   3     718.7        0.0000        0.0000        0.0000        0.0000       0.000000       0.00000
   2     792.3        0.0000        0.0000        0.0000        0.0000       0.000000       0.00000
   1     891.5        0.0000        0.0000        0.0000        0.0000       0.000000       0.00000
   0    1013.0        0.0000        0.0000        0.0000        0.0000       0.000000       0.00000



 Wavenumbers:   820. -  2600. cm-1, ATM      1
 LEVEL PRESSURE   UPWARD FLUX   DIFDOWN FLUX  DIRDOWN FLUX  DOWNWARD FLUX   NET FLUX    HEATING RATE
          mb          W/m2          W/m2          W/m2        W/m2          W/m2       degree/day
  51    .06700        0.4100        0.0000        3.8670        3.8670       3.457043       0.00000
  50    .07753        0.4100        0.0000        3.8643        3.8643       3.454326       2.17770
  49    .09103        0.4100        0.0000        3.8635        3.8635       3.453516       0.50638
  48    0.1069        0.4100        0.0000        3.8626        3.8626       3.452625       0.47415
  47    0.1255        0.4100        0.0000        3.8616        3.8616       3.451665       0.43560
  46    0.1487        0.4100        0.0000        3.8605        3.8605       3.450555       0.40438
  45    0.1794        0.4100        0.0000        3.8592        3.8592       3.449220       0.36648
  44    0.2165        0.4100        0.0000        3.8578        3.8578       3.447842       0.31346
  43    0.2613        0.4100        0.0000        3.8564        3.8564       3.446382       0.27523
  42    0.3336        0.4100        0.0000        3.8541        3.8541       3.444151       0.26013
  41    0.4307        0.4100        0.0000        3.8512        3.8512       3.441268       0.25064
  40    0.5894        0.4100        0.0000        3.8465        3.8465       3.436542       0.25134
  39     1.339        0.4100        0.0000        3.8251        3.8251       3.415166       0.24065
  38     1.782        0.4100        0.0000        3.8133        3.8133       3.403353       0.22490
  37     2.292        0.4100        0.0000        3.8003        3.8003       3.390291       0.21633
  36     2.964        0.4100        0.0000        3.7841        3.7841       3.374162       0.20247
  35     3.853        0.4100        0.0000        3.7642        3.7642       3.354247       0.18900
  34     5.035        0.4100        0.0000        3.7395        3.7395       3.329555       0.17639
  33     6.613        0.4100        0.0000        3.7090        3.7090       3.299018       0.16325
  32     8.786        0.4100        0.0000        3.6726        3.6726       3.262623       0.14134
  31     11.80        0.4100        0.0000        3.6320        3.6320       3.222025       0.11366
  30     15.07        0.4100        0.0000        3.6016        3.6016       3.191638       0.07845
  29     18.79        0.4100        0.0000        3.5777        3.5777       3.167737       0.05419
  28     23.16        0.4100        0.0000        3.5564        3.5564       3.146379       0.04130
  27     28.12        0.4100        0.0000        3.5348        3.5348       3.124828       0.03664
  26     33.73        0.4100        0.0000        3.5118        3.5118       3.101789       0.03464
  25     40.54        0.4100        0.0000        3.4849        3.4849       3.074894       0.03337
  24     48.69        0.4101        0.0000        3.4537        3.4537       3.043633       0.03235
  23     57.69        0.4101        0.0000        3.4210        3.4210       3.010949       0.03064
  22     68.43        0.4101        0.0000        3.3844        3.3844       2.974351       0.02877
  21     81.20        0.4101        0.0000        3.3441        3.3441       2.934038       0.02664
  20     96.49        0.4101        0.0000        3.2998        3.2998       2.889655       0.02450
  19     114.6        0.4102        0.0000        3.2506        3.2506       2.840483       0.02296
  18     136.5        0.4102        0.0000        3.1936        3.1936       2.783400       0.02195
  17     162.9        0.4103        0.0000        3.1181        3.1181       2.707838       0.02415
  16     196.4        0.4104        0.0000        3.0090        3.0090       2.598537       0.02751
  15     218.7        0.4106        0.0000        2.9420        2.9420       2.531448       0.02547
  14     243.0        0.4107        0.0000        2.8605        2.8605       2.449760       0.02833
  13     269.0        0.4110        0.0000        2.7419        2.7420       2.330968       0.03854
  12     297.5        0.4115        0.0000        2.5729        2.5729       2.161412       0.05029
  11     328.5        0.4122        0.0000        2.3602        2.3602       1.947970       0.05803
  10     361.9        0.4134        0.0000        2.1524        2.1524       1.739048       0.05286
   9     398.1        0.4150        0.0000        1.9974        1.9974       1.582394       0.03650
   8     437.6        0.4173        0.0000        1.8835        1.8835       1.466176       0.02485
   7     480.5        0.4207        0.0000        1.7734        1.7734       1.352781       0.02227
   6     533.0        0.4261        0.0000        1.6397        1.6398       1.213634       0.02238
   5     589.8        0.4340        0.0000        1.5068        1.5069       1.072874       0.02089
   4     651.6        0.4456        0.0000        1.3807        1.3807       0.935120       0.01884
   3     718.7        0.4611        0.0000        1.2680        1.2681       0.806944       0.01611
   2     792.3        0.4804        0.0000        1.1659        1.1660       0.685568       0.01392
   1     891.5        0.1598        0.3577        0.3717        0.7294       0.569527       0.00987
   0    1013.0        0.1761        0.3224        0.3123        0.6347       0.458627       0.00770

  Modules and versions used in this calculation:

       rrtmg_sw.1col.f90:  $Revision$                    rrtmg_sw_init.f90:  $Revision$        
     rrtmgsw_cldprop.f90:  $Revision$                  rrtmgsw_cldprmc.f90:  NOT USED          
     rrtmg_sw_reftra.f90:  $Revision$                  rrtmg_sw_spcvrt.f90:  NOT USED          
     rrtmg_sw_spcvmc.f90:  NOT USED                    rrtmgsw_setcoef.f90:  NOT USED          
     rrtmg_sw_taumol.f90:  $Revision$                  rrtmg_sw_vrtqdr.f90:  NOT USED          
                rrtatm.f:  NOT USED                             util_xxx.f:  NOT USED          
                 extra.f:  NOT USED                       rrtmg_sw_k_g.f90:  $Revision$        

