

 Wavenumbers:   820. - 50000. cm-1, ATM      1
 LEVEL PRESSURE   UPWARD FLUX   DIFDOWN FLUX  DIRDOWN FLUX  DOWNWARD FLUX   NET FLUX    HEATING RATE
          mb          W/m2          W/m2          W/m2        W/m2          W/m2       degree/day
  51    .06700      293.0380        0.0000      397.8738      397.8738     104.835750       0.00000
  50    .07753      293.0375        0.0012      397.8577      397.8589     104.821453      11.45949
  49    .09103      293.0368        0.0027      397.8418      397.8445     104.807756       8.56108
  48    0.1069      293.0360        0.0044      397.8230      397.8274     104.791396       8.70810
  47    0.1255      293.0351        0.0064      397.7997      397.8061     104.770939       9.27442
  46    0.1487      293.0340        0.0089      397.7676      397.7765     104.742460      10.38080
  45    0.1794      293.0327        0.0123      397.7205      397.7328     104.700136      11.61912
  44    0.2165      293.0311        0.0163      397.6602      397.6765     104.645444      12.44141
  43    0.2613      293.0293        0.0210      397.5829      397.6039     104.574589      13.35588
  42    0.3336      293.0266        0.0288      397.4449      397.4737     104.447041      14.87082
  41    0.4307      293.0234        0.0390      397.2524      397.2914     104.268009      15.56641
  40    0.5894      293.0187        0.0554      396.9253      396.9807     103.961984      16.27401
  39     1.339      293.0092        0.1288      395.4254      395.5542     102.545021      15.95244
  38     1.782      293.0119        0.1700      394.7288      394.8988     101.886896      12.52964
  37     2.292      293.0225        0.2170      394.0572      394.2741     101.251622      10.52179
  36     2.964      293.0474        0.2779      393.3007      393.5786     100.531165       9.04390
  35     3.853      293.0957        0.3576      392.4318      392.7894      99.693728       7.94743
  34     5.035      293.1749        0.4625      391.4441      391.9065      98.731636       6.87279
  33     6.613      293.2891        0.6014      390.3268      390.9282      97.639132       5.84053
  32     8.786      293.4366        0.7873      389.0624      389.8497      96.413104       4.76145
  31     11.80      293.6216        1.0512      387.5500      388.6012      94.979592       4.01338
  30     15.07      293.7897        1.3323      386.1556      387.4879      93.698244       3.30819
  29     18.79      293.9523        1.6475      384.7502      386.3977      92.445329       2.84074
  28     23.16      294.1109        2.0127      383.2686      385.2813      91.170410       2.46528
  27     28.12      294.2556        2.4271      381.7329      384.1600      89.904381       2.15216
  26     33.73      294.3638        2.8876      380.1982      383.0857      88.721908       1.77788
  25     40.54      294.4324        3.4400      378.5384      381.9784      87.545923       1.45894
  24     48.69      294.4556        4.1003      376.7214      380.8217      86.366179       1.22085
  23     57.69      294.4238        4.8191      374.8959      379.7150      85.291168       1.00766
  22     68.43      294.3247        5.6668      372.8999      378.5668      84.242101       0.82471
  21     81.20      294.1218        6.6665      370.7496      377.4161      83.294351       0.62626
  20     96.49      293.8035        7.8433      368.4056      376.2488      82.445385       0.46857
  19     114.6      293.4007        9.2187      365.7513      374.9700      81.569321       0.40906
  18     136.5      292.9061       10.8175      362.7231      373.5406      80.634455       0.35948
  17     162.9      292.3078       12.6778      359.1748      371.8526      79.544748       0.34831
  16     196.4      291.5002       15.0261      354.5718      369.5980      78.097750       0.36423
  15     218.7      290.9648       16.5298      351.4437      367.9735      77.008738       0.41346
  14     243.0      290.3884       18.1308      347.7111      365.8419      75.453523       0.53940
  13     269.0      289.7744       19.8274      342.9441      362.7716      72.997145       0.79684
  12     297.5      289.1278       21.6179      337.4137      359.0316      69.903825       0.91744
  11     328.5      288.4592       23.5043      331.1302      354.6345      66.175346       1.01376
  10     361.9      287.7803       25.4813      324.1219      349.6032      61.822981       1.10119
   9     398.1      287.1041       27.5490      316.6066      344.1555      57.051391       1.11167
   8     437.6      286.4566       29.7029      308.5895      338.2924      51.835777       1.11513
   7     480.5      285.8848       31.9377      299.9349      331.8726      45.987839       1.14851
   6     533.0      285.3821       34.5904      289.7021      324.2926      38.910500       1.13852
   5     589.8      285.1327       37.3352      279.3388      316.6740      31.541308       1.09383
   4     651.6      285.3022       40.1605      268.7786      308.9391      23.636940       1.08094
   3     718.7      286.0348       43.0580      258.2837      301.3417      15.306936       1.04685
   2     792.3      287.5229       46.0143      248.0774      294.0917       6.568753       1.00217
   1     891.5       11.2821       15.7719        0.0000       15.7719       4.489858       0.17690
   0    1013.0       11.2569       15.6671        0.0000       15.6671       4.410171       0.00553



 Wavenumbers:  2600. -  3250. cm-1, ATM      1
 LEVEL PRESSURE   UPWARD FLUX   DIFDOWN FLUX  DIRDOWN FLUX  DOWNWARD FLUX   NET FLUX    HEATING RATE
          mb          W/m2          W/m2          W/m2        W/m2          W/m2       degree/day
  51    .06700        1.2625        0.0000        3.5066        3.5066       2.244103       0.00000
  50    .07753        1.2625        0.0000        3.5066        3.5066       2.244095       0.00640
  49    .09103        1.2625        0.0000        3.5066        3.5066       2.244085       0.00627
  48    0.1069        1.2625        0.0000        3.5066        3.5066       2.244074       0.00613
  47    0.1255        1.2625        0.0000        3.5066        3.5066       2.244060       0.00599
  46    0.1487        1.2625        0.0000        3.5066        3.5066       2.244044       0.00607
  45    0.1794        1.2625        0.0000        3.5065        3.5065       2.244021       0.00624
  44    0.2165        1.2625        0.0000        3.5065        3.5065       2.243994       0.00611
  43    0.2613        1.2625        0.0000        3.5065        3.5065       2.243962       0.00598
  42    0.3336        1.2625        0.0000        3.5064        3.5064       2.243910       0.00615
  41    0.4307        1.2625        0.0000        3.5064        3.5064       2.243839       0.00618
  40    0.5894        1.2625        0.0000        3.5062        3.5062       2.243720       0.00633
  39     1.339        1.2625        0.0000        3.5055        3.5055       2.243021       0.00787
  38     1.782        1.2625        0.0000        3.5050        3.5050       2.242490       0.01011
  37     2.292        1.2625        0.0000        3.5043        3.5043       2.241797       0.01147
  36     2.964        1.2625        0.0000        3.5033        3.5033       2.240806       0.01245
  35     3.853        1.2625        0.0000        3.5019        3.5019       2.239429       0.01307
  34     5.035        1.2625        0.0000        3.5001        3.5001       2.237568       0.01329
  33     6.613        1.2625        0.0000        3.4977        3.4977       2.235158       0.01288
  32     8.786        1.2625        0.0000        3.4947        3.4947       2.232186       0.01154
  31     11.80        1.2625        0.0000        3.4911        3.4911       2.228550       0.01018
  30     15.07        1.2625        0.0000        3.4878        3.4878       2.225328       0.00832
  29     18.79        1.2625        0.0000        3.4848        3.4848       2.222263       0.00695
  28     23.16        1.2625        0.0000        3.4816        3.4816       2.219040       0.00623
  27     28.12        1.2625        0.0000        3.4779        3.4779       2.215418       0.00616
  26     33.73        1.2625        0.0000        3.4735        3.4735       2.210945       0.00672
  25     40.54        1.2625        0.0000        3.4671        3.4672       2.204610       0.00786
  24     48.69        1.2626        0.0000        3.4582        3.4583       2.195701       0.00922
  23     57.69        1.2626        0.0000        3.4472        3.4472       2.184633       0.01037
  22     68.43        1.2626        0.0000        3.4329        3.4330       2.170345       0.01123
  21     81.20        1.2627        0.0000        3.4152        3.4152       2.152576       0.01174
  20     96.49        1.2627        0.0000        3.3940        3.3941       2.131373       0.01170
  19     114.6        1.2628        0.0000        3.3692        3.3692       2.106402       0.01166
  18     136.5        1.2629        0.0001        3.3419        3.3420       2.079066       0.01051
  17     162.9        1.2631        0.0001        3.3129        3.3129       2.049813       0.00935
  16     196.4        1.2635        0.0001        3.2793        3.2794       2.015916       0.00853
  15     218.7        1.2639        0.0001        3.2578        3.2579       1.993984       0.00833
  14     243.0        1.2644        0.0001        3.2320        3.2321       1.967619       0.00914
  13     269.0        1.2654        0.0001        3.1968        3.1969       1.931567       0.01169
  12     297.5        1.2668        0.0001        3.1489        3.1491       1.882246       0.01463
  11     328.5        1.2690        0.0001        3.0821        3.0822       1.813180       0.01878
  10     361.9        1.2722        0.0001        2.9902        2.9904       1.718128       0.02405
   9     398.1        1.2769        0.0001        2.8715        2.8716       1.594696       0.02876
   8     437.6        1.2837        0.0002        2.7276        2.7278       1.444081       0.03220
   7     480.5        1.2940        0.0002        2.5595        2.5597       1.265721       0.03503
   6     533.0        1.3113        0.0002        2.3617        2.3619       1.050594       0.03461
   5     589.8        1.3370        0.0002        2.1649        2.1651       0.828130       0.03302
   4     651.6        1.3754        0.0002        1.9608        1.9609       0.585522       0.03318
   3     718.7        1.4310        0.0002        1.7593        1.7595       0.328531       0.03230
   2     792.3        1.5097        0.0002        1.5761        1.5762       0.066589       0.03004
   1     891.5        0.0010        0.0147        0.0000        0.0147       0.013670       0.00450
   0    1013.0        0.0011        0.0138        0.0000        0.0138       0.012733       0.00007



 Wavenumbers:  3250. -  4000. cm-1, ATM      1
 LEVEL PRESSURE   UPWARD FLUX   DIFDOWN FLUX  DIRDOWN FLUX  DOWNWARD FLUX   NET FLUX    HEATING RATE
          mb          W/m2          W/m2          W/m2        W/m2          W/m2       degree/day
  51    .06700        0.0130        0.0000        5.9117        5.9117       5.898669       0.00000
  50    .07753        0.0130        0.0000        5.9075        5.9075       5.894480       3.35808
  49    .09103        0.0130        0.0000        5.9050        5.9050       5.892037       1.52677
  48    0.1069        0.0130        0.0000        5.9032        5.9032       5.890171       0.99346
  47    0.1255        0.0130        0.0000        5.9014        5.9014       5.888412       0.79708
  46    0.1487        0.0130        0.0000        5.8995        5.8995       5.886524       0.68848
  45    0.1794        0.0130        0.0000        5.8974        5.8974       5.884375       0.58983
  44    0.2165        0.0130        0.0000        5.8952        5.8952       5.882258       0.48155
  43    0.2613        0.0130        0.0000        5.8931        5.8931       5.880099       0.40696
  42    0.3336        0.0130        0.0000        5.8899        5.8899       5.876941       0.36820
  41    0.4307        0.0130        0.0000        5.8861        5.8861       5.873104       0.33365
  40    0.5894        0.0130        0.0000        5.8803        5.8803       5.867301       0.30857
  39     1.339        0.0130        0.0000        5.8597        5.8597       5.846704       0.23189
  38     1.782        0.0130        0.0000        5.8513        5.8513       5.838279       0.16039
  37     2.292        0.0130        0.0000        5.8431        5.8431       5.830108       0.13533
  36     2.964        0.0130        0.0000        5.8334        5.8334       5.820469       0.12100
  35     3.853        0.0130        0.0000        5.8213        5.8213       5.808293       0.11555
  34     5.035        0.0130        0.0000        5.8052        5.8052       5.792198       0.11498
  33     6.613        0.0130        0.0000        5.7833        5.7834       5.770377       0.11666
  32     8.786        0.0130        0.0000        5.7531        5.7531       5.740175       0.11729
  31     11.80        0.0130        0.0000        5.7090        5.7090       5.696006       0.12366
  30     15.07        0.0130        0.0000        5.6615        5.6615       5.648542       0.12254
  29     18.79        0.0130        0.0000        5.6093        5.6094       5.596406       0.11821
  28     23.16        0.0130        0.0000        5.5524        5.5524       5.539480       0.11008
  27     28.12        0.0129        0.0000        5.4935        5.4935       5.480601       0.10009
  26     33.73        0.0129        0.0000        5.4348        5.4349       5.421912       0.08824
  25     40.54        0.0129        0.0001        5.3707        5.3708       5.357851       0.07948
  24     48.69        0.0129        0.0001        5.2985        5.2985       5.285618       0.07475
  23     57.69        0.0129        0.0001        5.2215        5.2216       5.208679       0.07212
  22     68.43        0.0129        0.0001        5.1318        5.1319       5.119018       0.07048
  21     81.20        0.0129        0.0001        5.0284        5.0285       5.015589       0.06834
  20     96.49        0.0129        0.0001        4.9122        4.9123       4.899455       0.06410
  19     114.6        0.0128        0.0001        4.7780        4.7782       4.765344       0.06262
  18     136.5        0.0128        0.0002        4.6285        4.6287       4.615865       0.05748
  17     162.9        0.0128        0.0002        4.4406        4.4407       4.427952       0.06006
  16     196.4        0.0128        0.0002        4.1548        4.1550       4.142277       0.07191
  15     218.7        0.0127        0.0002        3.9564        3.9566       3.943893       0.07532
  14     243.0        0.0127        0.0002        3.7055        3.7058       3.693052       0.08700
  13     269.0        0.0127        0.0002        3.3399        3.3401       3.327397       0.11862
  12     297.5        0.0127        0.0002        2.8954        2.8956       2.882871       0.13184
  11     328.5        0.0128        0.0002        2.4388        2.4390       2.426257       0.12415
  10     361.9        0.0129        0.0002        2.0269        2.0271       2.014185       0.10426
   9     398.1        0.0131        0.0002        1.6753        1.6755       1.662363       0.08197
   8     437.6        0.0135        0.0002        1.3592        1.3594       1.345837       0.06768
   7     480.5        0.0143        0.0002        1.0616        1.0618       1.047515       0.05859
   6     533.0        0.0158        0.0001        0.7543        0.7544       0.738659       0.04969
   5     589.8        0.0186        0.0001        0.4951        0.4952       0.476662       0.03889
   4     651.6        0.0240        0.0001        0.2943        0.2943       0.270300       0.02822
   3     718.7        0.0348        0.0001        0.1528        0.1529       0.118051       0.01913
   2     792.3        0.0569        0.0000        0.0658        0.0658       0.008973       0.01251
   1     891.5        0.0000        0.0000        0.0000        0.0000       0.000004       0.00076
   0    1013.0        0.0000        0.0000        0.0000        0.0000       0.000001       0.00000



 Wavenumbers:  4000. -  4650. cm-1, ATM      1
 LEVEL PRESSURE   UPWARD FLUX   DIFDOWN FLUX  DIRDOWN FLUX  DOWNWARD FLUX   NET FLUX    HEATING RATE
          mb          W/m2          W/m2          W/m2        W/m2          W/m2       degree/day
  51    .06700        4.4442        0.0000        6.9421        6.9421       2.497896       0.00000
  50    .07753        4.4442        0.0000        6.9421        6.9421       2.497895       0.00079
  49    .09103        4.4442        0.0000        6.9421        6.9421       2.497894       0.00078
  48    0.1069        4.4442        0.0000        6.9421        6.9421       2.497892       0.00076
  47    0.1255        4.4442        0.0000        6.9421        6.9421       2.497891       0.00074
  46    0.1487        4.4442        0.0000        6.9421        6.9421       2.497888       0.00075
  45    0.1794        4.4442        0.0000        6.9421        6.9421       2.497886       0.00077
  44    0.2165        4.4442        0.0000        6.9421        6.9421       2.497882       0.00076
  43    0.2613        4.4442        0.0000        6.9420        6.9420       2.497878       0.00074
  42    0.3336        4.4442        0.0000        6.9420        6.9420       2.497872       0.00076
  41    0.4307        4.4442        0.0000        6.9420        6.9420       2.497863       0.00077
  40    0.5894        4.4442        0.0000        6.9420        6.9420       2.497848       0.00079
  39     1.339        4.4442        0.0000        6.9419        6.9419       2.497759       0.00100
  38     1.782        4.4442        0.0000        6.9418        6.9419       2.497690       0.00132
  37     2.292        4.4442        0.0000        6.9418        6.9418       2.497596       0.00155
  36     2.964        4.4442        0.0000        6.9416        6.9416       2.497457       0.00175
  35     3.853        4.4442        0.0000        6.9414        6.9414       2.497250       0.00196
  34     5.035        4.4442        0.0000        6.9411        6.9411       2.496945       0.00218
  33     6.613        4.4442        0.0000        6.9406        6.9407       2.496497       0.00240
  32     8.786        4.4442        0.0000        6.9399        6.9400       2.495836       0.00257
  31     11.80        4.4441        0.0001        6.9389        6.9389       2.494799       0.00290
  30     15.07        4.4441        0.0001        6.9377        6.9377       2.493586       0.00313
  29     18.79        4.4441        0.0001        6.9362        6.9363       2.492123       0.00332
  28     23.16        4.4441        0.0001        6.9343        6.9345       2.490313       0.00350
  27     28.12        4.4441        0.0001        6.9321        6.9323       2.488131       0.00371
  26     33.73        4.4441        0.0002        6.9294        6.9296       2.485450       0.00403
  25     40.54        4.4442        0.0002        6.9258        6.9260       2.481833       0.00449
  24     48.69        4.4442        0.0002        6.9210        6.9212       2.477041       0.00496
  23     57.69        4.4442        0.0003        6.9154        6.9156       2.471395       0.00529
  22     68.43        4.4443        0.0003        6.9083        6.9087       2.464367       0.00553
  21     81.20        4.4444        0.0004        6.8998        6.9001       2.455758       0.00569
  20     96.49        4.4445        0.0004        6.8894        6.8899       2.445338       0.00575
  19     114.6        4.4448        0.0005        6.8765        6.8770       2.432259       0.00611
  18     136.5        4.4452        0.0006        6.8610        6.8616       2.416431       0.00609
  17     162.9        4.4457        0.0007        6.8417        6.8424       2.396658       0.00632
  16     196.4        4.4468        0.0009        6.8147        6.8155       2.368780       0.00702
  15     218.7        4.4477        0.0010        6.7948        6.7958       2.348147       0.00783
  14     243.0        4.4490        0.0011        6.7698        6.7709       2.321870       0.00911
  13     269.0        4.4511        0.0012        6.7349        6.7360       2.284945       0.01198
  12     297.5        4.4543        0.0013        6.6869        6.6882       2.233911       0.01514
  11     328.5        4.4587        0.0014        6.6194        6.6208       2.162075       0.01953
  10     361.9        4.4647        0.0016        6.5295        6.5310       2.066371       0.02421
   9     398.1        4.4725        0.0017        6.4202        6.4219       1.949426       0.02725
   8     437.6        4.4830        0.0019        6.2962        6.2980       1.814993       0.02874
   7     480.5        4.4978        0.0020        6.1555        6.1575       1.659738       0.03049
   6     533.0        4.5220        0.0022        5.9675        5.9697       1.447704       0.03411
   5     589.8        4.5579        0.0024        5.7368        5.7391       1.181196       0.03956
   4     651.6        4.6119        0.0025        5.4662        5.4688       0.856897       0.04435
   3     718.7        4.6896        0.0027        5.1912        5.1939       0.504244       0.04432
   2     792.3        4.7988        0.0029        4.9395        4.9423       0.143550       0.04137
   1     891.5        0.0035        0.0664        0.0000        0.0664       0.062964       0.00686
   0    1013.0        0.0036        0.0649        0.0000        0.0649       0.061338       0.00011



 Wavenumbers:  4650. -  5150. cm-1, ATM      1
 LEVEL PRESSURE   UPWARD FLUX   DIFDOWN FLUX  DIRDOWN FLUX  DOWNWARD FLUX   NET FLUX    HEATING RATE
          mb          W/m2          W/m2          W/m2        W/m2          W/m2       degree/day
  51    .06700        3.1235        0.0000        6.5710        6.5710       3.447464       0.00000
  50    .07753        3.1235        0.0000        6.5708        6.5708       3.447229       0.18887
  49    .09103        3.1235        0.0000        6.5705        6.5705       3.446935       0.18362
  48    0.1069        3.1235        0.0000        6.5701        6.5701       3.446600       0.17806
  47    0.1255        3.1235        0.0000        6.5697        6.5697       3.446220       0.17238
  46    0.1487        3.1235        0.0000        6.5693        6.5693       3.445746       0.17268
  45    0.1794        3.1235        0.0000        6.5686        6.5686       3.445110       0.17474
  44    0.2165        3.1235        0.0000        6.5679        6.5679       3.444372       0.16788
  43    0.2613        3.1235        0.0000        6.5670        6.5670       3.443519       0.16078
  42    0.3336        3.1235        0.0000        6.5657        6.5657       3.442156       0.15894
  41    0.4307        3.1235        0.0000        6.5640        6.5640       3.440434       0.14971
  40    0.5894        3.1235        0.0000        6.5613        6.5613       3.437818       0.13913
  39     1.339        3.1235        0.0000        6.5516        6.5516       3.428040       0.11008
  38     1.782        3.1235        0.0000        6.5473        6.5473       3.423823       0.08027
  37     2.292        3.1235        0.0000        6.5434        6.5435       3.419936       0.06439
  36     2.964        3.1235        0.0000        6.5395        6.5395       3.415981       0.04965
  35     3.853        3.1235        0.0000        6.5355        6.5356       3.412036       0.03743
  34     5.035        3.1235        0.0000        6.5315        6.5315       3.408032       0.02861
  33     6.613        3.1235        0.0000        6.5271        6.5271       3.403633       0.02351
  32     8.786        3.1235        0.0001        6.5216        6.5216       3.398131       0.02137
  31     11.80        3.1235        0.0001        6.5135        6.5136       3.390039       0.02266
  30     15.07        3.1235        0.0001        6.5041        6.5042       3.380651       0.02424
  29     18.79        3.1235        0.0001        6.4925        6.4927       3.369110       0.02617
  28     23.16        3.1236        0.0002        6.4779        6.4780       3.354482       0.02829
  27     28.12        3.1236        0.0002        6.4599        6.4601       3.336457       0.03064
  26     33.73        3.1237        0.0002        6.4384        6.4386       3.314961       0.03232
  25     40.54        3.1237        0.0003        6.4112        6.4115       3.287743       0.03377
  24     48.69        3.1239        0.0003        6.3775        6.3778       3.253976       0.03494
  23     57.69        3.1240        0.0004        6.3404        6.3408       3.216718       0.03492
  22     68.43        3.1243        0.0004        6.2971        6.2976       3.173299       0.03413
  21     81.20        3.1246        0.0005        6.2483        6.2488       3.124169       0.03246
  20     96.49        3.1251        0.0006        6.1948        6.1954       3.070364       0.02970
  19     114.6        3.1257        0.0007        6.1381        6.1389       3.013134       0.02672
  18     136.5        3.1267        0.0009        6.0790        6.0799       2.953207       0.02304
  17     162.9        3.1279        0.0010        6.0160        6.0171       2.889110       0.02049
  16     196.4        3.1300        0.0012        5.9399        5.9411       2.811109       0.01963
  15     218.7        3.1316        0.0013        5.8896        5.8910       2.759388       0.01964
  14     243.0        3.1337        0.0015        5.8322        5.8337       2.699961       0.02061
  13     269.0        3.1367        0.0016        5.7624        5.7640       2.627318       0.02356
  12     297.5        3.1410        0.0018        5.6767        5.6785       2.537547       0.02663
  11     328.5        3.1468        0.0019        5.5726        5.5745       2.427779       0.02985
  10     361.9        3.1546        0.0021        5.4473        5.4494       2.294853       0.03363
   9     398.1        3.1651        0.0023        5.2995        5.3018       2.136686       0.03685
   8     437.6        3.1792        0.0025        5.1275        5.1299       1.950754       0.03975
   7     480.5        3.1984        0.0026        4.9290        4.9316       1.733172       0.04273
   6     533.0        3.2289        0.0028        4.6794        4.6822       1.453253       0.04503
   5     589.8        3.2718        0.0030        4.4188        4.4218       1.150005       0.04501
   4     651.6        3.3328        0.0032        4.1521        4.1552       0.822433       0.04480
   3     718.7        3.4166        0.0033        3.8929        3.8963       0.479695       0.04307
   2     792.3        3.5297        0.0035        3.6469        3.6504       0.120728       0.04117
   1     891.5        0.0023        0.0440        0.0000        0.0440       0.041662       0.00673
   0    1013.0        0.0024        0.0426        0.0000        0.0426       0.040218       0.00010



 Wavenumbers:  5150. -  6150. cm-1, ATM      1
 LEVEL PRESSURE   UPWARD FLUX   DIFDOWN FLUX  DIRDOWN FLUX  DOWNWARD FLUX   NET FLUX    HEATING RATE
          mb          W/m2          W/m2          W/m2        W/m2          W/m2       degree/day
  51    .06700        7.6806        0.0000       16.4735       16.4735       8.792891       0.00000
  50    .07753        7.6806        0.0000       16.4735       16.4735       8.792857       0.02765
  49    .09103        7.6806        0.0000       16.4734       16.4734       8.792812       0.02814
  48    0.1069        7.6806        0.0000       16.4734       16.4734       8.792758       0.02863
  47    0.1255        7.6806        0.0000       16.4733       16.4733       8.792694       0.02908
  46    0.1487        7.6806        0.0000       16.4732       16.4732       8.792610       0.03063
  45    0.1794        7.6806        0.0000       16.4731       16.4731       8.792491       0.03273
  44    0.2165        7.6806        0.0000       16.4730       16.4730       8.792344       0.03335
  43    0.2613        7.6806        0.0000       16.4728       16.4728       8.792165       0.03379
  42    0.3336        7.6806        0.0000       16.4725       16.4725       8.791859       0.03568
  41    0.4307        7.6806        0.0000       16.4720       16.4720       8.791439       0.03649
  40    0.5894        7.6806        0.0000       16.4713       16.4713       8.790737       0.03732
  39     1.339        7.6806        0.0000       16.4679       16.4679       8.787324       0.03842
  38     1.782        7.6806        0.0001       16.4659       16.4659       8.785322       0.03813
  37     2.292        7.6806        0.0001       16.4635       16.4636       8.783026       0.03802
  36     2.964        7.6806        0.0001       16.4605       16.4606       8.780050       0.03736
  35     3.853        7.6806        0.0001       16.4567       16.4568       8.776187       0.03666
  34     5.035        7.6806        0.0001       16.4516       16.4517       8.771176       0.03580
  33     6.613        7.6806        0.0002       16.4451       16.4453       8.764694       0.03465
  32     8.786        7.6806        0.0003       16.4367       16.4369       8.756351       0.03240
  31     11.80        7.6806        0.0004       16.4254       16.4257       8.745151       0.03136
  30     15.07        7.6806        0.0004       16.4141       16.4146       8.734006       0.02877
  29     18.79        7.6806        0.0006       16.4024       16.4030       8.722415       0.02628
  28     23.16        7.6806        0.0007       16.3900       16.3907       8.710066       0.02388
  27     28.12        7.6806        0.0008       16.3771       16.3779       8.697295       0.02171
  26     33.73        7.6807        0.0010       16.3641       16.3651       8.684436       0.01933
  25     40.54        7.6808        0.0012       16.3502       16.3514       8.670614       0.01715
  24     48.69        7.6809        0.0014       16.3354       16.3368       8.655897       0.01523
  23     57.69        7.6811        0.0017       16.3211       16.3228       8.641704       0.01330
  22     68.43        7.6813        0.0020       16.3062       16.3083       8.626946       0.01160
  21     81.20        7.6816        0.0024       16.2903       16.2927       8.611090       0.01048
  20     96.49        7.6820        0.0029       16.2726       16.2755       8.593445       0.00974
  19     114.6        7.6825        0.0034       16.2521       16.2555       8.572930       0.00958
  18     136.5        7.6832        0.0040       16.2245       16.2286       8.545408       0.01058
  17     162.9        7.6840        0.0048       16.1747       16.1795       8.495551       0.01594
  16     196.4        7.6851        0.0057       16.0518       16.0576       8.372462       0.03098
  15     218.7        7.6860        0.0064       15.8984       15.9047       8.218777       0.05835
  14     243.0        7.6870        0.0070       15.6153       15.6222       7.935235       0.09834
  13     269.0        7.6885        0.0076       15.1390       15.1466       7.458118       0.15477
  12     297.5        7.6905        0.0082       14.5779       14.5861       6.895526       0.16686
  11     328.5        7.6936        0.0087       13.8780       13.8868       6.193166       0.19097
  10     361.9        7.6981        0.0093       13.0814       13.0907       5.392614       0.20255
   9     398.1        7.7046        0.0097       12.2728       12.2826       4.577996       0.18979
   8     437.6        7.7142        0.0102       11.4776       11.4878       3.773565       0.17199
   7     480.5        7.7290        0.0106       10.7300       10.7406       3.011591       0.14965
   6     533.0        7.7555        0.0111       10.0326       10.0437       2.288254       0.11636
   5     589.8        7.7978        0.0118        9.5050        9.5168       1.718950       0.08450
   4     651.6        7.8664        0.0125        9.0814        9.0939       1.227472       0.06721
   3     718.7        7.9722        0.0134        8.7024        8.7158       0.743565       0.06081
   2     792.3        8.1296        0.0143        8.3379        8.3523       0.222667       0.05974
   1     891.5        0.0073        0.1243        0.0000        0.1243       0.117013       0.00899
   0    1013.0        0.0074        0.1226        0.0000        0.1226       0.115266       0.00012



 Wavenumbers:  6150. -  7700. cm-1, ATM      1
 LEVEL PRESSURE   UPWARD FLUX   DIFDOWN FLUX  DIRDOWN FLUX  DOWNWARD FLUX   NET FLUX    HEATING RATE
          mb          W/m2          W/m2          W/m2        W/m2          W/m2       degree/day
  51    .06700       12.0272        0.0000       30.4684       30.4684      18.441165       0.00000
  50    .07753       12.0272        0.0000       30.4683       30.4683      18.441114       0.04144
  49    .09103       12.0272        0.0000       30.4683       30.4683      18.441047       0.04174
  48    0.1069       12.0272        0.0000       30.4682       30.4682      18.440968       0.04202
  47    0.1255       12.0272        0.0000       30.4681       30.4681      18.440875       0.04227
  46    0.1487       12.0272        0.0000       30.4680       30.4680      18.440754       0.04411
  45    0.1794       12.0272        0.0000       30.4678       30.4678      18.440584       0.04669
  44    0.2165       12.0272        0.0000       30.4676       30.4676      18.440376       0.04715
  43    0.2613       12.0272        0.0000       30.4673       30.4673      18.440125       0.04744
  42    0.3336       12.0272        0.0000       30.4669       30.4669      18.439698       0.04974
  41    0.4307       12.0272        0.0000       30.4663       30.4663      18.439117       0.05052
  40    0.5894       12.0272        0.0001       30.4653       30.4653      18.438149       0.05146
  39     1.339       12.0271        0.0002       30.4604       30.4606      18.433466       0.05273
  38     1.782       12.0271        0.0002       30.4576       30.4578      18.430716       0.05235
  37     2.292       12.0270        0.0003       30.4543       30.4546      18.427557       0.05231
  36     2.964       12.0270        0.0004       30.4501       30.4504      18.423450       0.05156
  35     3.853       12.0269        0.0005       30.4445       30.4450      18.418093       0.05084
  34     5.035       12.0268        0.0006       30.4373       30.4379      18.411093       0.05000
  33     6.613       12.0267        0.0008       30.4278       30.4286      18.401945       0.04890
  32     8.786       12.0265        0.0011       30.4154       30.4165      18.389992       0.04642
  31     11.80       12.0262        0.0014       30.3984       30.3998      18.373606       0.04588
  30     15.07       12.0259        0.0018       30.3810       30.3828      18.356892       0.04315
  29     18.79       12.0256        0.0023       30.3623       30.3646      18.338990       0.04059
  28     23.16       12.0252        0.0028       30.3417       30.3445      18.319306       0.03806
  27     28.12       12.0248        0.0034       30.3196       30.3230      18.298204       0.03587
  26     33.73       12.0243        0.0041       30.2965       30.3006      18.276283       0.03296
  25     40.54       12.0238        0.0050       30.2708       30.2757      18.251942       0.03020
  24     48.69       12.0231        0.0060       30.2423       30.2482      18.225160       0.02771
  23     57.69       12.0223        0.0070       30.2139       30.2209      18.198588       0.02491
  22     68.43       12.0214        0.0083       30.1834       30.1917      18.170304       0.02223
  21     81.20       12.0203        0.0099       30.1500       30.1599      18.139564       0.02031
  20     96.49       12.0191        0.0118       30.1126       30.1244      18.105329       0.01889
  19     114.6       12.0175        0.0140       30.0695       30.0835      18.065920       0.01840
  18     136.5       12.0158        0.0166       30.0139       30.0305      18.014725       0.01969
  17     162.9       12.0137        0.0197       29.9225       29.9421      17.928464       0.02757
  16     196.4       12.0111        0.0236       29.7333       29.7570      17.745888       0.04596
  15     218.7       12.0095        0.0262       29.5259       29.5521      17.542554       0.07720
  14     243.0       12.0080        0.0289       29.1375       29.1664      17.158337       0.13326
  13     269.0       12.0071        0.0315       28.3800       28.4115      16.404445       0.24456
  12     297.5       12.0071        0.0340       27.3895       27.4235      15.416408       0.29304
  11     328.5       12.0091        0.0364       26.2257       26.2621      14.253023       0.31632
  10     361.9       12.0142        0.0387       24.8453       24.8840      12.869831       0.34996
   9     398.1       12.0240        0.0407       23.3471       23.3878      11.363738       0.35089
   8     437.6       12.0417        0.0425       21.7966       21.8392       9.797476       0.33488
   7     480.5       12.0731        0.0441       20.1977       20.2418       8.168741       0.31988
   6     533.0       12.1340        0.0458       18.4969       18.5427       6.408659       0.28314
   5     589.8       12.2357        0.0475       16.9754       17.0229       4.787135       0.24069
   4     651.6       12.4043        0.0492       15.6022       15.6514       3.247057       0.21061
   3     718.7       12.6667        0.0511       14.4232       14.4743       1.807600       0.18090
   2     792.3       13.0615        0.0534       13.4386       13.4920       0.430519       0.15794
   1     891.5        0.0109        0.1781        0.0000        0.1781       0.167215       0.02241
   0    1013.0        0.0111        0.1740        0.0000        0.1740       0.162899       0.00030



 Wavenumbers:  7700. -  8050. cm-1, ATM      1
 LEVEL PRESSURE   UPWARD FLUX   DIFDOWN FLUX  DIRDOWN FLUX  DOWNWARD FLUX   NET FLUX    HEATING RATE
          mb          W/m2          W/m2          W/m2        W/m2          W/m2       degree/day
  51    .06700        5.6785        0.0000        7.2006        7.2006       1.522058       0.00000
  50    .07753        5.6785        0.0000        7.2006        7.2006       1.522037       0.01725
  49    .09103        5.6785        0.0000        7.2005        7.2005       1.522010       0.01691
  48    0.1069        5.6785        0.0000        7.2005        7.2005       1.521979       0.01655
  47    0.1255        5.6785        0.0000        7.2005        7.2005       1.521943       0.01620
  46    0.1487        5.6786        0.0000        7.2004        7.2005       1.521898       0.01643
  45    0.1794        5.6786        0.0000        7.2004        7.2004       1.521836       0.01691
  44    0.2165        5.6786        0.0000        7.2003        7.2003       1.521763       0.01659
  43    0.2613        5.6786        0.0000        7.2003        7.2003       1.521677       0.01628
  42    0.3336        5.6786        0.0000        7.2001        7.2001       1.521534       0.01666
  41    0.4307        5.6786        0.0000        7.2000        7.2000       1.521345       0.01647
  40    0.5894        5.6787        0.0000        7.1997        7.1997       1.521035       0.01645
  39     1.339        5.6789        0.0001        7.1984        7.1985       1.519572       0.01648
  38     1.782        5.6791        0.0001        7.1977        7.1978       1.518712       0.01636
  37     2.292        5.6792        0.0001        7.1968        7.1970       1.517718       0.01647
  36     2.964        5.6794        0.0002        7.1957        7.1959       1.516412       0.01639
  35     3.853        5.6797        0.0002        7.1942        7.1944       1.514688       0.01636
  34     5.035        5.6801        0.0003        7.1922        7.1925       1.512399       0.01635
  33     6.613        5.6806        0.0004        7.1896        7.1900       1.509343       0.01634
  32     8.786        5.6813        0.0005        7.1860        7.1865       1.505230       0.01597
  31     11.80        5.6823        0.0006        7.1810        7.1816       1.499355       0.01645
  30     15.07        5.6833        0.0008        7.1755        7.1764       1.493062       0.01625
  29     18.79        5.6845        0.0010        7.1694        7.1705       1.485970       0.01608
  28     23.16        5.6859        0.0013        7.1623        7.1636       1.477711       0.01597
  27     28.12        5.6875        0.0015        7.1542        7.1558       1.468299       0.01600
  26     33.73        5.6893        0.0018        7.1452        7.1471       1.457808       0.01577
  25     40.54        5.6914        0.0022        7.1344        7.1366       1.445194       0.01565
  24     48.69        5.6941        0.0026        7.1215        7.1242       1.430074       0.01565
  23     57.69        5.6970        0.0031        7.1074        7.1106       1.413576       0.01546
  22     68.43        5.7005        0.0037        7.0909        7.0946       1.394077       0.01533
  21     81.20        5.7047        0.0044        7.0713        7.0757       1.371055       0.01521
  20     96.49        5.7097        0.0052        7.0484        7.0536       1.343912       0.01498
  19     114.6        5.7158        0.0062        7.0217        7.0278       1.312080       0.01486
  18     136.5        5.7230        0.0073        6.9906        6.9979       1.274880       0.01430
  17     162.9        5.7318        0.0087        6.9544        6.9631       1.231281       0.01394
  16     196.4        5.7433        0.0104        6.9087        6.9192       1.175808       0.01396
  15     218.7        5.7511        0.0116        6.8794        6.8910       1.139914       0.01363
  14     243.0        5.7596        0.0128        6.8481        6.8609       1.101317       0.01339
  13     269.0        5.7690        0.0142        6.8147        6.8289       1.059831       0.01346
  12     297.5        5.7795        0.0156        6.7791        6.7947       1.015188       0.01324
  11     328.5        5.7912        0.0172        6.7409        6.7581       0.966967       0.01311
  10     361.9        5.8042        0.0189        6.7002        6.7190       0.914798       0.01320
   9     398.1        5.8189        0.0207        6.6563        6.6770       0.858004       0.01323
   8     437.6        5.8356        0.0226        6.6089        6.6315       0.795852       0.01329
   7     480.5        5.8548        0.0247        6.5570        6.5817       0.726862       0.01355
   6     533.0        5.8805        0.0272        6.4915        6.5187       0.638203       0.01426
   5     589.8        5.9110        0.0299        6.4182        6.4482       0.537124       0.01500
   4     651.6        5.9477        0.0328        6.3359        6.3687       0.420975       0.01588
   3     718.7        5.9915        0.0359        6.2441        6.2800       0.288562       0.01664
   2     792.3        6.0429        0.0391        6.1437        6.1829       0.140034       0.01703
   1     891.5        0.0067        0.0956        0.0000        0.0956       0.088939       0.00435
   0    1013.0        0.0068        0.0941        0.0000        0.0941       0.087325       0.00011



 Wavenumbers:  8050. - 12850. cm-1, ATM      1
 LEVEL PRESSURE   UPWARD FLUX   DIFDOWN FLUX  DIRDOWN FLUX  DOWNWARD FLUX   NET FLUX    HEATING RATE
          mb          W/m2          W/m2          W/m2        W/m2          W/m2       degree/day
  51    .06700       73.9191        0.0000      100.8135      100.8135      26.894377       0.00000
  50    .07753       73.9191        0.0000      100.8135      100.8135      26.894377       0.00000
  49    .09103       73.9191        0.0001      100.8134      100.8135      26.894377       0.00000
  48    0.1069       73.9191        0.0001      100.8134      100.8135      26.894377      -0.00000
  47    0.1255       73.9191        0.0002      100.8133      100.8134      26.894377       0.00000
  46    0.1487       73.9190        0.0002      100.8132      100.8134      26.894377       0.00000
  45    0.1794       73.9190        0.0003      100.8131      100.8134      26.894377       0.00000
  44    0.2165       73.9189        0.0004      100.8129      100.8133      26.894377      -0.00000
  43    0.2613       73.9189        0.0005      100.8127      100.8133      26.894377      -0.00000
  42    0.3336       73.9188        0.0007      100.8125      100.8132      26.894377       0.00000
  41    0.4307       73.9187        0.0010      100.8121      100.8130      26.894377       0.00000
  40    0.5894       73.9185        0.0014      100.8115      100.8128      26.894377      -0.00000
  39     1.339       73.9175        0.0034      100.8085      100.8119      26.894377       0.00000
  38     1.782       73.9169        0.0045      100.8068      100.8113      26.894377      -0.00000
  37     2.292       73.9163        0.0059      100.8047      100.8106      26.894377       0.00000
  36     2.964       73.9154        0.0077      100.8021      100.8098      26.894377      -0.00000
  35     3.853       73.9142        0.0100      100.7986      100.8086      26.894377       0.00000
  34     5.035       73.9127        0.0131      100.7940      100.8071      26.894377      -0.00000
  33     6.613       73.9107        0.0173      100.7878      100.8051      26.894377       0.00000
  32     8.786       73.9079        0.0229      100.7794      100.8023      26.894377       0.00000
  31     11.80       73.9040        0.0309      100.7674      100.7984      26.894377       0.00000
  30     15.07       73.8998        0.0396      100.7546      100.7941      26.894377      -0.00000
  29     18.79       73.8950        0.0493      100.7400      100.7893      26.894377      -0.00000
  28     23.16       73.8894        0.0608      100.7230      100.7837      26.894377       0.00000
  27     28.12       73.8830        0.0739      100.7035      100.7773      26.894377       0.00000
  26     33.73       73.8758        0.0885      100.6817      100.7702      26.894377       0.00000
  25     40.54       73.8671        0.1062      100.6552      100.7615      26.894377      -0.00000
  24     48.69       73.8566        0.1276      100.6234      100.7510      26.894377       0.00000
  23     57.69       73.8451        0.1512      100.5883      100.7395      26.894377       0.00000
  22     68.43       73.8313        0.1792      100.5464      100.7257      26.894377       0.00000
  21     81.20       73.8149        0.2127      100.4965      100.7093      26.894377      -0.00000
  20     96.49       73.7953        0.2527      100.4370      100.6897      26.894377       0.00000
  19     114.6       73.7722        0.3003      100.3585      100.6587      26.886542       0.00366
  18     136.5       73.7448        0.3567      100.2634      100.6201      26.875279       0.00433
  17     162.9       73.7123        0.4241      100.1407      100.5647      26.852485       0.00729
  16     196.4       73.6702        0.5116       99.9505      100.4621      26.791853       0.01526
  15     218.7       73.6427        0.5691       99.7889      100.3580      26.715287       0.02907
  14     243.0       73.6135        0.6315       99.5472      100.1787      26.565234       0.05204
  13     269.0       73.5840        0.6989       99.1452       99.8441      26.260126       0.09898
  12     297.5       73.5562        0.7713       98.5975       99.3687      25.812554       0.13274
  11     328.5       73.5332        0.8489       97.8659       98.7148      25.181528       0.17157
  10     361.9       73.5199        0.9316       96.8848       97.8163      24.296396       0.22395
   9     398.1       73.5228        1.0191       95.6330       96.6521      23.129281       0.27191
   8     437.6       73.5536        1.1111       94.0655       95.1765      21.622932       0.32207
   7     480.5       73.6357        1.2065       92.0807       93.2873      19.651562       0.38717
   6     533.0       73.8214        1.3200       89.4449       90.7648      16.943445       0.43565
   5     589.8       74.1514        1.4377       86.5544       87.9921      13.840738       0.46054
   4     651.6       74.7094        1.5593       83.4174       84.9767      10.267278       0.48868
   3     718.7       75.5685        1.6855       80.2037       81.8892       6.320680       0.49598
   2     792.3       76.8207        1.8172       77.0811       78.8982       2.077493       0.48665
   1     891.5        0.2864        1.3794        0.0000        1.3794       1.092967       0.08378
   0    1013.0        0.2894        1.3563        0.0000        1.3563       1.066869       0.00181



 Wavenumbers: 12850. - 16000. cm-1, ATM      1
 LEVEL PRESSURE   UPWARD FLUX   DIFDOWN FLUX  DIRDOWN FLUX  DOWNWARD FLUX   NET FLUX    HEATING RATE
          mb          W/m2          W/m2          W/m2        W/m2          W/m2       degree/day
  51    .06700       52.8106        0.0000       63.1686       63.1686      10.358021       0.00000
  50    .07753       52.8105        0.0001       63.1677       63.1678      10.357237       0.62838
  49    .09103       52.8105        0.0001       63.1666       63.1668      10.356259       0.61126
  48    0.1069       52.8105        0.0002       63.1654       63.1656      10.355144       0.59343
  47    0.1255       52.8105        0.0003       63.1640       63.1644      10.353875       0.57561
  46    0.1487       52.8105        0.0005       63.1623       63.1628      10.352288       0.57814
  45    0.1794       52.8105        0.0006       63.1600       63.1606      10.350158       0.58491
  44    0.2165       52.8105        0.0009       63.1573       63.1581      10.347689       0.56168
  43    0.2613       52.8105        0.0011       63.1542       63.1553      10.344833       0.53821
  42    0.3336       52.8105        0.0015       63.1493       63.1508      10.340269       0.53213
  41    0.4307       52.8107        0.0021       63.1431       63.1452      10.334538       0.49835
  40    0.5894       52.8110        0.0030       63.1338       63.1368      10.325802       0.46457
  39     1.339       52.8145        0.0072       63.0956       63.1028      10.288278       0.42245
  38     1.782       52.8181        0.0097       63.0740       63.0838      10.265690       0.43005
  37     2.292       52.8235        0.0126       63.0477       63.0603      10.236752       0.47928
  36     2.964       52.8328        0.0164       63.0095       63.0259      10.193132       0.54756
  35     3.853       52.8480        0.0214       62.9533       62.9747      10.126663       0.63080
  34     5.035       52.8711        0.0281       62.8725       62.9006      10.029447       0.69447
  33     6.613       52.9035        0.0369       62.7621       62.7990       9.895517       0.71599
  32     8.786       52.9455        0.0489       62.6182       62.6671       9.721585       0.67549
  31     11.80       52.9999        0.0659       62.4284       62.4943       9.494327       0.63625
  30     15.07       53.0516        0.0841       62.2426       62.3267       9.275112       0.56597
  29     18.79       53.1040        0.1047       62.0493       62.1540       9.049979       0.51044
  28     23.16       53.1583        0.1287       61.8424       61.9712       8.812856       0.45852
  27     28.12       53.2122        0.1561       61.6278       61.7839       8.571657       0.41002
  26     33.73       53.2610        0.1867       61.4177       61.6043       8.343336       0.34329
  25     40.54       53.3065        0.2236       61.1983       61.4219       8.115382       0.28280
  24     48.69       53.3483        0.2680       60.9680       61.2360       7.887704       0.23561
  23     57.69       53.3816        0.3168       60.7478       61.0646       7.682991       0.19189
  22     68.43       53.4077        0.3749       60.5202       60.8951       7.487424       0.15374
  21     81.20       53.4199        0.4440       60.2938       60.7379       7.317958       0.11198
  20     96.49       53.4173        0.5265       60.0643       60.5907       7.173490       0.07974
  19     114.6       53.4134        0.6250       59.8078       60.4328       7.019429       0.07194
  18     136.5       53.4013        0.7417       59.5157       60.2574       6.856069       0.06282
  17     162.9       53.3802        0.8803       59.1770       60.0573       6.677148       0.05719
  16     196.4       53.3383        1.0597       58.7604       59.8201       6.481841       0.04916
  15     218.7       53.3057        1.1773       58.4948       59.6721       6.366406       0.04383
  14     243.0       53.2682        1.3049       58.2089       59.5138       6.245635       0.04189
  13     269.0       53.2259        1.4430       57.9006       59.3436       6.117658       0.04152
  12     297.5       53.1794        1.5920       57.5668       59.1587       5.979377       0.04101
  11     328.5       53.1305        1.7526       57.2005       58.9531       5.822595       0.04263
  10     361.9       53.0808        1.9251       56.7963       58.7215       5.640684       0.04603
   9     398.1       53.0321        2.1103       56.3475       58.4578       5.425672       0.05009
   8     437.6       52.9884        2.3084       55.8422       58.1506       5.162239       0.05632
   7     480.5       52.9564        2.5196       55.2625       57.7821       4.825717       0.06609
   6     533.0       52.9421        2.7776       54.4972       57.2747       4.332579       0.07933
   5     589.8       52.9588        3.0524       53.6307       56.6831       3.724253       0.09030
   4     651.6       53.0220        3.3434       52.6606       56.0039       2.981975       0.10151
   3     718.7       53.1420        3.6509       51.6100       55.2609       2.118927       0.10846
   2     792.3       53.3328        3.9749       50.5019       54.4768       1.144004       0.11181
   1     891.5        0.9899        1.8292        0.0000        1.8292       0.839381       0.02592
   0    1013.0        0.9942        1.8123        0.0000        1.8123       0.818069       0.00148



 Wavenumbers: 16000. - 22650. cm-1, ATM      1
 LEVEL PRESSURE   UPWARD FLUX   DIFDOWN FLUX  DIRDOWN FLUX  DOWNWARD FLUX   NET FLUX    HEATING RATE
          mb          W/m2          W/m2          W/m2        W/m2          W/m2       degree/day
  51    .06700       88.3254        0.0000      100.7153      100.7153      12.389934       0.00000
  50    .07753       88.3253        0.0003      100.7147      100.7151      12.389811       0.09871
  49    .09103       88.3251        0.0008      100.7140      100.7148      12.389632       0.11196
  48    0.1069       88.3250        0.0013      100.7131      100.7144      12.389392       0.12767
  47    0.1255       88.3249        0.0018      100.7121      100.7139      12.389071       0.14553
  46    0.1487       88.3247        0.0025      100.7108      100.7133      12.388598       0.17245
  45    0.1794       88.3245        0.0035      100.7089      100.7124      12.387858       0.20304
  44    0.2165       88.3244        0.0047      100.7066      100.7112      12.386855       0.22819
  43    0.2613       88.3242        0.0060      100.7037      100.7097      12.385494       0.25654
  42    0.3336       88.3241        0.0083      100.6987      100.7070      12.382906       0.30168
  41    0.4307       88.3240        0.0113      100.6918      100.7030      12.379006       0.33912
  40    0.5894       88.3243        0.0162      100.6797      100.6959      12.371568       0.39555
  39     1.339       88.3322        0.0393      100.6095      100.6488      12.316624       0.61857
  38     1.782       88.3415        0.0529      100.5585      100.6113      12.269830       0.89087
  37     2.292       88.3567        0.0686      100.4903      100.5588      12.202115       1.12154
  36     2.964       88.3835        0.0892      100.3868      100.4759      12.092461       1.37649
  35     3.853       88.4284        0.1164      100.2306      100.3470      11.918577       1.65019
  34     5.035       88.4975        0.1524      100.0045      100.1569      11.659404       1.85142
  33     6.613       88.5947        0.2005       99.6939       99.8944      11.299716       1.92289
  32     8.786       88.7207        0.2652       99.2881       99.5532      10.832525       1.81440
  31     11.80       88.8826        0.3574       98.7496       99.1070      10.224405       1.70255
  30     15.07       89.0349        0.4560       98.2198       98.6759       9.640965       1.50633
  29     18.79       89.1877        0.5671       97.6651       98.2323       9.044589       1.35217
  28     23.16       89.3439        0.6965       97.0671       97.7636       8.419712       1.20831
  27     28.12       89.4965        0.8438       96.4406       97.2844       7.787850       1.07412
  26     33.73       89.6300        1.0082       95.8179       96.8261       7.196095       0.88972
  25     40.54       89.7481        1.2062       95.1548       96.3610       6.612961       0.72344
  24     48.69       89.8486        1.4440       94.4420       95.8860       6.037427       0.59559
  23     57.69       89.9186        1.7043       93.7416       95.4459       5.527287       0.47818
  22     68.43       89.9586        2.0131       92.9954       95.0084       5.049850       0.37533
  21     81.20       89.9467        2.3797       92.2231       94.6028       4.656091       0.26019
  20     96.49       89.8777        2.8147       91.4110       94.2257       4.348004       0.17004
  19     114.6       89.7683        3.3278       90.5070       93.8348       4.066545       0.13142
  18     136.5       89.6209        3.9312       89.4803       93.4115       3.790567       0.10612
  17     162.9       89.4301        4.6430       88.3022       92.9452       3.515121       0.08804
  16     196.4       89.1484        5.5561       86.8606       92.4168       3.268387       0.06211
  15     218.7       88.9516        6.1497       85.9492       92.0989       3.147271       0.04598
  14     243.0       88.7332        6.7893       84.9789       91.7683       3.035080       0.03891
  13     269.0       88.4921        7.4762       83.9493       91.4255       2.933381       0.03299
  12     297.5       88.2279        8.2112       82.8589       91.0702       2.842294       0.02702
  11     328.5       87.9426        8.9971       81.6982       90.6953       2.752736       0.02435
  10     361.9       87.6364        9.8336       80.4669       90.3005       2.664116       0.02242
   9     398.1       87.3089       10.7229       79.1611       89.8840       2.575104       0.02074
   8     437.6       86.9611       11.6655       77.7777       89.4433       2.482112       0.01988
   7     480.5       86.5939       12.6619       76.3136       88.9755       2.381650       0.01973
   6     533.0       86.1509       13.8688       74.5359       88.4047       2.253797       0.02057
   5     589.8       85.6863       15.1459       72.6469       87.7928       2.106584       0.02185
   4     651.6       85.2035       16.4915       70.6456       87.1370       1.933538       0.02366
   3     718.7       84.7037       17.9037       68.5367       86.4404       1.736657       0.02474
   2     792.3       84.1902       19.3775       66.3287       85.7062       1.515985       0.02531
   1     891.5        5.7946        7.2108        0.0000        7.2108       1.416150       0.00850
   0    1013.0        5.7860        7.1840        0.0000        7.1840       1.398011       0.00126



 Wavenumbers: 22650. - 29000. cm-1, ATM      1
 LEVEL PRESSURE   UPWARD FLUX   DIFDOWN FLUX  DIRDOWN FLUX  DOWNWARD FLUX   NET FLUX    HEATING RATE
          mb          W/m2          W/m2          W/m2        W/m2          W/m2       degree/day
  51    .06700       37.4483        0.0000       38.0063       38.0063       0.557982       0.00000
  50    .07753       37.4482        0.0004       38.0057       38.0061       0.557982       0.00000
  49    .09103       37.4480        0.0009       38.0050       38.0059       0.557982       0.00000
  48    0.1069       37.4477        0.0015       38.0042       38.0057       0.557982      -0.00000
  47    0.1255       37.4475        0.0021       38.0033       38.0054       0.557982       0.00000
  46    0.1487       37.4471        0.0029       38.0022       38.0051       0.557982       0.00000
  45    0.1794       37.4467        0.0041       38.0006       38.0047       0.557982      -0.00000
  44    0.2165       37.4462        0.0054       37.9987       38.0041       0.557982       0.00000
  43    0.2613       37.4455        0.0070       37.9965       38.0035       0.557982      -0.00000
  42    0.3336       37.4445        0.0096       37.9928       38.0025       0.557982       0.00000
  41    0.4307       37.4431        0.0131       37.9880       38.0011       0.557982       0.00000
  40    0.5894       37.4409        0.0188       37.9800       37.9988       0.557982      -0.00000
  39     1.339       37.4302        0.0457       37.9425       37.9882       0.557982       0.00000
  38     1.782       37.4239        0.0615       37.9204       37.9819       0.557982       0.00000
  37     2.292       37.4167        0.0798       37.8949       37.9747       0.557982       0.00000
  36     2.964       37.4072        0.1037       37.8614       37.9652       0.557982       0.00000
  35     3.853       37.3946        0.1354       37.8172       37.9526       0.557982       0.00000
  34     5.035       37.3780        0.1774       37.7586       37.9360       0.557982       0.00000
  33     6.613       37.3557        0.2334       37.6803       37.9137       0.557982       0.00000
  32     8.786       37.3259        0.3088       37.5750       37.8838       0.557982      -0.00000
  31     11.80       37.2832        0.4163       37.4249       37.8412       0.557982       0.00000
  30     15.07       37.2376        0.5314       37.2642       37.7955       0.557982      -0.00000
  29     18.79       37.1862        0.6609       37.0833       37.7442       0.557982      -0.00000
  28     23.16       37.1265        0.8114       36.8730       37.6844       0.557982       0.00000
  27     28.12       37.0585        0.9827       36.6338       37.6165       0.557982       0.00000
  26     33.73       36.9829        1.1732       36.3677       37.5409       0.557982       0.00000
  25     40.54       36.8922        1.4017       36.0486       37.4502       0.557982      -0.00000
  24     48.69       36.7839        1.6746       35.6672       37.3419       0.557982      -0.00000
  23     57.69       36.6661        1.9714       35.2527       37.2241       0.557982      -0.00000
  22     68.43       36.5274        2.3205       34.7649       37.0854       0.557982       0.00000
  21     81.20       36.3646        2.7304       34.1922       36.9226       0.557982       0.00000
  20     96.49       36.1740        3.2102       33.5217       36.7319       0.557982       0.00000
  19     114.6       35.9523        3.7679       32.7424       36.5102       0.557982       0.00000
  18     136.5       35.6959        4.4123       31.8416       36.2539       0.557982      -0.00000
  17     162.9       35.3996        5.1568       30.8008       35.9576       0.557982      -0.00000
  16     196.4       35.0293        6.0866       29.5007       35.5873       0.557982       0.00000
  15     218.7       34.7944        6.6757       28.6767       35.3524       0.557982       0.00000
  14     243.0       34.5463        7.2975       27.8068       35.1043       0.557982      -0.00000
  13     269.0       34.2857        7.9504       26.8933       34.8437       0.557982       0.00000
  12     297.5       34.0133        8.6320       25.9393       34.5713       0.557982      -0.00000
  11     328.5       33.7293        9.3422       24.9451       34.2873       0.557982       0.00000
  10     361.9       33.4351       10.0770       23.9160       33.9930       0.557982      -0.00000
   9     398.1       33.1312       10.8350       22.8541       33.6892       0.557982       0.00000
   8     437.6       32.8190       11.6125       21.7645       33.3770       0.557982      -0.00000
   7     480.5       32.5000       12.4059       20.6521       33.0580       0.557982       0.00000
   6     533.0       32.1281       13.3291       19.3569       32.6860       0.557982      -0.00000
   5     589.8       31.7511       14.2624       18.0467       32.3091       0.557982       0.00000
   4     651.6       31.3721       15.1984       16.7316       31.9300       0.557982      -0.00000
   3     718.7       30.9935       16.1301       15.4214       31.5515       0.557982       0.00000
   2     792.3       30.6187       17.0491       14.1276       31.1767       0.557982      -0.00000
   1     891.5        3.7175        4.2721        0.0000        4.2721       0.554574       0.00029
   0    1013.0        3.6983        4.2529        0.0000        4.2529       0.554574      -0.00000



 Wavenumbers: 29000. - 38000. cm-1, ATM      1
 LEVEL PRESSURE   UPWARD FLUX   DIFDOWN FLUX  DIRDOWN FLUX  DOWNWARD FLUX   NET FLUX    HEATING RATE
          mb          W/m2          W/m2          W/m2        W/m2          W/m2       degree/day
  51    .06700        5.3591        0.0000       13.4026       13.4026       8.043543       0.00000
  50    .07753        5.3588        0.0003       13.3983       13.3986       8.039745       3.04485
  49    .09103        5.3586        0.0007       13.3921       13.3928       8.034225       3.45020
  48    0.1069        5.3583        0.0011       13.3840       13.3851       8.026846       3.92738
  47    0.1255        5.3579        0.0016       13.3733       13.3749       8.017000       4.46388
  46    0.1487        5.3575        0.0022       13.3579       13.3601       8.002555       5.26523
  45    0.1794        5.3569        0.0031       13.3340       13.3371       7.980152       6.15029
  44    0.2165        5.3563        0.0040       13.3024       13.3064       7.950128       6.82993
  43    0.2613        5.3555        0.0052       13.2604       13.2656       7.910066       7.55144
  42    0.3336        5.3544        0.0071       13.1833       13.1904       7.836046       8.63003
  41    0.4307        5.3529        0.0096       13.0729       13.0825       7.729653       9.25064
  40    0.5894        5.3506        0.0135       12.8796       12.8931       7.542569       9.94891
  39     1.339        5.3426        0.0300       11.9165       11.9465       6.603918      10.56751
  38     1.782        5.3397        0.0384       11.4399       11.4784       6.138673       8.85751
  37     2.292        5.3377        0.0474       10.9796       11.0271       5.689366       7.44170
  36     2.964        5.3370        0.0585       10.4786       10.5372       5.200137       6.14130
  35     3.853        5.3388        0.0723        9.9429       10.0152       4.676341       4.97092
  34     5.035        5.3439        0.0894        9.4007        9.4901       4.146219       3.78697
  33     6.613        5.3525        0.1112        8.8752        8.9864       3.633906       2.73883
  32     8.786        5.3642        0.1393        8.3786        8.5178       3.153670       1.86506
  31     11.80        5.3788        0.1779        7.8897        8.0675       2.688727       1.30169
  30     15.07        5.3919        0.2177        7.5108        7.7285       2.336605       0.90911
  29     18.79        5.4046        0.2612        7.1776        7.4388       2.034181       0.68569
  28     23.16        5.4170        0.3102        6.8664        7.1766       1.759623       0.53091
  27     28.12        5.4282        0.3644        6.5780        6.9424       1.514257       0.41711
  26     33.73        5.4355        0.4236        6.3195        6.7430       1.307541       0.31080
  25     40.54        5.4381        0.4934        6.0663        6.5597       1.121575       0.23071
  24     48.69        5.4355        0.5753        5.8128        6.3881       0.952652       0.17481
  23     57.69        5.4271        0.6628        5.5777        6.2405       0.813378       0.13055
  22     68.43        5.4112        0.7642        5.3379        6.1020       0.690882       0.09630
  21     81.20        5.3832        0.8820        5.0965        5.9784       0.595267       0.06318
  20     96.49        5.3419        1.0182        4.8476        5.8658       0.523868       0.03941
  19     114.6        5.2911        1.1728        4.5799        5.7527       0.461538       0.02910
  18     136.5        5.2321        1.3460        4.2891        5.6350       0.402923       0.02254
  17     162.9        5.1649        1.5385        3.9732        5.5117       0.346830       0.01793
  16     196.4        5.0793        1.7700        3.6080        5.3780       0.298660       0.01213
  15     218.7        5.0255        1.9113        3.3898        5.3011       0.275630       0.00874
  14     243.0        4.9698        2.0559        3.1686        5.2244       0.254668       0.00727
  13     269.0        4.9125        2.2025        2.9461        5.1486       0.236112       0.00602
  12     297.5        4.8541        2.3502        2.7239        5.0741       0.219993       0.00478
  11     328.5        4.7955        2.4974        2.5029        5.0003       0.204787       0.00413
  10     361.9        4.7372        2.6432        2.2846        4.9278       0.190520       0.00361
   9     398.1        4.6797        2.7862        2.0708        4.8569       0.177189       0.00311
   8     437.6        4.6235        2.9254        1.8626        4.7880       0.164512       0.00271
   7     480.5        4.5690        3.0595        1.6621        4.7216       0.152629       0.00233
   6     533.0        4.5094        3.2055        1.4437        4.6492       0.139839       0.00206
   5     589.8        4.4534        3.3420        1.2390        4.5810       0.127610       0.00182
   4     651.6        4.4017        3.4674        1.0500        4.5174       0.115776       0.00162
   3     718.7        4.3546        3.5811        0.8778        4.4589       0.104296       0.00144
   2     792.3        4.3127        3.6821        0.7237        4.4058       0.093147       0.00128
   1     891.5        0.4614        0.5472        0.0000        0.5472       0.085802       0.00063
   0    1013.0        0.4561        0.5403        0.0000        0.5403       0.084233       0.00011



 Wavenumbers: 38000. - 50000. cm-1, ATM      1
 LEVEL PRESSURE   UPWARD FLUX   DIFDOWN FLUX  DIRDOWN FLUX  DOWNWARD FLUX   NET FLUX    HEATING RATE
          mb          W/m2          W/m2          W/m2        W/m2          W/m2       degree/day
  51    .06700        0.0051        0.0000        0.8267        0.8267       0.821528       0.00000
  50    .07753        0.0051        0.0001        0.8242        0.8243       0.819196       1.86936
  49    .09103        0.0050        0.0002        0.8207        0.8209       0.815872       2.07705
  48    0.1069        0.0049        0.0002        0.8162        0.8164       0.811514       2.31984
  47    0.1255        0.0048        0.0004        0.8103        0.8106       0.805801       2.59006
  46    0.1487        0.0047        0.0005        0.8018        0.8023       0.797567       3.00143
  45    0.1794        0.0045        0.0007        0.7889        0.7896       0.785013       3.44648
  44    0.2165        0.0044        0.0009        0.7720        0.7729       0.768507       3.75474
  43    0.2613        0.0042        0.0011        0.7500        0.7511       0.746955       4.06246
  42    0.3336        0.0039        0.0015        0.7106        0.7121       0.708267       4.51071
  41    0.4307        0.0035        0.0019        0.6566        0.6584       0.654972       4.63387
  40    0.5894        0.0029        0.0024        0.5680        0.5704       0.567464       4.65357
  39     1.339        0.0015        0.0030        0.2422        0.2452       0.243720       3.64476
  38     1.782        0.0010        0.0026        0.1493        0.1519       0.150889       1.76735
  37     2.292        0.0007        0.0022        0.0924        0.0946       0.093932       0.94336
  36     2.964        0.0005        0.0018        0.0539        0.0557       0.055224       0.48589
  35     3.853        0.0003        0.0013        0.0295        0.0308       0.030502       0.23462
  34     5.035        0.0002        0.0010        0.0154        0.0164       0.016181       0.10230
  33     6.613        0.0001        0.0007        0.0073        0.0080       0.007912       0.04420
  32     8.786        0.0000        0.0004        0.0030        0.0034       0.003390       0.01756
  31     11.80        0.0000        0.0003        0.0010        0.0012       0.001199       0.00613
  30     15.07        0.0000        0.0001        0.0003        0.0005       0.000463       0.00190
  29     18.79        0.0000        0.0001        0.0001        0.0002       0.000182       0.00064
  28     23.16        0.0000        0.0000        0.0000        0.0001       0.000071       0.00022
  27     28.12        0.0000        0.0000        0.0000        0.0000       0.000028       0.00007
  26     33.73        0.0000        0.0000        0.0000        0.0000       0.000011       0.00002
  25     40.54        0.0000        0.0000        0.0000        0.0000       0.000005       0.00001
  24     48.69        0.0000        0.0000        0.0000        0.0000       0.000002       0.00000
  23     57.69        0.0000        0.0000        0.0000        0.0000       0.000001       0.00000
  22     68.43        0.0000        0.0000        0.0000        0.0000       0.000000       0.00000
  21     81.20        0.0000        0.0000        0.0000        0.0000       0.000000       0.00000
  20     96.49        0.0000        0.0000        0.0000        0.0000       0.000000       0.00000
  19     114.6        0.0000        0.0000        0.0000        0.0000       0.000000       0.00000
  18     136.5        0.0000        0.0000        0.0000        0.0000       0.000000       0.00000
  17     162.9        0.0000        0.0000        0.0000        0.0000       0.000000       0.00000
  16     196.4        0.0000        0.0000        0.0000        0.0000       0.000000       0.00000
  15     218.7        0.0000        0.0000        0.0000        0.0000       0.000000       0.00000
  14     243.0        0.0000        0.0000        0.0000        0.0000       0.000000       0.00000
  13     269.0        0.0000        0.0000        0.0000        0.0000       0.000000       0.00000
  12     297.5        0.0000        0.0000        0.0000        0.0000       0.000000       0.00000
  11     328.5        0.0000        0.0000        0.0000        0.0000       0.000000       0.00000
  10     361.9        0.0000        0.0000        0.0000        0.0000       0.000000       0.00000
   9     398.1        0.0000        0.0000        0.0000        0.0000       0.000000       0.00000
   8     437.6        0.0000        0.0000        0.0000        0.0000       0.000000       0.00000
   7     480.5        0.0000        0.0000        0.0000        0.0000       0.000000       0.00000
   6     533.0        0.0000        0.0000        0.0000        0.0000       0.000000       0.00000
   5     589.8        0.0000        0.0000        0.0000        0.0000       0.000000       0.00000
   4     651.6        0.0000        0.0000        0.0000        0.0000       0.000000       0.00000
   3     718.7        0.0000        0.0000        0.0000        0.0000       0.000000       0.00000
   2     792.3        0.0000        0.0000        0.0000        0.0000       0.000000       0.00000
   1     891.5        0.0000        0.0000        0.0000        0.0000       0.000000       0.00000
   0    1013.0        0.0000        0.0000        0.0000        0.0000       0.000000       0.00000



 Wavenumbers:   820. -  2600. cm-1, ATM      1
 LEVEL PRESSURE   UPWARD FLUX   DIFDOWN FLUX  DIRDOWN FLUX  DOWNWARD FLUX   NET FLUX    HEATING RATE
          mb          W/m2          W/m2          W/m2        W/m2          W/m2       degree/day
  51    .06700        0.9409        0.0000        3.8670        3.8670       2.926117       0.00000
  50    .07753        0.9409        0.0000        3.8643        3.8643       2.923400       2.17771
  49    .09103        0.9409        0.0000        3.8635        3.8635       2.922589       0.50640
  48    0.1069        0.9409        0.0000        3.8626        3.8626       2.921699       0.47417
  47    0.1255        0.9409        0.0000        3.8616        3.8616       2.920738       0.43561
  46    0.1487        0.9409        0.0000        3.8605        3.8605       2.919628       0.40439
  45    0.1794        0.9409        0.0000        3.8592        3.8592       2.918293       0.36650
  44    0.2165        0.9409        0.0000        3.8578        3.8578       2.916915       0.31348
  43    0.2613        0.9409        0.0000        3.8564        3.8564       2.915455       0.27524
  42    0.3336        0.9409        0.0000        3.8541        3.8541       2.913224       0.26015
  41    0.4307        0.9409        0.0000        3.8512        3.8512       2.910341       0.25065
  40    0.5894        0.9409        0.0000        3.8465        3.8465       2.905614       0.25136
  39     1.339        0.9409        0.0000        3.8251        3.8251       2.884236       0.24067
  38     1.782        0.9409        0.0000        3.8133        3.8133       2.872422       0.22492
  37     2.292        0.9409        0.0000        3.8003        3.8003       2.859359       0.21636
  36     2.964        0.9409        0.0000        3.7841        3.7841       2.843228       0.20250
  35     3.853        0.9409        0.0000        3.7642        3.7642       2.823311       0.18902
  34     5.035        0.9409        0.0000        3.7395        3.7395       2.798615       0.17641
  33     6.613        0.9409        0.0000        3.7090        3.7090       2.768074       0.16327
  32     8.786        0.9409        0.0000        3.6726        3.6726       2.731674       0.14137
  31     11.80        0.9409        0.0000        3.6320        3.6320       2.691068       0.11368
  30     15.07        0.9410        0.0000        3.6016        3.6016       2.660672       0.07848
  29     18.79        0.9410        0.0000        3.5777        3.5777       2.636760       0.05422
  28     23.16        0.9410        0.0000        3.5564        3.5564       2.615390       0.04132
  27     28.12        0.9410        0.0000        3.5348        3.5348       2.593824       0.03666
  26     33.73        0.9410        0.0000        3.5118        3.5118       2.570769       0.03466
  25     40.54        0.9411        0.0000        3.4849        3.4849       2.543854       0.03339
  24     48.69        0.9411        0.0000        3.4537        3.4537       2.512569       0.03238
  23     57.69        0.9412        0.0000        3.4210        3.4210       2.479858       0.03066
  22     68.43        0.9412        0.0000        3.3844        3.3844       2.443228       0.02880
  21     81.20        0.9413        0.0000        3.3441        3.3441       2.402876       0.02666
  20     96.49        0.9413        0.0000        3.2998        3.2998       2.358445       0.02452
  19     114.6        0.9414        0.0000        3.2506        3.2507       2.309216       0.02299
  18     136.5        0.9416        0.0000        3.1936        3.1936       2.252052       0.02198
  17     162.9        0.9418        0.0000        3.1181        3.1181       2.176353       0.02420
  16     196.4        0.9422        0.0000        3.0090        3.0090       2.066787       0.02758
  15     218.7        0.9425        0.0000        2.9420        2.9420       1.999504       0.02555
  14     243.0        0.9430        0.0000        2.8605        2.8605       1.917532       0.02843
  13     269.0        0.9437        0.0000        2.7419        2.7420       1.798265       0.03869
  12     297.5        0.9450        0.0000        2.5729        2.5729       1.627930       0.05052
  11     328.5        0.9469        0.0000        2.3602        2.3602       1.413271       0.05837
  10     361.9        0.9499        0.0000        2.1524        2.1524       1.202503       0.05333
   9     398.1        0.9542        0.0000        1.9974        1.9974       1.043254       0.03710
   8     437.6        0.9601        0.0000        1.8835        1.8835       0.923443       0.02562
   7     480.5        0.9685        0.0000        1.7734        1.7735       0.804959       0.02327
   6     533.0        0.9822        0.0000        1.6397        1.6398       0.657530       0.02372
   5     589.8        1.0019        0.0000        1.5068        1.5069       0.504937       0.02265
   4     651.6        1.0310        0.0000        1.3807        1.3807       0.349736       0.02122
   3     718.7        1.0699        0.0000        1.2680        1.2681       0.198146       0.01905
   2     792.3        1.1189        0.0000        1.1659        1.1660       0.047081       0.01733
   1     891.5        0.0006        0.0101        0.0000        0.0101       0.009518       0.00320
   0    1013.0        0.0007        0.0093        0.0000        0.0093       0.008635       0.00006

  Modules and versions used in this calculation:

       rrtmg_sw.1col.f90:  $Revision$                    rrtmg_sw_init.f90:  $Revision$        
     rrtmgsw_cldprop.f90:  $Revision$                  rrtmgsw_cldprmc.f90:  NOT USED          
     rrtmg_sw_reftra.f90:  $Revision$                  rrtmg_sw_spcvrt.f90:  NOT USED          
     rrtmg_sw_spcvmc.f90:  NOT USED                    rrtmgsw_setcoef.f90:  NOT USED          
     rrtmg_sw_taumol.f90:  $Revision$                  rrtmg_sw_vrtqdr.f90:  NOT USED          
                rrtatm.f:  NOT USED                             util_xxx.f:  NOT USED          
                 extra.f:  NOT USED                       rrtmg_sw_k_g.f90:  $Revision$        

