

 Wavenumbers:   820. - 50000. cm-1, ATM      1
 LEVEL PRESSURE   UPWARD FLUX   DIFDOWN FLUX  DIRDOWN FLUX  DOWNWARD FLUX   NET FLUX    HEATING RATE
          mb          W/m2          W/m2          W/m2        W/m2          W/m2       degree/day
  51    .06700      184.9321        0.0000      397.8738      397.8738     212.941683       0.00000
  50    .07753      184.9315        0.0011      397.8577      397.8589     212.927401      11.44772
  49    .09103      184.9307        0.0026      397.8418      397.8444     212.913725       8.54803
  48    0.1069      184.9298        0.0042      397.8230      397.8272     212.897393       8.69351
  47    0.1255      184.9288        0.0061      397.7997      397.8058     212.876971       9.25809
  46    0.1487      184.9276        0.0085      397.7676      397.7762     212.848545      10.36175
  45    0.1794      184.9260        0.0118      397.7205      397.7323     212.806301      11.59694
  44    0.2165      184.9242        0.0157      397.6602      397.6759     212.751718      12.41673
  43    0.2613      184.9221        0.0202      397.5829      397.6031     212.681009      13.32837
  42    0.3336      184.9188        0.0277      397.4449      397.4725     212.553736      14.83871
  41    0.4307      184.9147        0.0374      397.2524      397.2898     212.375117      15.53051
  40    0.5894      184.9086        0.0532      396.9253      396.9785     212.069876      16.23237
  39     1.339      184.8902        0.1235      395.4254      395.5488     210.658618      15.88820
  38     1.782      184.8863        0.1628      394.7288      394.8916     210.005308      12.43796
  37     2.292      184.8878        0.2076      394.0572      394.2647     209.376968      10.40696
  36     2.964      184.8987        0.2657      393.3007      393.5664     208.667699       8.90347
  35     3.853      184.9255        0.3416      392.4318      392.7735     207.847971       7.77937
  34     5.035      184.9733        0.4416      391.4441      391.8856     206.912283       6.68417
  33     6.613      185.0441        0.5739      390.3268      390.9006     205.856520       5.64411
  32     8.786      185.1348        0.7508      389.0624      389.8132     204.678453       4.57518
  31     11.80      185.2440        1.0019      387.5500      388.5519     203.307850       3.83726
  30     15.07      185.3374        1.2692      386.1556      387.4248     202.087422       3.15091
  29     18.79      185.4215        1.5688      384.7502      386.3189     200.897379       2.69819
  28     23.16      185.4953        1.9157      383.2686      385.1843     199.689044       2.33653
  27     28.12      185.5509        2.3091      381.7329      384.0420     198.491149       2.03634
  26     33.73      185.5709        2.7461      380.1982      382.9443     197.373379       1.68060
  25     40.54      185.5463        3.2700      378.5384      381.8084     196.262170       1.37858
  24     48.69      185.4699        3.8959      376.7214      380.6174     195.147498       1.15351
  23     57.69      185.3413        4.5767      374.8959      379.4726     194.131342       0.95249
  22     68.43      185.1403        5.3791      372.8999      378.2790     193.138686       0.78036
  21     81.20      184.8349        6.3245      370.7496      377.0741     192.239241       0.59434
  20     96.49      184.4115        7.4362      368.4056      375.8418     191.430271       0.44649
  19     114.6      183.8906        8.7341      365.7513      374.4853     190.594698       0.39015
  18     136.5      183.2620       10.2405      362.7231      372.9636     189.701627       0.34341
  17     162.9      182.5089       11.9904      359.1748      371.1652     188.656330       0.33412
  16     196.4      181.5116       14.1948      354.5718      368.7667     187.255093       0.35271
  15     218.7      180.8550       15.6036      351.4437      367.0473     186.192273       0.40351
  14     243.0      180.1471       17.1010      347.7111      364.8121     184.665054       0.52969
  13     269.0      179.3881       18.6850      342.9441      361.6291     182.241030       0.78634
  12     297.5      178.5794       20.3532      337.4137      357.7669     179.187532       0.90563
  11     328.5      177.7247       22.1069      331.1302      353.2371     175.512400       0.99926
  10     361.9      176.8285       23.9404      324.1219      348.0623     171.233800       1.08253
   9     398.1      175.8934       25.8527      316.6066      342.4593     166.565825       1.08753
   8     437.6      174.9278       27.8389      308.5895      336.4284     161.500600       1.08298
   7     480.5      173.9454       29.8929      299.9349      329.8278     155.882372       1.10340
   6     533.0      172.8168       32.3215      289.7021      322.0237     149.206862       1.07388
   5     589.8      171.7080       34.8230      279.3388      314.1618     142.453730       1.00239
   4     651.6      170.6610       37.3846      268.7786      306.1632     135.502242       0.95063
   3     718.7      169.7041       39.9968      258.2837      298.2804     128.576337       0.87039
   2     792.3      168.8724       42.6449      248.0774      290.7223     121.849913       0.77145
   1     891.5      139.5408       86.6274      167.3021      253.9295     114.388636       0.63492
   0    1013.0      138.9581       88.2271      157.3231      245.5502     106.592121       0.54135



 Wavenumbers:  2600. -  3250. cm-1, ATM      1
 LEVEL PRESSURE   UPWARD FLUX   DIFDOWN FLUX  DIRDOWN FLUX  DOWNWARD FLUX   NET FLUX    HEATING RATE
          mb          W/m2          W/m2          W/m2        W/m2          W/m2       degree/day
  51    .06700        0.3957        0.0000        3.5066        3.5066       3.110900       0.00000
  50    .07753        0.3957        0.0000        3.5066        3.5066       3.110892       0.00640
  49    .09103        0.3957        0.0000        3.5066        3.5066       3.110882       0.00627
  48    0.1069        0.3957        0.0000        3.5066        3.5066       3.110871       0.00613
  47    0.1255        0.3957        0.0000        3.5066        3.5066       3.110857       0.00599
  46    0.1487        0.3957        0.0000        3.5066        3.5066       3.110841       0.00607
  45    0.1794        0.3957        0.0000        3.5065        3.5065       3.110818       0.00624
  44    0.2165        0.3957        0.0000        3.5065        3.5065       3.110791       0.00611
  43    0.2613        0.3957        0.0000        3.5065        3.5065       3.110759       0.00598
  42    0.3336        0.3957        0.0000        3.5064        3.5064       3.110707       0.00615
  41    0.4307        0.3957        0.0000        3.5064        3.5064       3.110636       0.00618
  40    0.5894        0.3957        0.0000        3.5062        3.5062       3.110517       0.00633
  39     1.339        0.3957        0.0000        3.5055        3.5055       3.109818       0.00787
  38     1.782        0.3957        0.0000        3.5050        3.5050       3.109287       0.01011
  37     2.292        0.3957        0.0000        3.5043        3.5043       3.108594       0.01147
  36     2.964        0.3957        0.0000        3.5033        3.5033       3.107603       0.01245
  35     3.853        0.3957        0.0000        3.5019        3.5019       3.106226       0.01307
  34     5.035        0.3957        0.0000        3.5001        3.5001       3.104365       0.01329
  33     6.613        0.3957        0.0000        3.4977        3.4977       3.101955       0.01288
  32     8.786        0.3957        0.0000        3.4947        3.4947       3.098984       0.01154
  31     11.80        0.3957        0.0000        3.4911        3.4911       3.095349       0.01018
  30     15.07        0.3957        0.0000        3.4878        3.4878       3.092128       0.00832
  29     18.79        0.3957        0.0000        3.4848        3.4848       3.089064       0.00695
  28     23.16        0.3957        0.0000        3.4816        3.4816       3.085844       0.00623
  27     28.12        0.3957        0.0000        3.4779        3.4779       3.082226       0.00615
  26     33.73        0.3957        0.0000        3.4735        3.4735       3.077759       0.00672
  25     40.54        0.3957        0.0000        3.4671        3.4671       3.071432       0.00785
  24     48.69        0.3957        0.0000        3.4582        3.4583       3.062535       0.00921
  23     57.69        0.3957        0.0000        3.4472        3.4472       3.051485       0.01036
  22     68.43        0.3957        0.0000        3.4329        3.4329       3.037222       0.01121
  21     81.20        0.3957        0.0000        3.4152        3.4152       3.019489       0.01172
  20     96.49        0.3957        0.0000        3.3940        3.3941       2.998338       0.01167
  19     114.6        0.3958        0.0000        3.3692        3.3692       2.973439       0.01163
  18     136.5        0.3958        0.0001        3.3419        3.3420       2.946207       0.01047
  17     162.9        0.3958        0.0001        3.3129        3.3129       2.917110       0.00930
  16     196.4        0.3959        0.0001        3.2793        3.2794       2.883495       0.00846
  15     218.7        0.3960        0.0001        3.2578        3.2578       2.861837       0.00822
  14     243.0        0.3962        0.0001        3.2320        3.2320       2.835899       0.00900
  13     269.0        0.3964        0.0001        3.1968        3.1969       2.800542       0.01147
  12     297.5        0.3968        0.0001        3.1489        3.1491       2.752293       0.01431
  11     328.5        0.3973        0.0001        3.0821        3.0822       2.684858       0.01834
  10     361.9        0.3981        0.0001        2.9902        2.9904       2.592221       0.02344
   9     398.1        0.3993        0.0001        2.8715        2.8716       2.472303       0.02794
   8     437.6        0.4010        0.0001        2.7276        2.7278       2.326790       0.03111
   7     480.5        0.4035        0.0001        2.5595        2.5597       2.156165       0.03351
   6     533.0        0.4077        0.0002        2.3617        2.3619       1.954214       0.03249
   5     589.8        0.4138        0.0002        2.1649        2.1651       1.751331       0.03011
   4     651.6        0.4226        0.0002        1.9608        1.9609       1.538287       0.02913
   3     718.7        0.4350        0.0002        1.7593        1.7595       1.324459       0.02687
   2     792.3        0.4517        0.0002        1.5761        1.5762       1.124475       0.02294
   1     891.5        0.2766        0.2218        0.9741        1.1958       0.919183       0.01747
   0    1013.0        0.3010        0.1997        0.8227        1.0224       0.721440       0.01373



 Wavenumbers:  3250. -  4000. cm-1, ATM      1
 LEVEL PRESSURE   UPWARD FLUX   DIFDOWN FLUX  DIRDOWN FLUX  DOWNWARD FLUX   NET FLUX    HEATING RATE
          mb          W/m2          W/m2          W/m2        W/m2          W/m2       degree/day
  51    .06700        0.0013        0.0000        5.9117        5.9117       5.910349       0.00000
  50    .07753        0.0013        0.0000        5.9075        5.9075       5.906159       3.35808
  49    .09103        0.0013        0.0000        5.9050        5.9050       5.903716       1.52677
  48    0.1069        0.0013        0.0000        5.9032        5.9032       5.901850       0.99346
  47    0.1255        0.0013        0.0000        5.9014        5.9014       5.900092       0.79708
  46    0.1487        0.0013        0.0000        5.8995        5.8995       5.898203       0.68848
  45    0.1794        0.0013        0.0000        5.8974        5.8974       5.896054       0.58983
  44    0.2165        0.0013        0.0000        5.8952        5.8952       5.893937       0.48155
  43    0.2613        0.0013        0.0000        5.8931        5.8931       5.891778       0.40696
  42    0.3336        0.0013        0.0000        5.8899        5.8899       5.888620       0.36820
  41    0.4307        0.0013        0.0000        5.8861        5.8861       5.884783       0.33365
  40    0.5894        0.0013        0.0000        5.8803        5.8803       5.878981       0.30857
  39     1.339        0.0013        0.0000        5.8597        5.8597       5.858383       0.23189
  38     1.782        0.0013        0.0000        5.8513        5.8513       5.849958       0.16039
  37     2.292        0.0013        0.0000        5.8431        5.8431       5.841787       0.13533
  36     2.964        0.0013        0.0000        5.8334        5.8334       5.832148       0.12100
  35     3.853        0.0013        0.0000        5.8213        5.8213       5.819972       0.11555
  34     5.035        0.0013        0.0000        5.8052        5.8052       5.803877       0.11498
  33     6.613        0.0013        0.0000        5.7833        5.7834       5.782056       0.11666
  32     8.786        0.0013        0.0000        5.7531        5.7531       5.751854       0.11729
  31     11.80        0.0013        0.0000        5.7090        5.7090       5.707686       0.12366
  30     15.07        0.0013        0.0000        5.6615        5.6615       5.660221       0.12254
  29     18.79        0.0013        0.0000        5.6093        5.6094       5.608085       0.11821
  28     23.16        0.0013        0.0000        5.5524        5.5524       5.551159       0.11008
  27     28.12        0.0013        0.0000        5.4935        5.4935       5.492280       0.10009
  26     33.73        0.0013        0.0000        5.4348        5.4349       5.433592       0.08824
  25     40.54        0.0013        0.0001        5.3707        5.3708       5.369530       0.07948
  24     48.69        0.0012        0.0001        5.2985        5.2985       5.297297       0.07475
  23     57.69        0.0012        0.0001        5.2215        5.2216       5.220358       0.07212
  22     68.43        0.0012        0.0001        5.1318        5.1319       5.130698       0.07048
  21     81.20        0.0012        0.0001        5.0284        5.0285       5.027269       0.06834
  20     96.49        0.0012        0.0001        4.9122        4.9123       4.911134       0.06410
  19     114.6        0.0012        0.0001        4.7780        4.7782       4.777023       0.06262
  18     136.5        0.0011        0.0002        4.6285        4.6287       4.627545       0.05748
  17     162.9        0.0011        0.0002        4.4406        4.4407       4.439633       0.06006
  16     196.4        0.0011        0.0002        4.1548        4.1550       4.153959       0.07191
  15     218.7        0.0011        0.0002        3.9564        3.9566       3.955578       0.07532
  14     243.0        0.0010        0.0002        3.7055        3.7058       3.704743       0.08700
  13     269.0        0.0010        0.0002        3.3399        3.3401       3.339103       0.11861
  12     297.5        0.0010        0.0002        2.8954        2.8956       2.894611       0.13183
  11     328.5        0.0010        0.0002        2.4388        2.4390       2.438065       0.12413
  10     361.9        0.0010        0.0002        2.0269        2.0271       2.026117       0.10423
   9     398.1        0.0010        0.0002        1.6753        1.6755       1.674512       0.08192
   8     437.6        0.0010        0.0002        1.3592        1.3594       1.358365       0.06759
   7     480.5        0.0010        0.0002        1.0616        1.0618       1.060731       0.05845
   6     533.0        0.0011        0.0001        0.7543        0.7544       0.753290       0.04946
   5     589.8        0.0013        0.0001        0.4951        0.4952       0.493900       0.03850
   4     651.6        0.0017        0.0001        0.2943        0.2943       0.292620       0.02753
   3     718.7        0.0025        0.0001        0.1528        0.1529       0.150369       0.01788
   2     792.3        0.0041        0.0000        0.0658        0.0658       0.061787       0.01016
   1     891.5        0.0001        0.0031        0.0111        0.0142       0.014104       0.00406
   0    1013.0        0.0005        0.0007        0.0010        0.0017       0.001213       0.00090



 Wavenumbers:  4000. -  4650. cm-1, ATM      1
 LEVEL PRESSURE   UPWARD FLUX   DIFDOWN FLUX  DIRDOWN FLUX  DOWNWARD FLUX   NET FLUX    HEATING RATE
          mb          W/m2          W/m2          W/m2        W/m2          W/m2       degree/day
  51    .06700        1.5791        0.0000        6.9421        6.9421       5.362933       0.00000
  50    .07753        1.5791        0.0000        6.9421        6.9421       5.362932       0.00079
  49    .09103        1.5791        0.0000        6.9421        6.9421       5.362931       0.00078
  48    0.1069        1.5791        0.0000        6.9421        6.9421       5.362929       0.00076
  47    0.1255        1.5791        0.0000        6.9421        6.9421       5.362928       0.00074
  46    0.1487        1.5791        0.0000        6.9421        6.9421       5.362926       0.00075
  45    0.1794        1.5791        0.0000        6.9421        6.9421       5.362923       0.00077
  44    0.2165        1.5791        0.0000        6.9421        6.9421       5.362920       0.00076
  43    0.2613        1.5791        0.0000        6.9420        6.9420       5.362916       0.00074
  42    0.3336        1.5791        0.0000        6.9420        6.9420       5.362909       0.00076
  41    0.4307        1.5791        0.0000        6.9420        6.9420       5.362900       0.00077
  40    0.5894        1.5791        0.0000        6.9420        6.9420       5.362885       0.00079
  39     1.339        1.5791        0.0000        6.9419        6.9419       5.362797       0.00100
  38     1.782        1.5791        0.0000        6.9418        6.9419       5.362727       0.00132
  37     2.292        1.5791        0.0000        6.9418        6.9418       5.362634       0.00155
  36     2.964        1.5791        0.0000        6.9416        6.9416       5.362494       0.00175
  35     3.853        1.5791        0.0000        6.9414        6.9414       5.362288       0.00196
  34     5.035        1.5791        0.0000        6.9411        6.9411       5.361983       0.00218
  33     6.613        1.5791        0.0000        6.9406        6.9406       5.361535       0.00239
  32     8.786        1.5791        0.0000        6.9399        6.9400       5.360875       0.00256
  31     11.80        1.5791        0.0000        6.9389        6.9389       5.359841       0.00290
  30     15.07        1.5791        0.0001        6.9377        6.9377       5.358631       0.00312
  29     18.79        1.5791        0.0001        6.9362        6.9363       5.357172       0.00331
  28     23.16        1.5791        0.0001        6.9343        6.9344       5.355369       0.00349
  27     28.12        1.5791        0.0001        6.9321        6.9323       5.353195       0.00369
  26     33.73        1.5790        0.0001        6.9294        6.9296       5.350529       0.00401
  25     40.54        1.5790        0.0002        6.9258        6.9260       5.346933       0.00446
  24     48.69        1.5790        0.0002        6.9210        6.9212       5.342174       0.00493
  23     57.69        1.5790        0.0002        6.9154        6.9156       5.336575       0.00525
  22     68.43        1.5790        0.0003        6.9083        6.9086       5.329615       0.00547
  21     81.20        1.5790        0.0003        6.8998        6.9001       5.321105       0.00562
  20     96.49        1.5790        0.0004        6.8894        6.8898       5.310828       0.00567
  19     114.6        1.5790        0.0004        6.8765        6.8770       5.297963       0.00601
  18     136.5        1.5791        0.0005        6.8610        6.8615       5.282444       0.00597
  17     162.9        1.5792        0.0006        6.8417        6.8423       5.263140       0.00617
  16     196.4        1.5794        0.0007        6.8147        6.8154       5.236062       0.00682
  15     218.7        1.5796        0.0008        6.7948        6.7957       5.216118       0.00757
  14     243.0        1.5799        0.0009        6.7698        6.7707       5.190822       0.00877
  13     269.0        1.5804        0.0010        6.7349        6.7359       5.155438       0.01148
  12     297.5        1.5813        0.0011        6.6869        6.6880       5.106687       0.01446
  11     328.5        1.5825        0.0012        6.6194        6.6206       5.038070       0.01866
  10     361.9        1.5842        0.0013        6.5295        6.5308       4.946624       0.02314
   9     398.1        1.5864        0.0015        6.4202        6.4217       4.835315       0.02593
   8     437.6        1.5893        0.0016        6.2962        6.2977       4.708495       0.02711
   7     480.5        1.5932        0.0017        6.1555        6.1572       4.563956       0.02839
   6     533.0        1.5997        0.0018        5.9675        5.9694       4.369684       0.03125
   5     589.8        1.6091        0.0020        5.7368        5.7387       4.129644       0.03563
   4     651.6        1.6229        0.0021        5.4662        5.4683       3.845458       0.03886
   3     718.7        1.6421        0.0022        5.1912        5.1934       3.551351       0.03696
   2     792.3        1.6676        0.0024        4.9395        4.9419       3.274296       0.03178
   1     891.5        1.0764        0.7542        3.3019        4.0561       2.979644       0.02507
   0    1013.0        1.1161        0.7207        3.0670        3.7877       2.671596       0.02139



 Wavenumbers:  4650. -  5150. cm-1, ATM      1
 LEVEL PRESSURE   UPWARD FLUX   DIFDOWN FLUX  DIRDOWN FLUX  DOWNWARD FLUX   NET FLUX    HEATING RATE
          mb          W/m2          W/m2          W/m2        W/m2          W/m2       degree/day
  51    .06700        1.0812        0.0000        6.5710        6.5710       5.489810       0.00000
  50    .07753        1.0812        0.0000        6.5708        6.5708       5.489574       0.18887
  49    .09103        1.0812        0.0000        6.5705        6.5705       5.489281       0.18362
  48    0.1069        1.0812        0.0000        6.5701        6.5701       5.488946       0.17806
  47    0.1255        1.0812        0.0000        6.5697        6.5697       5.488566       0.17238
  46    0.1487        1.0812        0.0000        6.5693        6.5693       5.488092       0.17268
  45    0.1794        1.0812        0.0000        6.5686        6.5686       5.487456       0.17473
  44    0.2165        1.0812        0.0000        6.5679        6.5679       5.486718       0.16788
  43    0.2613        1.0812        0.0000        6.5670        6.5670       5.485865       0.16078
  42    0.3336        1.0812        0.0000        6.5657        6.5657       5.484501       0.15894
  41    0.4307        1.0812        0.0000        6.5640        6.5640       5.482780       0.14971
  40    0.5894        1.0812        0.0000        6.5613        6.5613       5.480163       0.13913
  39     1.339        1.0812        0.0000        6.5516        6.5516       5.470386       0.11008
  38     1.782        1.0812        0.0000        6.5473        6.5473       5.466170       0.08026
  37     2.292        1.0812        0.0000        6.5434        6.5435       5.462283       0.06438
  36     2.964        1.0812        0.0000        6.5395        6.5395       5.458328       0.04964
  35     3.853        1.0812        0.0000        6.5355        6.5356       5.454386       0.03742
  34     5.035        1.0812        0.0000        6.5315        6.5315       5.450383       0.02859
  33     6.613        1.0812        0.0000        6.5271        6.5271       5.445989       0.02349
  32     8.786        1.0811        0.0001        6.5216        6.5216       5.440493       0.02134
  31     11.80        1.0811        0.0001        6.5135        6.5135       5.432413       0.02262
  30     15.07        1.0811        0.0001        6.5041        6.5042       5.423043       0.02419
  29     18.79        1.0811        0.0001        6.4925        6.4926       5.411525       0.02611
  28     23.16        1.0811        0.0001        6.4779        6.4780       5.396930       0.02822
  27     28.12        1.0811        0.0002        6.4599        6.4600       5.378951       0.03056
  26     33.73        1.0811        0.0002        6.4384        6.4386       5.357514       0.03223
  25     40.54        1.0811        0.0002        6.4112        6.4115       5.330382       0.03366
  24     48.69        1.0811        0.0003        6.3775        6.3778       5.296735       0.03482
  23     57.69        1.0811        0.0003        6.3404        6.3407       5.259631       0.03478
  22     68.43        1.0811        0.0004        6.2971        6.2975       5.216425       0.03397
  21     81.20        1.0811        0.0005        6.2483        6.2487       5.167588       0.03227
  20     96.49        1.0812        0.0005        6.1948        6.1954       5.114187       0.02947
  19     114.6        1.0813        0.0006        6.1381        6.1388       5.057511       0.02646
  18     136.5        1.0814        0.0008        6.0790        6.0798       4.998346       0.02275
  17     162.9        1.0816        0.0009        6.0160        6.0169       4.935308       0.02015
  16     196.4        1.0820        0.0011        5.9399        5.9409       4.858941       0.01922
  15     218.7        1.0823        0.0012        5.8896        5.8908       4.808504       0.01915
  14     243.0        1.0827        0.0013        5.8322        5.8335       4.750741       0.02003
  13     269.0        1.0834        0.0014        5.7624        5.7638       4.680428       0.02281
  12     297.5        1.0844        0.0016        5.6767        5.6783       4.593922       0.02566
  11     328.5        1.0857        0.0017        5.5726        5.5743       4.488569       0.02865
  10     361.9        1.0876        0.0018        5.4473        5.4492       4.361583       0.03213
   9     398.1        1.0901        0.0020        5.2995        5.3015       4.211360       0.03500
   8     437.6        1.0935        0.0021        5.1275        5.1296       4.036077       0.03748
   7     480.5        1.0982        0.0023        4.9290        4.9312       3.833054       0.03987
   6     533.0        1.1056        0.0024        4.6794        4.6818       3.576219       0.04132
   5     589.8        1.1159        0.0026        4.4188        4.4213       3.305428       0.04019
   4     651.6        1.1305        0.0027        4.1521        4.1548       3.024266       0.03845
   3     718.7        1.1502        0.0028        3.8929        3.8958       2.745534       0.03503
   2     792.3        1.1762        0.0029        3.6469        3.6498       2.473599       0.03119
   1     891.5        0.7499        0.5453        2.3821        2.9274       2.177464       0.02520
   0    1013.0        0.7870        0.5134        2.1582        2.6716       1.884643       0.02033



 Wavenumbers:  5150. -  6150. cm-1, ATM      1
 LEVEL PRESSURE   UPWARD FLUX   DIFDOWN FLUX  DIRDOWN FLUX  DOWNWARD FLUX   NET FLUX    HEATING RATE
          mb          W/m2          W/m2          W/m2        W/m2          W/m2       degree/day
  51    .06700        2.8243        0.0000       16.4735       16.4735      13.649192       0.00000
  50    .07753        2.8243        0.0000       16.4735       16.4735      13.649158       0.02762
  49    .09103        2.8243        0.0000       16.4734       16.4734      13.649113       0.02811
  48    0.1069        2.8243        0.0000       16.4734       16.4734      13.649059       0.02860
  47    0.1255        2.8243        0.0000       16.4733       16.4733      13.648995       0.02905
  46    0.1487        2.8243        0.0000       16.4732       16.4732      13.648911       0.03060
  45    0.1794        2.8243        0.0000       16.4731       16.4731      13.648792       0.03270
  44    0.2165        2.8243        0.0000       16.4730       16.4730      13.648645       0.03332
  43    0.2613        2.8243        0.0000       16.4728       16.4728      13.648466       0.03377
  42    0.3336        2.8243        0.0000       16.4725       16.4725      13.648160       0.03565
  41    0.4307        2.8243        0.0000       16.4720       16.4720      13.647741       0.03646
  40    0.5894        2.8243        0.0000       16.4713       16.4713      13.647040       0.03729
  39     1.339        2.8243        0.0000       16.4679       16.4679      13.643631       0.03838
  38     1.782        2.8243        0.0000       16.4659       16.4659      13.641631       0.03808
  37     2.292        2.8243        0.0001       16.4635       16.4636      13.639338       0.03796
  36     2.964        2.8243        0.0001       16.4605       16.4606      13.636368       0.03729
  35     3.853        2.8242        0.0001       16.4567       16.4568      13.632513       0.03658
  34     5.035        2.8242        0.0001       16.4516       16.4517      13.627514       0.03571
  33     6.613        2.8242        0.0002       16.4451       16.4452      13.621049       0.03456
  32     8.786        2.8242        0.0002       16.4367       16.4369      13.612732       0.03230
  31     11.80        2.8241        0.0003       16.4254       16.4257      13.601573       0.03124
  30     15.07        2.8240        0.0004       16.4141       16.4145      13.590476       0.02865
  29     18.79        2.8240        0.0005       16.4024       16.4029      13.578943       0.02615
  28     23.16        2.8239        0.0006       16.3900       16.3906      13.566667       0.02374
  27     28.12        2.8239        0.0007       16.3771       16.3778      13.553985       0.02156
  26     33.73        2.8238        0.0009       16.3641       16.3650      13.541236       0.01917
  25     40.54        2.8237        0.0011       16.3502       16.3513      13.527565       0.01696
  24     48.69        2.8236        0.0013       16.3354       16.3366      13.513052       0.01502
  23     57.69        2.8235        0.0015       16.3211       16.3226      13.499103       0.01307
  22     68.43        2.8234        0.0018       16.3062       16.3081      13.484654       0.01136
  21     81.20        2.8233        0.0021       16.2903       16.2925      13.469186       0.01022
  20     96.49        2.8232        0.0025       16.2726       16.2752      13.452019       0.00947
  19     114.6        2.8230        0.0030       16.2521       16.2551      13.432092       0.00930
  18     136.5        2.8228        0.0036       16.2245       16.2281      13.405291       0.01031
  17     162.9        2.8227        0.0043       16.1747       16.1790      13.356332       0.01565
  16     196.4        2.8225        0.0051       16.0518       16.0570      13.234488       0.03067
  15     218.7        2.8224        0.0057       15.8984       15.9040      13.081673       0.05802
  14     243.0        2.8223        0.0062       15.6153       15.6215      12.799171       0.09798
  13     269.0        2.8223        0.0067       15.1390       15.1457      12.323407       0.15434
  12     297.5        2.8225        0.0072       14.5779       14.5851      11.762648       0.16631
  11     328.5        2.8228        0.0077       13.8780       13.8857      11.062864       0.19027
  10     361.9        2.8235        0.0081       13.0814       13.0895      10.265993       0.20162
   9     398.1        2.8247        0.0085       12.2728       12.2813       9.456613       0.18857
   8     437.6        2.8265        0.0088       11.4776       11.4864       8.659849       0.17035
   7     480.5        2.8294        0.0091       10.7300       10.7390       7.909642       0.14734
   6     533.0        2.8347        0.0094       10.0326       10.0420       7.207385       0.11297
   5     589.8        2.8430        0.0099        9.5050        9.5149       6.671894       0.07948
   4     651.6        2.8564        0.0105        9.0814        9.0918       6.235458       0.05968
   3     718.7        2.8764        0.0111        8.7024        8.7136       5.837152       0.05006
   2     792.3        2.9051        0.0119        8.3379        8.3498       5.444703       0.04501
   1     891.5        1.8895        1.2929        5.6166        6.9095       5.020042       0.03614
   0    1013.0        1.9321        1.2473        5.3096        6.5569       4.624785       0.02744



 Wavenumbers:  6150. -  7700. cm-1, ATM      1
 LEVEL PRESSURE   UPWARD FLUX   DIFDOWN FLUX  DIRDOWN FLUX  DOWNWARD FLUX   NET FLUX    HEATING RATE
          mb          W/m2          W/m2          W/m2        W/m2          W/m2       degree/day
  51    .06700        4.2505        0.0000       30.4684       30.4684      26.217925       0.00000
  50    .07753        4.2505        0.0000       30.4683       30.4683      26.217874       0.04144
  49    .09103        4.2505        0.0000       30.4683       30.4683      26.217807       0.04174
  48    0.1069        4.2505        0.0000       30.4682       30.4682      26.217728       0.04202
  47    0.1255        4.2505        0.0000       30.4681       30.4681      26.217635       0.04227
  46    0.1487        4.2505        0.0000       30.4680       30.4680      26.217514       0.04411
  45    0.1794        4.2504        0.0000       30.4678       30.4678      26.217344       0.04669
  44    0.2165        4.2504        0.0000       30.4676       30.4676      26.217136       0.04715
  43    0.2613        4.2504        0.0000       30.4673       30.4673      26.216885       0.04744
  42    0.3336        4.2504        0.0000       30.4669       30.4669      26.216458       0.04974
  41    0.4307        4.2504        0.0000       30.4663       30.4663      26.215877       0.05052
  40    0.5894        4.2504        0.0001       30.4653       30.4653      26.214909       0.05146
  39     1.339        4.2503        0.0001       30.4604       30.4606      26.210226       0.05273
  38     1.782        4.2503        0.0002       30.4576       30.4578      26.207476       0.05235
  37     2.292        4.2502        0.0002       30.4543       30.4546      26.204317       0.05231
  36     2.964        4.2502        0.0003       30.4501       30.4504      26.200210       0.05156
  35     3.853        4.2501        0.0004       30.4445       30.4449      26.194853       0.05084
  34     5.035        4.2500        0.0006       30.4373       30.4378      26.187853       0.05000
  33     6.613        4.2498        0.0007       30.4278       30.4285      26.178706       0.04890
  32     8.786        4.2496        0.0010       30.4154       30.4164      26.166753       0.04642
  31     11.80        4.2493        0.0013       30.3984       30.3997      26.150367       0.04587
  30     15.07        4.2490        0.0017       30.3810       30.3826      26.133654       0.04315
  29     18.79        4.2486        0.0021       30.3623       30.3644      26.115753       0.04059
  28     23.16        4.2482        0.0026       30.3417       30.3443      26.096070       0.03806
  27     28.12        4.2477        0.0031       30.3196       30.3227      26.074970       0.03587
  26     33.73        4.2472        0.0037       30.2965       30.3002      26.053051       0.03296
  25     40.54        4.2465        0.0045       30.2708       30.2752      26.028714       0.03019
  24     48.69        4.2457        0.0054       30.2423       30.2477      26.001937       0.02771
  23     57.69        4.2449        0.0064       30.2139       30.2202      25.975370       0.02490
  22     68.43        4.2438        0.0075       30.1834       30.1909      25.947095       0.02223
  21     81.20        4.2426        0.0090       30.1500       30.1589      25.916365       0.02031
  20     96.49        4.2411        0.0106       30.1126       30.1233      25.882146       0.01889
  19     114.6        4.2394        0.0126       30.0695       30.0821      25.842759       0.01839
  18     136.5        4.2373        0.0150       30.0139       30.0289      25.791601       0.01967
  17     162.9        4.2348        0.0178       29.9225       29.9402      25.705416       0.02755
  16     196.4        4.2317        0.0214       29.7333       29.7547      25.523011       0.04591
  15     218.7        4.2296        0.0237       29.5259       29.5495      25.319863       0.07713
  14     243.0        4.2275        0.0260       29.1375       29.1635      24.935999       0.13314
  13     269.0        4.2254        0.0283       28.3800       28.4083      24.182930       0.24429
  12     297.5        4.2235        0.0305       27.3895       27.4200      23.196564       0.29255
  11     328.5        4.2219        0.0325       26.2257       26.2583      22.036348       0.31546
  10     361.9        4.2210        0.0344       24.8453       24.8798      20.658766       0.34854
   9     398.1        4.2211        0.0361       23.3471       23.3831      19.162011       0.34871
   8     437.6        4.2229        0.0374       21.7966       21.8341      17.611176       0.33158
   7     480.5        4.2276        0.0385       20.1977       20.2362      16.008621       0.31474
   6     533.0        4.2383        0.0396       18.4969       18.5365      14.298209       0.27515
   5     589.8        4.2575        0.0407       16.9754       17.0161      12.758574       0.22853
   4     651.6        4.2901        0.0418       15.6022       15.6439      11.353851       0.19210
   3     718.7        4.3403        0.0430       14.4232       14.4662      10.125947       0.15431
   2     792.3        4.4129        0.0445       13.4386       13.4831       9.070207       0.12108
   1     891.5        2.8187        2.0473        8.7889       10.8362       8.017478       0.08958
   0    1013.0        2.9310        1.9343        8.0201        9.9543       7.023285       0.06903



 Wavenumbers:  7700. -  8050. cm-1, ATM      1
 LEVEL PRESSURE   UPWARD FLUX   DIFDOWN FLUX  DIRDOWN FLUX  DOWNWARD FLUX   NET FLUX    HEATING RATE
          mb          W/m2          W/m2          W/m2        W/m2          W/m2       degree/day
  51    .06700        2.1393        0.0000        7.2006        7.2006       5.061241       0.00000
  50    .07753        2.1393        0.0000        7.2006        7.2006       5.061222       0.01532
  49    .09103        2.1393        0.0000        7.2005        7.2005       5.061198       0.01501
  48    0.1069        2.1393        0.0000        7.2005        7.2005       5.061170       0.01470
  47    0.1255        2.1393        0.0000        7.2005        7.2005       5.061138       0.01438
  46    0.1487        2.1394        0.0000        7.2004        7.2005       5.061098       0.01459
  45    0.1794        2.1394        0.0000        7.2004        7.2004       5.061044       0.01502
  44    0.2165        2.1394        0.0000        7.2003        7.2003       5.060979       0.01473
  43    0.2613        2.1394        0.0000        7.2003        7.2003       5.060902       0.01445
  42    0.3336        2.1394        0.0000        7.2001        7.2001       5.060775       0.01479
  41    0.4307        2.1394        0.0000        7.2000        7.2000       5.060607       0.01463
  40    0.5894        2.1394        0.0000        7.1997        7.1997       5.060332       0.01461
  39     1.339        2.1395        0.0001        7.1984        7.1985       5.059033       0.01463
  38     1.782        2.1395        0.0001        7.1977        7.1978       5.058270       0.01453
  37     2.292        2.1395        0.0001        7.1968        7.1969       5.057387       0.01462
  36     2.964        2.1396        0.0001        7.1957        7.1958       5.056228       0.01455
  35     3.853        2.1397        0.0002        7.1942        7.1944       5.054698       0.01452
  34     5.035        2.1398        0.0002        7.1922        7.1925       5.052667       0.01451
  33     6.613        2.1399        0.0003        7.1896        7.1899       5.049956       0.01449
  32     8.786        2.1401        0.0004        7.1860        7.1864       5.046309       0.01417
  31     11.80        2.1404        0.0005        7.1810        7.1815       5.041103       0.01458
  30     15.07        2.1407        0.0007        7.1755        7.1762       5.035529       0.01439
  29     18.79        2.1410        0.0009        7.1694        7.1703       5.029251       0.01423
  28     23.16        2.1414        0.0011        7.1623        7.1634       5.021947       0.01412
  27     28.12        2.1419        0.0013        7.1542        7.1555       5.013630       0.01414
  26     33.73        2.1424        0.0015        7.1452        7.1468       5.004369       0.01392
  25     40.54        2.1430        0.0018        7.1344        7.1363       4.993248       0.01380
  24     48.69        2.1438        0.0022        7.1215        7.1237       4.979936       0.01378
  23     57.69        2.1446        0.0026        7.1074        7.1101       4.965436       0.01359
  22     68.43        2.1456        0.0031        7.0909        7.0940       4.948330       0.01345
  21     81.20        2.1468        0.0037        7.0713        7.0750       4.928181       0.01331
  20     96.49        2.1483        0.0044        7.0484        7.0528       4.904492       0.01308
  19     114.6        2.1500        0.0052        7.0217        7.0268       4.876799       0.01293
  18     136.5        2.1521        0.0061        6.9906        6.9967       4.844563       0.01240
  17     162.9        2.1547        0.0072        6.9544        6.9616       4.806958       0.01202
  16     196.4        2.1581        0.0087        6.9087        6.9174       4.759389       0.01197
  15     218.7        2.1603        0.0097        6.8794        6.8891       4.728774       0.01162
  14     243.0        2.1628        0.0107        6.8481        6.8588       4.696000       0.01137
  13     269.0        2.1656        0.0118        6.8147        6.8265       4.660946       0.01137
  12     297.5        2.1687        0.0130        6.7791        6.7921       4.623419       0.01113
  11     328.5        2.1721        0.0143        6.7409        6.7553       4.583123       0.01096
  10     361.9        2.1761        0.0157        6.7002        6.7159       4.539816       0.01096
   9     398.1        2.1805        0.0172        6.6563        6.6735       4.492983       0.01091
   8     437.6        2.1856        0.0188        6.6089        6.6277       4.442085       0.01088
   7     480.5        2.1915        0.0205        6.5570        6.5775       4.386017       0.01101
   6     533.0        2.1995        0.0226        6.4915        6.5141       4.314587       0.01149
   5     589.8        2.2091        0.0248        6.4182        6.4430       4.233947       0.01197
   4     651.6        2.2208        0.0272        6.3359        6.3630       4.142274       0.01254
   3     718.7        2.2348        0.0297        6.2441        6.2738       4.038997       0.01298
   2     792.3        2.2514        0.0323        6.1437        6.1760       3.924652       0.01311
   1     891.5        1.4883        1.0065        4.2641        5.2707       3.782321       0.01211
   0    1013.0        1.5105        0.9925        4.1368        5.1293       3.618744       0.01136



 Wavenumbers:  8050. - 12850. cm-1, ATM      1
 LEVEL PRESSURE   UPWARD FLUX   DIFDOWN FLUX  DIRDOWN FLUX  DOWNWARD FLUX   NET FLUX    HEATING RATE
          mb          W/m2          W/m2          W/m2        W/m2          W/m2       degree/day
  51    .06700       27.7410        0.0000      100.8135      100.8135      73.072530       0.00000
  50    .07753       27.7410        0.0000      100.8135      100.8135      73.072530       0.00000
  49    .09103       27.7409        0.0001      100.8134      100.8135      73.072530       0.00000
  48    0.1069       27.7409        0.0001      100.8134      100.8134      73.072530      -0.00000
  47    0.1255       27.7409        0.0001      100.8133      100.8134      73.072530       0.00000
  46    0.1487       27.7408        0.0002      100.8132      100.8134      73.072530      -0.00000
  45    0.1794       27.7408        0.0003      100.8131      100.8133      73.072530       0.00000
  44    0.2165       27.7407        0.0003      100.8129      100.8133      73.072530       0.00000
  43    0.2613       27.7407        0.0004      100.8127      100.8132      73.072530       0.00000
  42    0.3336       27.7405        0.0006      100.8125      100.8131      73.072530      -0.00000
  41    0.4307       27.7404        0.0008      100.8121      100.8129      73.072530       0.00000
  40    0.5894       27.7401        0.0012      100.8115      100.8126      73.072530       0.00000
  39     1.339       27.7388        0.0028      100.8085      100.8113      73.072530      -0.00000
  38     1.782       27.7380        0.0038      100.8068      100.8106      73.072530       0.00000
  37     2.292       27.7372        0.0050      100.8047      100.8097      73.072530       0.00000
  36     2.964       27.7360        0.0064      100.8021      100.8085      73.072530      -0.00000
  35     3.853       27.7345        0.0084      100.7986      100.8070      73.072530      -0.00000
  34     5.035       27.7325        0.0110      100.7940      100.8050      73.072530       0.00000
  33     6.613       27.7298        0.0145      100.7878      100.8023      73.072530       0.00000
  32     8.786       27.7261        0.0193      100.7794      100.7987      73.072530       0.00000
  31     11.80       27.7209        0.0260      100.7674      100.7935      73.072530      -0.00000
  30     15.07       27.7153        0.0333      100.7546      100.7879      73.072530       0.00000
  29     18.79       27.7090        0.0415      100.7400      100.7815      73.072530       0.00000
  28     23.16       27.7016        0.0511      100.7230      100.7741      73.072530       0.00000
  27     28.12       27.6931        0.0621      100.7035      100.7656      73.072530       0.00000
  26     33.73       27.6836        0.0745      100.6817      100.7561      73.072530       0.00000
  25     40.54       27.6721        0.0894      100.6552      100.7446      73.072530      -0.00000
  24     48.69       27.6582        0.1074      100.6234      100.7307      73.072530      -0.00000
  23     57.69       27.6429        0.1272      100.5883      100.7155      73.072530       0.00000
  22     68.43       27.6247        0.1508      100.5464      100.6972      73.072530       0.00000
  21     81.20       27.6030        0.1790      100.4965      100.6755      73.072530       0.00000
  20     96.49       27.5770        0.2126      100.4370      100.6495      73.072530      -0.00000
  19     114.6       27.5462        0.2525      100.3585      100.6110      73.064830       0.00360
  18     136.5       27.5096        0.3000      100.2634      100.5634      73.053749       0.00426
  17     162.9       27.4660        0.3566      100.1407      100.4973      73.031265       0.00719
  16     196.4       27.4094        0.4301       99.9505      100.3806      72.971210       0.01512
  15     218.7       27.3722        0.4784       99.7889      100.2673      72.895144       0.02888
  14     243.0       27.3318        0.5308       99.5472      100.0780      72.746116       0.05169
  13     269.0       27.2887        0.5872       99.1452       99.7324      72.443722       0.09810
  12     297.5       27.2432        0.6478       98.5975       99.2452      72.001990       0.13101
  11     328.5       27.1960        0.7125       97.8659       98.5784      71.382416       0.16846
  10     361.9       27.1482        0.7813       96.8848       97.6661      70.517914       0.21873
   9     398.1       27.1013        0.8539       95.6330       96.4868      69.385535       0.26382
   8     437.6       27.0583        0.9297       94.0655       94.9952      67.936924       0.30972
   7     480.5       27.0248        1.0079       92.0807       93.0887      66.063874       0.36786
   6     533.0       27.0050        1.1001       89.4449       90.5449      63.539923       0.40602
   5     589.8       27.0156        1.1950       86.5544       87.7494      60.733714       0.41653
   4     651.6       27.0752        1.2921       83.4174       84.7095      57.634277       0.42386
   3     718.7       27.1970        1.3923       80.2037       81.5960      54.398956       0.40659
   2     792.3       27.3952        1.4960       77.0811       78.5771      51.181931       0.36896
   1     891.5       17.8573       13.4029       52.0439       65.4468      47.589505       0.30570
   0    1013.0       18.2147       13.0740       48.9739       62.0479      43.833212       0.26082



 Wavenumbers: 12850. - 16000. cm-1, ATM      1
 LEVEL PRESSURE   UPWARD FLUX   DIFDOWN FLUX  DIRDOWN FLUX  DOWNWARD FLUX   NET FLUX    HEATING RATE
          mb          W/m2          W/m2          W/m2        W/m2          W/m2       degree/day
  51    .06700       33.2444        0.0000       63.1686       63.1686      29.924227       0.00000
  50    .07753       33.2443        0.0001       63.1677       63.1678      29.923447       0.62448
  49    .09103       33.2443        0.0001       63.1666       63.1668      29.922477       0.60684
  48    0.1069       33.2443        0.0002       63.1654       63.1656      29.921371       0.58839
  47    0.1255       33.2442        0.0003       63.1640       63.1643      29.920114       0.56986
  46    0.1487       33.2442        0.0004       63.1623       63.1627      29.918547       0.57134
  45    0.1794       33.2441        0.0006       63.1600       63.1606      29.916445       0.57690
  44    0.2165       33.2440        0.0008       63.1573       63.1581      29.914016       0.55268
  43    0.2613       33.2440        0.0010       63.1542       63.1552      29.911214       0.52808
  42    0.3336       33.2439        0.0014       63.1493       63.1507      29.906752       0.52022
  41    0.4307       33.2438        0.0019       63.1431       63.1450      29.901175       0.48495
  40    0.5894       33.2438        0.0027       63.1338       63.1365      29.892733       0.44894
  39     1.339       33.2447        0.0065       63.0956       63.1021      29.857381       0.39799
  38     1.782       33.2461        0.0088       63.0740       63.0828      29.836644       0.39480
  37     2.292       33.2486        0.0114       63.0477       63.0590      29.810387       0.43489
  36     2.964       33.2532        0.0148       63.0095       63.0243      29.771110       0.49304
  35     3.853       33.2610        0.0193       62.9533       62.9726      29.711538       0.56535
  34     5.035       33.2732        0.0253       62.8725       62.8978      29.624625       0.62087
  33     6.613       33.2903        0.0333       62.7621       62.7953      29.505042       0.63929
  32     8.786       33.3124        0.0440       62.6182       62.6622      29.349831       0.60278
  31     11.80       33.3406        0.0593       62.4284       62.4877      29.147094       0.56760
  30     15.07       33.3668        0.0757       62.2426       62.3183      28.951570       0.50480
  29     18.79       33.3927        0.0942       62.0493       62.1435      28.750830       0.45514
  28     23.16       33.4188        0.1158       61.8424       61.9582      28.539462       0.40872
  27     28.12       33.4437        0.1404       61.6278       61.7682      28.324519       0.36539
  26     33.73       33.4645        0.1678       61.4177       61.5855      28.121004       0.30599
  25     40.54       33.4815        0.2010       61.1983       61.3993      27.917721       0.25220
  24     48.69       33.4942        0.2408       60.9680       61.2088      27.714635       0.21016
  23     57.69       33.5004        0.2846       60.7478       61.0324      27.531954       0.17124
  22     68.43       33.4995        0.3366       60.5202       60.8568      27.357236       0.13735
  21     81.20       33.4872        0.3985       60.2938       60.6923      27.205195       0.10047
  20     96.49       33.4619        0.4723       60.0643       60.5366      27.074644       0.07206
  19     114.6       33.4326        0.5604       59.8078       60.3681      26.935545       0.06495
  18     136.5       33.3931        0.6645       59.5157       60.1803      26.787191       0.05705
  17     162.9       33.3416        0.7883       59.1770       59.9653      26.623670       0.05227
  16     196.4       33.2657        0.9483       58.7604       59.7087      26.443049       0.04546
  15     218.7       33.2125        1.0531       58.4948       59.5479      26.335423       0.04086
  14     243.0       33.1532        1.1668       58.2089       59.3757      26.222460       0.03918
  13     269.0       33.0877        1.2897       57.9006       59.1902      26.102496       0.03892
  12     297.5       33.0161        1.4221       57.5668       58.9889      25.972796       0.03847
  11     328.5       32.9392        1.5649       57.2005       58.7654      25.826223       0.03985
  10     361.9       32.8574        1.7181       56.7963       58.5144      25.657009       0.04281
   9     398.1       32.7715        1.8823       56.3475       58.2298      25.458347       0.04628
   8     437.6       32.6830        2.0578       55.8422       57.9000      25.217017       0.05160
   7     480.5       32.5951        2.2447       55.2625       57.5072      24.912123       0.05988
   6     533.0       32.4985        2.4726       54.4972       56.9698      24.471286       0.07092
   5     589.8       32.4090        2.7149       53.6307       56.3456      23.936650       0.07936
   4     651.6       32.3329        2.9708       52.6606       55.6314      23.298469       0.08727
   3     718.7       32.2736        3.2405       51.6100       54.8505      22.576888       0.09068
   2     792.3       32.2357        3.5238       50.5019       54.0257      21.789970       0.09025
   1     891.5       26.5888       12.5597       34.8231       47.3828      20.793939       0.08476
   0    1013.0       26.6594       12.7236       33.5508       46.2744      19.614991       0.08186



 Wavenumbers: 16000. - 22650. cm-1, ATM      1
 LEVEL PRESSURE   UPWARD FLUX   DIFDOWN FLUX  DIRDOWN FLUX  DOWNWARD FLUX   NET FLUX    HEATING RATE
          mb          W/m2          W/m2          W/m2        W/m2          W/m2       degree/day
  51    .06700       74.3995        0.0000      100.7153      100.7153      26.315762       0.00000
  50    .07753       74.3994        0.0003      100.7147      100.7151      26.315645       0.09344
  49    .09103       74.3993        0.0007      100.7140      100.7147      26.315475       0.10598
  48    0.1069       74.3991        0.0012      100.7131      100.7143      26.315248       0.12085
  47    0.1255       74.3989        0.0017      100.7121      100.7139      26.314945       0.13775
  46    0.1487       74.3987        0.0024      100.7108      100.7132      26.314497       0.16323
  45    0.1794       74.3984        0.0034      100.7089      100.7122      26.313797       0.19219
  44    0.2165       74.3982        0.0045      100.7066      100.7110      26.312847       0.21600
  43    0.2613       74.3979        0.0058      100.7037      100.7094      26.311559       0.24283
  42    0.3336       74.3975        0.0079      100.6987      100.7066      26.309110       0.28556
  41    0.4307       74.3971        0.0108      100.6918      100.7025      26.305418       0.32100
  40    0.5894       74.3968        0.0154      100.6797      100.6952      26.298377       0.37441
  39     1.339       74.4007        0.0375      100.6095      100.6471      26.246371       0.58550
  38     1.782       74.4069        0.0505      100.5585      100.6090      26.202081       0.84320
  37     2.292       74.4178        0.0655      100.4903      100.5558      26.137993       1.06148
  36     2.964       74.4378        0.0852      100.3868      100.4720      26.034218       1.30269
  35     3.853       74.4722        0.1112      100.2306      100.3418      25.869675       1.56155
  34     5.035       74.5257        0.1457      100.0045      100.1502      25.624460       1.75171
  33     6.613       74.6013        0.1917       99.6939       99.8855      25.284219       1.81893
  32     8.786       74.6991        0.2535       99.2881       99.5415      24.842416       1.71580
  31     11.80       74.8236        0.3415       98.7496       99.0911      24.267563       1.60941
  30     15.07       74.9393        0.4358       98.2198       98.6556      23.716282       1.42330
  29     18.79       75.0540        0.5419       97.6651       98.2070      23.153027       1.27707
  28     23.16       75.1693        0.6653       97.0671       97.7325      22.563129       1.14067
  27     28.12       75.2796        0.8060       96.4406       97.2465      21.966932       1.01349
  26     33.73       75.3718        0.9628       95.8179       96.7807      21.408858       0.83908
  25     40.54       75.4473        1.1516       95.1548       96.3065      20.859191       0.68192
  24     48.69       75.5034        1.3784       94.4420       95.8204      20.316975       0.56111
  23     57.69       75.5314        1.6264       93.7416       95.3680      19.836623       0.45026
  22     68.43       75.5287        1.9206       92.9954       94.9160      19.387299       0.35323
  21     81.20       75.4760        2.2697       92.2231       94.4929      19.016922       0.24474
  20     96.49       75.3675        2.6838       91.4110       94.0948      18.727280       0.15986
  19     114.6       75.2163        3.1720       90.5070       93.6790      18.462687       0.12355
  18     136.5       75.0226        3.7457       89.4803       93.2260      18.203397       0.09970
  17     162.9       74.7795        4.4220       88.3022       92.7242      17.944776       0.08267
  16     196.4       74.4362        5.2888       86.8606       92.1495      17.713293       0.05827
  15     218.7       74.2013        5.8518       85.9492       91.8010      17.599745       0.04311
  14     243.0       73.9425        6.4582       84.9789       91.4371      17.494630       0.03646
  13     269.0       73.6587        7.1088       83.9493       91.0581      17.399427       0.03088
  12     297.5       73.3492        7.8045       82.8589       90.6634      17.314254       0.02526
  11     328.5       73.0153        8.5477       81.6982       90.2459      17.230631       0.02274
  10     361.9       72.6569        9.3380       80.4669       89.8049      17.148038       0.02090
   9     398.1       72.2731       10.1773       79.1611       89.3384      17.065273       0.01928
   8     437.6       71.8646       11.0659       77.7777       88.8436      16.979060       0.01843
   7     480.5       71.4314       12.0040       76.3136       88.3176      16.886290       0.01822
   6     533.0       70.9057       13.1386       74.5359       87.6745      16.768774       0.01890
   5     589.8       70.3499       14.3371       72.6469       86.9840      16.634179       0.01998
   4     651.6       69.7660       15.5973       70.6456       86.2429      16.476919       0.02151
   3     718.7       69.1546       16.9170       68.5367       85.4537      16.299113       0.02235
   2     792.3       68.5185       18.2908       66.3287       84.6195      16.100968       0.02273
   1     891.5       61.3254       32.1077       45.0523       77.1600      15.834590       0.02267
   0    1013.0       60.6293       33.4797       42.6540       76.1336      15.504369       0.02293



 Wavenumbers: 22650. - 29000. cm-1, ATM      1
 LEVEL PRESSURE   UPWARD FLUX   DIFDOWN FLUX  DIRDOWN FLUX  DOWNWARD FLUX   NET FLUX    HEATING RATE
          mb          W/m2          W/m2          W/m2        W/m2          W/m2       degree/day
  51    .06700       32.2619        0.0000       38.0063       38.0063       5.744402       0.00000
  50    .07753       32.2617        0.0004       38.0057       38.0061       5.744402       0.00000
  49    .09103       32.2615        0.0009       38.0050       38.0059       5.744402      -0.00000
  48    0.1069       32.2612        0.0014       38.0042       38.0056       5.744402       0.00000
  47    0.1255       32.2610        0.0020       38.0033       38.0054       5.744402      -0.00000
  46    0.1487       32.2606        0.0028       38.0022       38.0050       5.744402       0.00000
  45    0.1794       32.2601        0.0039       38.0006       38.0045       5.744402      -0.00000
  44    0.2165       32.2595        0.0052       37.9987       38.0039       5.744402       0.00000
  43    0.2613       32.2588        0.0067       37.9965       38.0032       5.744402       0.00000
  42    0.3336       32.2577        0.0092       37.9928       38.0021       5.744402       0.00000
  41    0.4307       32.2561        0.0126       37.9880       38.0005       5.744402       0.00000
  40    0.5894       32.2537        0.0180       37.9800       37.9981       5.744402      -0.00000
  39     1.339       32.2419        0.0438       37.9425       37.9863       5.744402       0.00000
  38     1.782       32.2350        0.0589       37.9204       37.9794       5.744402      -0.00000
  37     2.292       32.2270        0.0764       37.8949       37.9714       5.744402       0.00000
  36     2.964       32.2165        0.0994       37.8614       37.9609       5.744402       0.00000
  35     3.853       32.2026        0.1298       37.8172       37.9470       5.744402      -0.00000
  34     5.035       32.1842        0.1700       37.7586       37.9286       5.744402       0.00000
  33     6.613       32.1596        0.2237       37.6803       37.9040       5.744402      -0.00000
  32     8.786       32.1266        0.2959       37.5750       37.8710       5.744402       0.00000
  31     11.80       32.0794        0.3990       37.4249       37.8238       5.744402       0.00000
  30     15.07       32.0289        0.5092       37.2642       37.7733       5.744402      -0.00000
  29     18.79       31.9721        0.6332       37.0833       37.7165       5.744402       0.00000
  28     23.16       31.9059        0.7773       36.8730       37.6503       5.744402       0.00000
  27     28.12       31.8306        0.9413       36.6338       37.5750       5.744402       0.00000
  26     33.73       31.7468        1.1235       36.3677       37.4912       5.744402      -0.00000
  25     40.54       31.6462        1.3420       36.0486       37.3906       5.744402      -0.00000
  24     48.69       31.5258        1.6030       35.6672       37.2702       5.744402       0.00000
  23     57.69       31.3948        1.8865       35.2527       37.1392       5.744402       0.00000
  22     68.43       31.2403        2.2198       34.7649       36.9848       5.744402      -0.00000
  21     81.20       31.0587        2.6109       34.1922       36.8031       5.744402       0.00000
  20     96.49       30.8455        3.0682       33.5217       36.5899       5.744402      -0.00000
  19     114.6       30.5970        3.5991       32.7424       36.3414       5.744402       0.00000
  18     136.5       30.3089        4.2117       31.8416       36.0533       5.744402      -0.00000
  17     162.9       29.9745        4.9181       30.8008       35.7189       5.744402       0.00000
  16     196.4       29.5547        5.7984       29.5007       35.2991       5.744402      -0.00000
  15     218.7       29.2872        6.3549       28.6767       35.0316       5.744402       0.00000
  14     243.0       29.0035        6.9412       27.8068       34.7480       5.744402      -0.00000
  13     269.0       28.7042        7.5553       26.8933       34.4486       5.744402      -0.00000
  12     297.5       28.3899        8.1950       25.9393       34.1343       5.744402       0.00000
  11     328.5       28.0604        8.8597       24.9451       33.8048       5.744402      -0.00000
  10     361.9       27.7169        9.5453       23.9160       33.4613       5.744402      -0.00000
   9     398.1       27.3597       10.2500       22.8541       33.1041       5.744402       0.00000
   8     437.6       26.9900       10.9700       21.7645       32.7344       5.744402      -0.00000
   7     480.5       26.6089       11.7012       20.6521       32.3533       5.744402      -0.00000
   6     533.0       26.1599       12.5474       19.3569       31.9043       5.744402       0.00000
   5     589.8       25.6992       13.3969       18.0467       31.4436       5.744402      -0.00000
   4     651.6       25.2291       14.2419       16.7316       30.9735       5.744402       0.00000
   3     718.7       24.7519       15.0748       15.4214       30.4963       5.744402      -0.00000
   2     792.3       24.2703       15.8871       14.1276       30.0147       5.744402       0.00000
   1     891.5       22.2137       19.0459        8.9122       27.9581       5.744390       0.00000
   0    1013.0       21.6826       19.7041        7.7229       27.4270       5.744390       0.00000



 Wavenumbers: 29000. - 38000. cm-1, ATM      1
 LEVEL PRESSURE   UPWARD FLUX   DIFDOWN FLUX  DIRDOWN FLUX  DOWNWARD FLUX   NET FLUX    HEATING RATE
          mb          W/m2          W/m2          W/m2        W/m2          W/m2       degree/day
  51    .06700        4.7189        0.0000       13.4026       13.4026       8.683715       0.00000
  50    .07753        4.7187        0.0003       13.3983       13.3986       8.679917       3.04423
  49    .09103        4.7184        0.0007       13.3921       13.3928       8.674398       3.44948
  48    0.1069        4.7181        0.0011       13.3840       13.3851       8.667022       3.92655
  47    0.1255        4.7177        0.0016       13.3733       13.3749       8.657178       4.46293
  46    0.1487        4.7173        0.0022       13.3579       13.3600       8.642736       5.26408
  45    0.1794        4.7167        0.0030       13.3340       13.3371       8.620338       6.14891
  44    0.2165        4.7160        0.0040       13.3024       13.3064       8.590321       6.82836
  43    0.2613        4.7153        0.0051       13.2604       13.2655       8.550268       7.54964
  42    0.3336        4.7140        0.0070       13.1833       13.1903       8.476267       8.62786
  41    0.4307        4.7125        0.0095       13.0729       13.0824       8.369902       9.24815
  40    0.5894        4.7101        0.0133       12.8796       12.8929       8.182874       9.94593
  39     1.339        4.7014        0.0295       11.9165       11.9460       7.244648      10.56272
  38     1.782        4.6979        0.0378       11.4399       11.4777       6.779762       8.85068
  37     2.292        4.6953        0.0466       10.9796       11.0262       6.330964       7.43327
  36     2.964        4.6935        0.0575       10.4786       10.5361       5.842545       6.13114
  35     3.853        4.6937        0.0709        9.9429       10.0137       5.320014       4.95891
  34     5.035        4.6965        0.0876        9.4007        9.4882       4.791759       3.77364
  33     6.613        4.7019        0.1087        8.8752        8.9840       4.282020       2.72507
  32     8.786        4.7095        0.1360        8.3786        8.5146       3.805130       1.85207
  31     11.80        4.7186        0.1735        7.8897        8.0631       3.344572       1.28942
  30     15.07        4.7262        0.2121        7.5108        7.7229       2.996720       0.89809
  29     18.79        4.7331        0.2542        7.1776        7.4318       2.698739       0.67561
  28     23.16        4.7391        0.3016        6.8664        7.1680       2.428945       0.52170
  27     28.12        4.7434        0.3539        6.5780        6.9319       2.188530       0.40869
  26     33.73        4.7438        0.4109        6.3195        6.7304       1.986588       0.30363
  25     40.54        4.7390        0.4782        6.0663        6.5444       1.805473       0.22469
  24     48.69        4.7282        0.5569        5.8128        6.3697       1.641499       0.16969
  23     57.69        4.7118        0.6409        5.5777        6.2186       1.506761       0.12630
  22     68.43        4.6873        0.7381        5.3379        6.0759       1.388658       0.09285
  21     81.20        4.6504        0.8507        5.0965        5.9472       1.296792       0.06070
  20     96.49        4.6000        0.9808        4.8476        5.8284       1.228428       0.03773
  19     114.6        4.5389        1.1280        4.5799        5.7079       1.168963       0.02777
  18     136.5        4.4682        1.2924        4.2891        5.5815       1.113272       0.02141
  17     162.9        4.3873        1.4744        3.9732        5.4475       1.060232       0.01695
  16     196.4        4.2850        1.6919        3.6080        5.2999       1.014948       0.01140
  15     218.7        4.2205        1.8241        3.3898        5.2139       0.993413       0.00818
  14     243.0        4.1533        1.9586        3.1686        5.1272       0.973897       0.00677
  13     269.0        4.0837        2.0943        2.9461        5.0404       0.956700       0.00558
  12     297.5        4.0121        2.2300        2.7239        4.9539       0.941839       0.00441
  11     328.5        3.9393        2.3643        2.5029        4.8672       0.927897       0.00379
  10     361.9        3.8657        2.4960        2.2846        4.7806       0.914895       0.00329
   9     398.1        3.7916        2.6237        2.0708        4.6945       0.902826       0.00281
   8     437.6        3.7176        2.7465        1.8626        4.6090       0.891430       0.00244
   7     480.5        3.6440        2.8627        1.6621        4.5249       0.880831       0.00208
   6     533.0        3.5607        2.9866        1.4437        4.4302       0.869526       0.00182
   5     589.8        3.4790        3.0988        1.2390        4.3378       0.858829       0.00159
   4     651.6        3.3994        3.1980        1.0500        4.2480       0.848595       0.00140
   3     718.7        3.3220        3.2830        0.8778        4.1608       0.838789       0.00123
   2     792.3        3.2473        3.3530        0.7237        4.0767       0.829391       0.00108
   1     891.5        3.0502        3.4733        0.3952        3.8685       0.818290       0.00094
   0    1013.0        2.9673        3.4869        0.2870        3.7738       0.806540       0.00082



 Wavenumbers: 38000. - 50000. cm-1, ATM      1
 LEVEL PRESSURE   UPWARD FLUX   DIFDOWN FLUX  DIRDOWN FLUX  DOWNWARD FLUX   NET FLUX    HEATING RATE
          mb          W/m2          W/m2          W/m2        W/m2          W/m2       degree/day
  51    .06700        0.0051        0.0000        0.8267        0.8267       0.821528       0.00000
  50    .07753        0.0051        0.0001        0.8242        0.8243       0.819196       1.86936
  49    .09103        0.0050        0.0002        0.8207        0.8209       0.815872       2.07705
  48    0.1069        0.0049        0.0002        0.8162        0.8164       0.811514       2.31984
  47    0.1255        0.0048        0.0004        0.8103        0.8106       0.805801       2.59006
  46    0.1487        0.0047        0.0005        0.8018        0.8023       0.797567       3.00143
  45    0.1794        0.0045        0.0007        0.7889        0.7896       0.785013       3.44648
  44    0.2165        0.0044        0.0009        0.7720        0.7729       0.768507       3.75474
  43    0.2613        0.0042        0.0011        0.7500        0.7511       0.746955       4.06246
  42    0.3336        0.0039        0.0015        0.7106        0.7121       0.708267       4.51071
  41    0.4307        0.0035        0.0019        0.6566        0.6584       0.654972       4.63387
  40    0.5894        0.0029        0.0024        0.5680        0.5704       0.567464       4.65357
  39     1.339        0.0015        0.0030        0.2422        0.2452       0.243720       3.64476
  38     1.782        0.0010        0.0026        0.1493        0.1519       0.150889       1.76735
  37     2.292        0.0007        0.0022        0.0924        0.0946       0.093932       0.94336
  36     2.964        0.0005        0.0018        0.0539        0.0557       0.055224       0.48589
  35     3.853        0.0003        0.0013        0.0295        0.0308       0.030502       0.23462
  34     5.035        0.0002        0.0010        0.0154        0.0164       0.016181       0.10230
  33     6.613        0.0001        0.0007        0.0073        0.0080       0.007912       0.04420
  32     8.786        0.0000        0.0004        0.0030        0.0034       0.003390       0.01756
  31     11.80        0.0000        0.0003        0.0010        0.0012       0.001199       0.00613
  30     15.07        0.0000        0.0001        0.0003        0.0005       0.000463       0.00190
  29     18.79        0.0000        0.0001        0.0001        0.0002       0.000182       0.00064
  28     23.16        0.0000        0.0000        0.0000        0.0001       0.000071       0.00022
  27     28.12        0.0000        0.0000        0.0000        0.0000       0.000028       0.00007
  26     33.73        0.0000        0.0000        0.0000        0.0000       0.000011       0.00002
  25     40.54        0.0000        0.0000        0.0000        0.0000       0.000005       0.00001
  24     48.69        0.0000        0.0000        0.0000        0.0000       0.000002       0.00000
  23     57.69        0.0000        0.0000        0.0000        0.0000       0.000001       0.00000
  22     68.43        0.0000        0.0000        0.0000        0.0000       0.000000       0.00000
  21     81.20        0.0000        0.0000        0.0000        0.0000       0.000000       0.00000
  20     96.49        0.0000        0.0000        0.0000        0.0000       0.000000       0.00000
  19     114.6        0.0000        0.0000        0.0000        0.0000       0.000000       0.00000
  18     136.5        0.0000        0.0000        0.0000        0.0000       0.000000       0.00000
  17     162.9        0.0000        0.0000        0.0000        0.0000       0.000000       0.00000
  16     196.4        0.0000        0.0000        0.0000        0.0000       0.000000       0.00000
  15     218.7        0.0000        0.0000        0.0000        0.0000       0.000000       0.00000
  14     243.0        0.0000        0.0000        0.0000        0.0000       0.000000       0.00000
  13     269.0        0.0000        0.0000        0.0000        0.0000       0.000000       0.00000
  12     297.5        0.0000        0.0000        0.0000        0.0000       0.000000       0.00000
  11     328.5        0.0000        0.0000        0.0000        0.0000       0.000000       0.00000
  10     361.9        0.0000        0.0000        0.0000        0.0000       0.000000       0.00000
   9     398.1        0.0000        0.0000        0.0000        0.0000       0.000000       0.00000
   8     437.6        0.0000        0.0000        0.0000        0.0000       0.000000       0.00000
   7     480.5        0.0000        0.0000        0.0000        0.0000       0.000000       0.00000
   6     533.0        0.0000        0.0000        0.0000        0.0000       0.000000       0.00000
   5     589.8        0.0000        0.0000        0.0000        0.0000       0.000000       0.00000
   4     651.6        0.0000        0.0000        0.0000        0.0000       0.000000       0.00000
   3     718.7        0.0000        0.0000        0.0000        0.0000       0.000000       0.00000
   2     792.3        0.0000        0.0000        0.0000        0.0000       0.000000       0.00000
   1     891.5        0.0000        0.0000        0.0000        0.0000       0.000000       0.00000
   0    1013.0        0.0000        0.0000        0.0000        0.0000       0.000000       0.00000



 Wavenumbers:   820. -  2600. cm-1, ATM      1
 LEVEL PRESSURE   UPWARD FLUX   DIFDOWN FLUX  DIRDOWN FLUX  DOWNWARD FLUX   NET FLUX    HEATING RATE
          mb          W/m2          W/m2          W/m2        W/m2          W/m2       degree/day
  51    .06700        0.2898        0.0000        3.8670        3.8670       3.577170       0.00000
  50    .07753        0.2898        0.0000        3.8643        3.8643       3.574453       2.17770
  49    .09103        0.2898        0.0000        3.8635        3.8635       3.573643       0.50638
  48    0.1069        0.2898        0.0000        3.8626        3.8626       3.572752       0.47415
  47    0.1255        0.2898        0.0000        3.8616        3.8616       3.571791       0.43559
  46    0.1487        0.2898        0.0000        3.8605        3.8605       3.570682       0.40437
  45    0.1794        0.2898        0.0000        3.8592        3.8592       3.569347       0.36648
  44    0.2165        0.2898        0.0000        3.8578        3.8578       3.567969       0.31346
  43    0.2613        0.2898        0.0000        3.8564        3.8564       3.566509       0.27522
  42    0.3336        0.2898        0.0000        3.8541        3.8541       3.564278       0.26013
  41    0.4307        0.2898        0.0000        3.8512        3.8512       3.561395       0.25063
  40    0.5894        0.2898        0.0000        3.8465        3.8465       3.556669       0.25134
  39     1.339        0.2898        0.0000        3.8251        3.8251       3.535293       0.24065
  38     1.782        0.2899        0.0000        3.8133        3.8133       3.523480       0.22490
  37     2.292        0.2899        0.0000        3.8003        3.8003       3.510419       0.21633
  36     2.964        0.2899        0.0000        3.7841        3.7841       3.494290       0.20247
  35     3.853        0.2899        0.0000        3.7642        3.7642       3.474375       0.18900
  34     5.035        0.2899        0.0000        3.7395        3.7395       3.449684       0.17638
  33     6.613        0.2899        0.0000        3.7090        3.7090       3.419148       0.16325
  32     8.786        0.2899        0.0000        3.6726        3.6726       3.382754       0.14134
  31     11.80        0.2899        0.0000        3.6320        3.6320       3.342158       0.11365
  30     15.07        0.2899        0.0000        3.6016        3.6016       3.311773       0.07845
  29     18.79        0.2899        0.0000        3.5777        3.5777       3.287874       0.05419
  28     23.16        0.2899        0.0000        3.5564        3.5564       3.266519       0.04129
  27     28.12        0.2899        0.0000        3.5348        3.5348       3.244971       0.03663
  26     33.73        0.2899        0.0000        3.5118        3.5118       3.221936       0.03463
  25     40.54        0.2899        0.0000        3.4849        3.4849       3.195045       0.03336
  24     48.69        0.2899        0.0000        3.4537        3.4537       3.163789       0.03234
  23     57.69        0.2899        0.0000        3.4210        3.4210       3.131112       0.03063
  22     68.43        0.2899        0.0000        3.3844        3.3844       3.094521       0.02877
  21     81.20        0.2899        0.0000        3.3441        3.3441       3.054216       0.02663
  20     96.49        0.2899        0.0000        3.2998        3.2998       3.009844       0.02449
  19     114.6        0.2900        0.0000        3.2506        3.2506       2.960685       0.02295
  18     136.5        0.2900        0.0000        3.1936        3.1936       2.903620       0.02194
  17     162.9        0.2900        0.0000        3.1181        3.1181       2.828089       0.02414
  16     196.4        0.2901        0.0000        3.0090        3.0090       2.718845       0.02750
  15     218.7        0.2902        0.0000        2.9420        2.9420       2.651799       0.02545
  14     243.0        0.2903        0.0000        2.8605        2.8605       2.570175       0.02831
  13     269.0        0.2905        0.0000        2.7419        2.7420       2.451488       0.03850
  12     297.5        0.2908        0.0000        2.5729        2.5729       2.282105       0.05024
  11     328.5        0.2913        0.0000        2.3602        2.3602       2.068934       0.05796
  10     361.9        0.2920        0.0000        2.1524        2.1524       1.860422       0.05276
   9     398.1        0.2931        0.0000        1.9974        1.9974       1.704345       0.03636
   8     437.6        0.2946        0.0000        1.8835        1.8835       1.588927       0.02468
   7     480.5        0.2968        0.0000        1.7734        1.7734       1.476665       0.02205
   6     533.0        0.3004        0.0000        1.6397        1.6398       1.339362       0.02209
   5     589.8        0.3056        0.0000        1.5068        1.5069       1.201238       0.02050
   4     651.6        0.3134        0.0000        1.3807        1.3807       1.067366       0.01831
   3     718.7        0.3237        0.0000        1.2680        1.2680       0.944379       0.01546
   2     792.3        0.3365        0.0000        1.1659        1.1660       0.829532       0.01317
   1     891.5        0.2058        0.1668        0.7367        0.9035       0.697686       0.01122
   0    1013.0        0.2265        0.1504        0.6191        0.7694       0.542914       0.01075

  Modules and versions used in this calculation:

       rrtmg_sw.1col.f90:  $Revision$                    rrtmg_sw_init.f90:  $Revision$        
     rrtmgsw_cldprop.f90:  $Revision$                  rrtmgsw_cldprmc.f90:  NOT USED          
     rrtmg_sw_reftra.f90:  $Revision$                  rrtmg_sw_spcvrt.f90:  NOT USED          
     rrtmg_sw_spcvmc.f90:  NOT USED                    rrtmgsw_setcoef.f90:  NOT USED          
     rrtmg_sw_taumol.f90:  $Revision$                  rrtmg_sw_vrtqdr.f90:  NOT USED          
                rrtatm.f:  NOT USED                             util_xxx.f:  NOT USED          
                 extra.f:  NOT USED                       rrtmg_sw_k_g.f90:  $Revision$        

