

 Wavenumbers:   820. - 50000. cm-1, ATM      1
 LEVEL PRESSURE   UPWARD FLUX   DIFDOWN FLUX  DIRDOWN FLUX  DOWNWARD FLUX   NET FLUX    HEATING RATE
          mb          W/m2          W/m2          W/m2        W/m2          W/m2       degree/day
  51    .06700      243.9702        0.0000      397.8738      397.8738     153.903580       0.00000
  50    .07753      243.9696        0.0012      397.8577      397.8589     153.889291      11.45331
  49    .09103      243.9689        0.0026      397.8418      397.8445     153.875605       8.55420
  48    0.1069      243.9680        0.0043      397.8230      397.8273     153.859260       8.70038
  47    0.1255      243.9671        0.0063      397.7997      397.8059     153.838822       9.26574
  46    0.1487      243.9660        0.0087      397.7676      397.7763     153.810371      10.37064
  45    0.1794      243.9645        0.0120      397.7205      397.7325     153.768089      11.60726
  44    0.2165      243.9627        0.0160      397.6602      397.6762     153.713456      12.42819
  43    0.2613      243.9608        0.0206      397.5829      397.6035     153.642679      13.34111
  42    0.3336      243.9578        0.0282      397.4449      397.4731     153.515279      14.85355
  41    0.4307      243.9541        0.0382      397.2524      397.2906     153.336470      15.54707
  40    0.5894      243.9487        0.0542      396.9253      396.9796     153.030868      16.25154
  39     1.339      243.9344        0.1261      395.4254      395.5514     151.616994      15.91765
  38     1.782      243.9336        0.1663      394.7288      394.8951     150.961481      12.47990
  37     2.292      243.9393        0.2122      394.0572      394.2693     150.329972      10.45944
  36     2.964      243.9568        0.2717      393.3007      393.5723     149.615593       8.96761
  35     3.853      243.9935        0.3494      392.4318      392.7812     148.787781       7.85609
  34     5.035      244.0558        0.4518      391.4441      391.8958     147.840042       6.77025
  33     6.613      244.1466        0.5873      390.3268      390.9141     146.767512       5.73375
  32     8.786      244.2635        0.7686      389.0624      389.8310     145.567555       4.66020
  31     11.80      244.4077        1.0260      387.5500      388.5760     144.168233       3.91766
  30     15.07      244.5356        1.3000      386.1556      387.4556     142.919985       3.22273
  29     18.79      244.6561        1.6072      384.7502      386.3573     141.701224       2.76331
  28     23.16      244.7692        1.9630      383.2686      385.2316     140.462463       2.39536
  27     28.12      244.8661        2.3667      381.7329      384.0995     139.233422       2.08929
  26     33.73      244.9272        2.8151      380.1982      383.0133     138.086047       1.72511
  25     40.54      244.9461        3.3529      378.5384      381.8913     136.945162       1.41540
  24     48.69      244.9164        3.9956      376.7214      380.7170     135.800630       1.18441
  23     57.69      244.8334        4.6949      374.8959      379.5908     134.757407       0.97786
  22     68.43      244.6806        5.5194      372.8999      378.4193     133.738724       0.80082
  21     81.20      244.4240        6.4912      370.7496      377.2408     132.816850       0.60916
  20     96.49      244.0510        7.6346      368.4056      376.0401     131.989111       0.45685
  19     114.6      243.5869        8.9702      365.7513      374.7215     131.134506       0.39904
  18     136.5      243.0230       10.5215      362.7231      373.2446     130.221619       0.35103
  17     162.9      242.3449       12.3252      359.1748      371.5000     129.155040       0.34092
  16     196.4      241.4401       14.5996      354.5718      369.1714     127.731346       0.35836
  15     218.7      240.8429       16.0546      351.4437      367.4983     126.655376       0.40851
  14     243.0      240.1996       17.6023      347.7111      365.3135     125.113828       0.53466
  13     269.0      239.5125       19.2411      342.9441      362.1852     122.672763       0.79187
  12     297.5      238.7848       20.9687      337.4137      358.3824     119.597678       0.91204
  11     328.5      238.0242       22.7869      331.1302      353.9172     115.893014       1.00729
  10     361.9      237.2392       24.6902      324.1219      348.8121     111.572897       1.09303
   9     398.1      236.4387       26.6780      316.6066      343.2846     106.845900       1.10128
   8     437.6      235.6409       28.7457      308.5895      337.3352     101.694274       1.10145
   7     480.5      234.8792       30.8875      299.9349      330.8224      95.943214       1.12949
   6     533.0      234.0926       33.4249      289.7021      323.1271      89.034429       1.11140
   5     589.8      233.4604       36.0444      279.3388      315.3832      81.922818       1.05560
   4     651.6      233.0961       38.7339      268.7786      307.5125      74.416430       1.02652
   3     718.7      233.0942       41.4844      258.2837      299.7680      66.673849       0.97303
   2     792.3      233.5775       44.2818      248.0774      292.3592      58.781712       0.90514
   1     891.5       81.2384      135.5773        0.2519      135.8293      54.590910       0.35662
   0    1013.0       81.3120      133.5143        0.2369      133.7512      52.439124       0.14941



 Wavenumbers:  2600. -  3250. cm-1, ATM      1
 LEVEL PRESSURE   UPWARD FLUX   DIFDOWN FLUX  DIRDOWN FLUX  DOWNWARD FLUX   NET FLUX    HEATING RATE
          mb          W/m2          W/m2          W/m2        W/m2          W/m2       degree/day
  51    .06700        0.9048        0.0000        3.5066        3.5066       2.601842       0.00000
  50    .07753        0.9048        0.0000        3.5066        3.5066       2.601834       0.00640
  49    .09103        0.9048        0.0000        3.5066        3.5066       2.601824       0.00627
  48    0.1069        0.9048        0.0000        3.5066        3.5066       2.601813       0.00613
  47    0.1255        0.9048        0.0000        3.5066        3.5066       2.601800       0.00599
  46    0.1487        0.9048        0.0000        3.5066        3.5066       2.601783       0.00607
  45    0.1794        0.9048        0.0000        3.5065        3.5065       2.601760       0.00624
  44    0.2165        0.9048        0.0000        3.5065        3.5065       2.601734       0.00611
  43    0.2613        0.9048        0.0000        3.5065        3.5065       2.601702       0.00598
  42    0.3336        0.9048        0.0000        3.5064        3.5064       2.601649       0.00615
  41    0.4307        0.9048        0.0000        3.5064        3.5064       2.601578       0.00618
  40    0.5894        0.9048        0.0000        3.5062        3.5062       2.601459       0.00633
  39     1.339        0.9048        0.0000        3.5055        3.5055       2.600760       0.00787
  38     1.782        0.9048        0.0000        3.5050        3.5050       2.600229       0.01011
  37     2.292        0.9048        0.0000        3.5043        3.5043       2.599537       0.01147
  36     2.964        0.9048        0.0000        3.5033        3.5033       2.598545       0.01245
  35     3.853        0.9048        0.0000        3.5019        3.5019       2.597168       0.01307
  34     5.035        0.9048        0.0000        3.5001        3.5001       2.595307       0.01329
  33     6.613        0.9048        0.0000        3.4977        3.4977       2.592897       0.01288
  32     8.786        0.9048        0.0000        3.4947        3.4947       2.589926       0.01154
  31     11.80        0.9048        0.0000        3.4911        3.4911       2.586290       0.01018
  30     15.07        0.9048        0.0000        3.4878        3.4878       2.583069       0.00832
  29     18.79        0.9048        0.0000        3.4848        3.4848       2.580004       0.00695
  28     23.16        0.9048        0.0000        3.4816        3.4816       2.576782       0.00623
  27     28.12        0.9048        0.0000        3.4779        3.4779       2.573162       0.00615
  26     33.73        0.9048        0.0000        3.4735        3.4735       2.568692       0.00672
  25     40.54        0.9048        0.0000        3.4671        3.4672       2.562360       0.00786
  24     48.69        0.9048        0.0000        3.4582        3.4583       2.553456       0.00921
  23     57.69        0.9048        0.0000        3.4472        3.4472       2.542395       0.01037
  22     68.43        0.9048        0.0000        3.4329        3.4329       2.528118       0.01122
  21     81.20        0.9049        0.0000        3.4152        3.4152       2.510363       0.01173
  20     96.49        0.9049        0.0000        3.3940        3.3941       2.489182       0.01169
  19     114.6        0.9050        0.0000        3.3692        3.3692       2.464240       0.01165
  18     136.5        0.9051        0.0001        3.3419        3.3420       2.436947       0.01049
  17     162.9        0.9052        0.0001        3.3129        3.3129       2.407758       0.00933
  16     196.4        0.9054        0.0001        3.2793        3.2794       2.373977       0.00850
  15     218.7        0.9057        0.0001        3.2578        3.2578       2.352158       0.00828
  14     243.0        0.9061        0.0001        3.2320        3.2321       2.325968       0.00908
  13     269.0        0.9067        0.0001        3.1968        3.1969       2.290202       0.01160
  12     297.5        0.9077        0.0001        3.1489        3.1491       2.241322       0.01450
  11     328.5        0.9093        0.0001        3.0821        3.0822       2.172928       0.01860
  10     361.9        0.9115        0.0001        2.9902        2.9904       2.078870       0.02380
   9     398.1        0.9147        0.0001        2.8715        2.8716       1.956886       0.02842
   8     437.6        0.9194        0.0002        2.7276        2.7278       1.808375       0.03175
   7     480.5        0.9265        0.0002        2.5595        2.5597       1.633206       0.03440
   6     533.0        0.9384        0.0002        2.3617        2.3619       1.423524       0.03373
   5     589.8        0.9559        0.0002        2.1649        2.1651       1.209171       0.03182
   4     651.6        0.9821        0.0002        1.9608        1.9609       0.978858       0.03150
   3     718.7        1.0196        0.0002        1.7593        1.7595       0.739925       0.03003
   2     792.3        1.0721        0.0002        1.5761        1.5762       0.504127       0.02704
   1     891.5        0.0268        0.4168        0.0015        0.4182       0.391480       0.00959
   0    1013.0        0.0293        0.3748        0.0012        0.3760       0.346715       0.00311



 Wavenumbers:  3250. -  4000. cm-1, ATM      1
 LEVEL PRESSURE   UPWARD FLUX   DIFDOWN FLUX  DIRDOWN FLUX  DOWNWARD FLUX   NET FLUX    HEATING RATE
          mb          W/m2          W/m2          W/m2        W/m2          W/m2       degree/day
  51    .06700        0.0071        0.0000        5.9117        5.9117       5.904589       0.00000
  50    .07753        0.0071        0.0000        5.9075        5.9075       5.900399       3.35808
  49    .09103        0.0071        0.0000        5.9050        5.9050       5.897956       1.52677
  48    0.1069        0.0071        0.0000        5.9032        5.9032       5.896090       0.99346
  47    0.1255        0.0071        0.0000        5.9014        5.9014       5.894332       0.79708
  46    0.1487        0.0071        0.0000        5.8995        5.8995       5.892443       0.68848
  45    0.1794        0.0071        0.0000        5.8974        5.8974       5.890294       0.58983
  44    0.2165        0.0071        0.0000        5.8952        5.8952       5.888177       0.48155
  43    0.2613        0.0071        0.0000        5.8931        5.8931       5.886018       0.40696
  42    0.3336        0.0071        0.0000        5.8899        5.8899       5.882860       0.36820
  41    0.4307        0.0071        0.0000        5.8861        5.8861       5.879023       0.33365
  40    0.5894        0.0071        0.0000        5.8803        5.8803       5.873221       0.30857
  39     1.339        0.0071        0.0000        5.8597        5.8597       5.852623       0.23189
  38     1.782        0.0071        0.0000        5.8513        5.8513       5.844198       0.16039
  37     2.292        0.0071        0.0000        5.8431        5.8431       5.836027       0.13533
  36     2.964        0.0071        0.0000        5.8334        5.8334       5.826388       0.12100
  35     3.853        0.0071        0.0000        5.8213        5.8213       5.814212       0.11555
  34     5.035        0.0071        0.0000        5.8052        5.8052       5.798117       0.11498
  33     6.613        0.0071        0.0000        5.7833        5.7834       5.776296       0.11666
  32     8.786        0.0071        0.0000        5.7531        5.7531       5.746094       0.11729
  31     11.80        0.0070        0.0000        5.7090        5.7090       5.701925       0.12366
  30     15.07        0.0070        0.0000        5.6615        5.6615       5.654461       0.12254
  29     18.79        0.0070        0.0000        5.6093        5.6094       5.602325       0.11821
  28     23.16        0.0070        0.0000        5.5524        5.5524       5.545399       0.11008
  27     28.12        0.0070        0.0000        5.4935        5.4935       5.486520       0.10009
  26     33.73        0.0070        0.0000        5.4348        5.4349       5.427832       0.08824
  25     40.54        0.0070        0.0001        5.3707        5.3708       5.363770       0.07948
  24     48.69        0.0070        0.0001        5.2985        5.2985       5.291537       0.07475
  23     57.69        0.0070        0.0001        5.2215        5.2216       5.214598       0.07212
  22     68.43        0.0070        0.0001        5.1318        5.1319       5.124938       0.07048
  21     81.20        0.0070        0.0001        5.0284        5.0285       5.021509       0.06834
  20     96.49        0.0069        0.0001        4.9122        4.9123       4.905374       0.06410
  19     114.6        0.0069        0.0001        4.7780        4.7782       4.771263       0.06262
  18     136.5        0.0069        0.0002        4.6285        4.6287       4.621785       0.05748
  17     162.9        0.0069        0.0002        4.4406        4.4407       4.433872       0.06006
  16     196.4        0.0068        0.0002        4.1548        4.1550       4.148198       0.07191
  15     218.7        0.0068        0.0002        3.9564        3.9566       3.949815       0.07532
  14     243.0        0.0068        0.0002        3.7055        3.7058       3.698977       0.08700
  13     269.0        0.0068        0.0002        3.3399        3.3401       3.333330       0.11861
  12     297.5        0.0068        0.0002        2.8954        2.8956       2.888821       0.13184
  11     328.5        0.0068        0.0002        2.4388        2.4390       2.432242       0.12414
  10     361.9        0.0069        0.0002        2.0269        2.0271       2.020232       0.10424
   9     398.1        0.0070        0.0002        1.6753        1.6755       1.668521       0.08194
   8     437.6        0.0072        0.0002        1.3592        1.3594       1.352186       0.06763
   7     480.5        0.0076        0.0002        1.0616        1.0618       1.054213       0.05852
   6     533.0        0.0084        0.0001        0.7543        0.7544       0.746074       0.04957
   5     589.8        0.0098        0.0001        0.4951        0.4952       0.485399       0.03869
   4     651.6        0.0127        0.0001        0.2943        0.2943       0.281612       0.02787
   3     718.7        0.0184        0.0001        0.1528        0.1529       0.134431       0.01850
   2     792.3        0.0301        0.0000        0.0658        0.0658       0.035742       0.01132
   1     891.5        0.0000        0.0060        0.0000        0.0061       0.006040       0.00253
   0    1013.0        0.0001        0.0014        0.0000        0.0014       0.001358       0.00033



 Wavenumbers:  4000. -  4650. cm-1, ATM      1
 LEVEL PRESSURE   UPWARD FLUX   DIFDOWN FLUX  DIRDOWN FLUX  DOWNWARD FLUX   NET FLUX    HEATING RATE
          mb          W/m2          W/m2          W/m2        W/m2          W/m2       degree/day
  51    .06700        3.2184        0.0000        6.9421        6.9421       3.723627       0.00000
  50    .07753        3.2184        0.0000        6.9421        6.9421       3.723626       0.00079
  49    .09103        3.2184        0.0000        6.9421        6.9421       3.723625       0.00078
  48    0.1069        3.2184        0.0000        6.9421        6.9421       3.723624       0.00076
  47    0.1255        3.2184        0.0000        6.9421        6.9421       3.723622       0.00074
  46    0.1487        3.2184        0.0000        6.9421        6.9421       3.723620       0.00075
  45    0.1794        3.2184        0.0000        6.9421        6.9421       3.723617       0.00077
  44    0.2165        3.2184        0.0000        6.9421        6.9421       3.723614       0.00076
  43    0.2613        3.2184        0.0000        6.9420        6.9420       3.723610       0.00074
  42    0.3336        3.2184        0.0000        6.9420        6.9420       3.723603       0.00076
  41    0.4307        3.2184        0.0000        6.9420        6.9420       3.723595       0.00077
  40    0.5894        3.2184        0.0000        6.9420        6.9420       3.723580       0.00079
  39     1.339        3.2184        0.0000        6.9419        6.9419       3.723491       0.00100
  38     1.782        3.2184        0.0000        6.9418        6.9419       3.723421       0.00132
  37     2.292        3.2184        0.0000        6.9418        6.9418       3.723328       0.00155
  36     2.964        3.2184        0.0000        6.9416        6.9416       3.723188       0.00175
  35     3.853        3.2184        0.0000        6.9414        6.9414       3.722982       0.00196
  34     5.035        3.2184        0.0000        6.9411        6.9411       3.722677       0.00218
  33     6.613        3.2184        0.0000        6.9406        6.9407       3.722229       0.00240
  32     8.786        3.2184        0.0000        6.9399        6.9400       3.721568       0.00257
  31     11.80        3.2184        0.0001        6.9389        6.9389       3.720533       0.00290
  30     15.07        3.2184        0.0001        6.9377        6.9377       3.719321       0.00313
  29     18.79        3.2184        0.0001        6.9362        6.9363       3.717860       0.00331
  28     23.16        3.2184        0.0001        6.9343        6.9344       3.716053       0.00349
  27     28.12        3.2184        0.0001        6.9321        6.9323       3.713874       0.00370
  26     33.73        3.2184        0.0001        6.9294        6.9296       3.711199       0.00402
  25     40.54        3.2184        0.0002        6.9258        6.9260       3.707591       0.00448
  24     48.69        3.2184        0.0002        6.9210        6.9212       3.702812       0.00495
  23     57.69        3.2184        0.0002        6.9154        6.9156       3.697186       0.00527
  22     68.43        3.2184        0.0003        6.9083        6.9086       3.690186       0.00550
  21     81.20        3.2185        0.0003        6.8998        6.9001       3.681618       0.00566
  20     96.49        3.2186        0.0004        6.8894        6.8899       3.671258       0.00572
  19     114.6        3.2187        0.0005        6.8765        6.8770       3.658267       0.00607
  18     136.5        3.2190        0.0006        6.8610        6.8616       3.642567       0.00604
  17     162.9        3.2194        0.0007        6.8417        6.8424       3.622988       0.00626
  16     196.4        3.2201        0.0008        6.8147        6.8155       3.595440       0.00693
  15     218.7        3.2207        0.0009        6.7948        6.7958       3.575092       0.00773
  14     243.0        3.2216        0.0010        6.7698        6.7708       3.549221       0.00897
  13     269.0        3.2230        0.0011        6.7349        6.7360       3.512935       0.01177
  12     297.5        3.2252        0.0012        6.6869        6.6881       3.462848       0.01486
  11     328.5        3.2284        0.0013        6.6194        6.6207       3.392347       0.01917
  10     361.9        3.2325        0.0015        6.5295        6.5309       3.298409       0.02377
   9     398.1        3.2380        0.0016        6.4202        6.4218       3.183802       0.02670
   8     437.6        3.2454        0.0017        6.2962        6.2979       3.052526       0.02807
   7     480.5        3.2557        0.0019        6.1555        6.1574       2.901714       0.02962
   6     533.0        3.2725        0.0020        5.9675        5.9696       2.697048       0.03292
   5     589.8        3.2974        0.0022        5.7368        5.7389       2.441540       0.03793
   4     651.6        3.3346        0.0024        5.4662        5.4686       2.133982       0.04206
   3     718.7        3.3877        0.0025        5.1912        5.1937       1.805946       0.04122
   2     792.3        3.4612        0.0027        4.9395        4.9421       1.480894       0.03728
   1     891.5        0.0705        1.3870        0.0050        1.3920       1.321507       0.01356
   0    1013.0        0.0733        1.3239        0.0046        1.3285       1.255204       0.00460



 Wavenumbers:  4650. -  5150. cm-1, ATM      1
 LEVEL PRESSURE   UPWARD FLUX   DIFDOWN FLUX  DIRDOWN FLUX  DOWNWARD FLUX   NET FLUX    HEATING RATE
          mb          W/m2          W/m2          W/m2        W/m2          W/m2       degree/day
  51    .06700        2.2552        0.0000        6.5710        6.5710       4.315795       0.00000
  50    .07753        2.2552        0.0000        6.5708        6.5708       4.315560       0.18887
  49    .09103        2.2552        0.0000        6.5705        6.5705       4.315266       0.18362
  48    0.1069        2.2552        0.0000        6.5701        6.5701       4.314932       0.17806
  47    0.1255        2.2552        0.0000        6.5697        6.5697       4.314551       0.17238
  46    0.1487        2.2552        0.0000        6.5693        6.5693       4.314078       0.17268
  45    0.1794        2.2552        0.0000        6.5686        6.5686       4.313441       0.17473
  44    0.2165        2.2552        0.0000        6.5679        6.5679       4.312703       0.16788
  43    0.2613        2.2552        0.0000        6.5670        6.5670       4.311850       0.16078
  42    0.3336        2.2552        0.0000        6.5657        6.5657       4.310487       0.15894
  41    0.4307        2.2552        0.0000        6.5640        6.5640       4.308765       0.14971
  40    0.5894        2.2552        0.0000        6.5613        6.5613       4.306149       0.13913
  39     1.339        2.2552        0.0000        6.5516        6.5516       4.296371       0.11008
  38     1.782        2.2552        0.0000        6.5473        6.5473       4.292155       0.08027
  37     2.292        2.2552        0.0000        6.5434        6.5435       4.288268       0.06438
  36     2.964        2.2552        0.0000        6.5395        6.5395       4.284313       0.04965
  35     3.853        2.2552        0.0000        6.5355        6.5356       4.280369       0.03743
  34     5.035        2.2552        0.0000        6.5315        6.5315       4.276365       0.02860
  33     6.613        2.2552        0.0000        6.5271        6.5271       4.271968       0.02351
  32     8.786        2.2552        0.0001        6.5216        6.5216       4.266469       0.02136
  31     11.80        2.2552        0.0001        6.5135        6.5136       4.258382       0.02264
  30     15.07        2.2552        0.0001        6.5041        6.5042       4.249001       0.02422
  29     18.79        2.2552        0.0001        6.4925        6.4926       4.237470       0.02615
  28     23.16        2.2552        0.0001        6.4779        6.4780       4.222855       0.02826
  27     28.12        2.2552        0.0002        6.4599        6.4601       4.204849       0.03061
  26     33.73        2.2552        0.0002        6.4384        6.4386       4.183377       0.03228
  25     40.54        2.2553        0.0003        6.4112        6.4115       4.156194       0.03372
  24     48.69        2.2554        0.0003        6.3775        6.3778       4.122476       0.03489
  23     57.69        2.2555        0.0004        6.3404        6.3407       4.085282       0.03486
  22     68.43        2.2556        0.0004        6.2971        6.2975       4.041950       0.03406
  21     81.20        2.2558        0.0005        6.2483        6.2487       3.992940       0.03238
  20     96.49        2.2561        0.0006        6.1948        6.1954       3.939301       0.02960
  19     114.6        2.2565        0.0007        6.1381        6.1388       3.882299       0.02662
  18     136.5        2.2571        0.0008        6.0790        6.0798       3.822684       0.02292
  17     162.9        2.2580        0.0010        6.0160        6.0170       3.759021       0.02035
  16     196.4        2.2593        0.0011        5.9399        5.9410       3.681691       0.01946
  15     218.7        2.2604        0.0013        5.8896        5.8909       3.630498       0.01944
  14     243.0        2.2618        0.0014        5.8322        5.8336       3.571754       0.02037
  13     269.0        2.2639        0.0015        5.7624        5.7639       3.500069       0.02325
  12     297.5        2.2668        0.0017        5.6767        5.6784       3.411640       0.02623
  11     328.5        2.2707        0.0018        5.5726        5.5744       3.303687       0.02935
  10     361.9        2.2761        0.0020        5.4473        5.4493       3.173204       0.03301
   9     398.1        2.2833        0.0022        5.2995        5.3016       3.018305       0.03609
   8     437.6        2.2930        0.0023        5.1275        5.1298       2.836754       0.03882
   7     480.5        2.3063        0.0025        4.9290        4.9314       2.625163       0.04156
   6     533.0        2.3273        0.0026        4.6794        4.6820       2.354745       0.04350
   5     589.8        2.3567        0.0028        4.4188        4.4216       2.064859       0.04303
   4     651.6        2.3986        0.0030        4.1521        4.1550       1.756399       0.04218
   3     718.7        2.4560        0.0031        3.8929        3.8961       1.440041       0.03976
   2     792.3        2.5331        0.0033        3.6469        3.6501       1.117016       0.03705
   1     891.5        0.0512        1.0050        0.0036        1.0086       0.957316       0.01359
   0    1013.0        0.0540        0.9446        0.0033        0.9479       0.893871       0.00441



 Wavenumbers:  5150. -  6150. cm-1, ATM      1
 LEVEL PRESSURE   UPWARD FLUX   DIFDOWN FLUX  DIRDOWN FLUX  DOWNWARD FLUX   NET FLUX    HEATING RATE
          mb          W/m2          W/m2          W/m2        W/m2          W/m2       degree/day
  51    .06700        5.5760        0.0000       16.4735       16.4735      10.897495       0.00000
  50    .07753        5.5760        0.0000       16.4735       16.4735      10.897460       0.02763
  49    .09103        5.5760        0.0000       16.4734       16.4734      10.897415       0.02813
  48    0.1069        5.5760        0.0000       16.4734       16.4734      10.897362       0.02861
  47    0.1255        5.5760        0.0000       16.4733       16.4733      10.897297       0.02906
  46    0.1487        5.5760        0.0000       16.4732       16.4732      10.897213       0.03062
  45    0.1794        5.5760        0.0000       16.4731       16.4731      10.897094       0.03271
  44    0.2165        5.5760        0.0000       16.4730       16.4730      10.896948       0.03333
  43    0.2613        5.5760        0.0000       16.4728       16.4728      10.896769       0.03378
  42    0.3336        5.5760        0.0000       16.4725       16.4725      10.896463       0.03566
  41    0.4307        5.5760        0.0000       16.4720       16.4720      10.896043       0.03648
  40    0.5894        5.5760        0.0000       16.4713       16.4713      10.895341       0.03731
  39     1.339        5.5760        0.0000       16.4679       16.4679      10.891930       0.03841
  38     1.782        5.5760        0.0000       16.4659       16.4659      10.889929       0.03811
  37     2.292        5.5760        0.0001       16.4635       16.4636      10.887634       0.03800
  36     2.964        5.5760        0.0001       16.4605       16.4606      10.884661       0.03733
  35     3.853        5.5760        0.0001       16.4567       16.4568      10.880801       0.03663
  34     5.035        5.5759        0.0001       16.4516       16.4517      10.875795       0.03576
  33     6.613        5.5759        0.0002       16.4451       16.4453      10.869321       0.03461
  32     8.786        5.5759        0.0002       16.4367       16.4369      10.860988       0.03236
  31     11.80        5.5759        0.0003       16.4254       16.4257      10.849806       0.03131
  30     15.07        5.5759        0.0004       16.4141       16.4146      10.838681       0.02872
  29     18.79        5.5759        0.0005       16.4024       16.4030      10.827115       0.02622
  28     23.16        5.5758        0.0007       16.3900       16.3906      10.814797       0.02382
  27     28.12        5.5758        0.0008       16.3771       16.3779      10.802064       0.02165
  26     33.73        5.5758        0.0010       16.3641       16.3651      10.789251       0.01926
  25     40.54        5.5758        0.0011       16.3502       16.3513      10.775494       0.01707
  24     48.69        5.5759        0.0014       16.3354       16.3367      10.760863       0.01514
  23     57.69        5.5759        0.0016       16.3211       16.3227      10.746774       0.01321
  22     68.43        5.5760        0.0019       16.3062       16.3082      10.732146       0.01150
  21     81.20        5.5762        0.0023       16.2903       16.2926      10.716455       0.01037
  20     96.49        5.5763        0.0027       16.2726       16.2753      10.699013       0.00963
  19     114.6        5.5766        0.0032       16.2521       16.2553      10.678747       0.00946
  18     136.5        5.5769        0.0038       16.2245       16.2284      10.651531       0.01047
  17     162.9        5.5772        0.0046       16.1747       16.1793      10.602055       0.01581
  16     196.4        5.5778        0.0055       16.0518       16.0573      10.479494       0.03085
  15     218.7        5.5783        0.0061       15.8984       15.9044      10.326178       0.05821
  14     243.0        5.5788        0.0067       15.6153       15.6219      10.043076       0.09819
  13     269.0        5.5797        0.0072       15.1390       15.1462       9.566531       0.15459
  12     297.5        5.5809        0.0078       14.5779       14.5856       9.004713       0.16663
  11     328.5        5.5829        0.0083       13.8780       13.8863       8.303439       0.19067
  10     361.9        5.5858        0.0088       13.0814       13.0902       7.504436       0.20216
   9     398.1        5.5900        0.0092       12.2728       12.2820       6.692020       0.18927
   8     437.6        5.5963        0.0096       11.4776       11.4871       5.890806       0.17130
   7     480.5        5.6061        0.0099       10.7300       10.7399       5.133765       0.14868
   6     533.0        5.6237        0.0104       10.0326       10.0430       4.419254       0.11494
   5     589.8        5.6519        0.0110        9.5050        9.5160       3.864093       0.08240
   4     651.6        5.6974        0.0116        9.0814        9.0930       3.395616       0.06407
   3     718.7        5.7674        0.0124        8.7024        8.7148       2.947447       0.05632
   2     792.3        5.8710        0.0132        8.3379        8.3512       2.480152       0.05359
   1     891.5        0.1347        2.3705        0.0085        2.3790       2.244222       0.02008
   0    1013.0        0.1383        2.2823        0.0080        2.2903       2.151956       0.00641



 Wavenumbers:  6150. -  7700. cm-1, ATM      1
 LEVEL PRESSURE   UPWARD FLUX   DIFDOWN FLUX  DIRDOWN FLUX  DOWNWARD FLUX   NET FLUX    HEATING RATE
          mb          W/m2          W/m2          W/m2        W/m2          W/m2       degree/day
  51    .06700        8.7024        0.0000       30.4684       30.4684      21.766001       0.00000
  50    .07753        8.7024        0.0000       30.4683       30.4683      21.765949       0.04144
  49    .09103        8.7024        0.0000       30.4683       30.4683      21.765882       0.04174
  48    0.1069        8.7024        0.0000       30.4682       30.4682      21.765803       0.04202
  47    0.1255        8.7024        0.0000       30.4681       30.4681      21.765710       0.04227
  46    0.1487        8.7024        0.0000       30.4680       30.4680      21.765589       0.04411
  45    0.1794        8.7024        0.0000       30.4678       30.4678      21.765419       0.04669
  44    0.2165        8.7024        0.0000       30.4676       30.4676      21.765212       0.04715
  43    0.2613        8.7024        0.0000       30.4673       30.4673      21.764960       0.04744
  42    0.3336        8.7024        0.0000       30.4669       30.4669      21.764533       0.04974
  41    0.4307        8.7023        0.0000       30.4663       30.4663      21.763952       0.05052
  40    0.5894        8.7023        0.0001       30.4653       30.4653      21.762985       0.05146
  39     1.339        8.7023        0.0002       30.4604       30.4606      21.758301       0.05273
  38     1.782        8.7022        0.0002       30.4576       30.4578      21.755551       0.05235
  37     2.292        8.7022        0.0003       30.4543       30.4546      21.752393       0.05231
  36     2.964        8.7021        0.0003       30.4501       30.4504      21.748286       0.05156
  35     3.853        8.7020        0.0004       30.4445       30.4450      21.742928       0.05084
  34     5.035        8.7019        0.0006       30.4373       30.4379      21.735929       0.05000
  33     6.613        8.7018        0.0008       30.4278       30.4286      21.726781       0.04890
  32     8.786        8.7016        0.0010       30.4154       30.4164      21.714828       0.04642
  31     11.80        8.7013        0.0014       30.3984       30.3998      21.698442       0.04588
  30     15.07        8.7010        0.0018       30.3810       30.3827      21.681728       0.04315
  29     18.79        8.7007        0.0022       30.3623       30.3645      21.663827       0.04059
  28     23.16        8.7003        0.0027       30.3417       30.3444      21.644143       0.03806
  27     28.12        8.6998        0.0033       30.3196       30.3229      21.623042       0.03587
  26     33.73        8.6993        0.0040       30.2965       30.3005      21.601122       0.03296
  25     40.54        8.6987        0.0048       30.2708       30.2755      21.576782       0.03020
  24     48.69        8.6980        0.0057       30.2423       30.2480      21.550003       0.02771
  23     57.69        8.6972        0.0068       30.2139       30.2206      21.523433       0.02491
  22     68.43        8.6962        0.0080       30.1834       30.1914      21.495152       0.02223
  21     81.20        8.6951        0.0095       30.1500       30.1595      21.464416       0.02031
  20     96.49        8.6937        0.0113       30.1126       30.1239      21.430188       0.01889
  19     114.6        8.6921        0.0134       30.0695       30.0829      21.390788       0.01840
  18     136.5        8.6902        0.0159       30.0139       30.0298      21.339609       0.01968
  17     162.9        8.6880        0.0189       29.9225       29.9413      21.253379       0.02756
  16     196.4        8.6851        0.0227       29.7333       29.7560      21.070874       0.04594
  15     218.7        8.6834        0.0251       29.5259       29.5510      20.867618       0.07717
  14     243.0        8.6816        0.0277       29.1375       29.1651      20.483548       0.13321
  13     269.0        8.6802        0.0301       28.3800       28.4102      19.729999       0.24445
  12     297.5        8.6794        0.0325       27.3895       27.4220      18.742658       0.29283
  11     328.5        8.6799        0.0347       26.2257       26.2605      17.580594       0.31596
  10     361.9        8.6824        0.0368       24.8453       24.8822      16.199741       0.34937
   9     398.1        8.6882        0.0387       23.3471       23.3858      14.697542       0.34998
   8     437.6        8.6993        0.0403       21.7966       21.8370      13.137716       0.33350
   7     480.5        8.7195        0.0417       20.1977       20.2394      11.519913       0.31773
   6     533.0        8.7595        0.0431       18.4969       18.5401       9.780588       0.27980
   5     589.8        8.8266        0.0446       16.9754       17.0199       8.193338       0.23560
   4     651.6        8.9381        0.0460       15.6022       15.6482       6.710077       0.20284
   3     718.7        9.1109        0.0477       14.4232       14.4709       5.359911       0.16968
   2     792.3        9.3683        0.0496       13.4386       13.4882       4.119888       0.14222
   1     891.5        0.2167        3.7381        0.0132        3.7513       3.534580       0.04981
   0    1013.0        0.2264        3.5202        0.0121        3.5323       3.305913       0.01588



 Wavenumbers:  7700. -  8050. cm-1, ATM      1
 LEVEL PRESSURE   UPWARD FLUX   DIFDOWN FLUX  DIRDOWN FLUX  DOWNWARD FLUX   NET FLUX    HEATING RATE
          mb          W/m2          W/m2          W/m2        W/m2          W/m2       degree/day
  51    .06700        4.1538        0.0000        7.2006        7.2006       3.046804       0.00000
  50    .07753        4.1538        0.0000        7.2006        7.2006       3.046783       0.01642
  49    .09103        4.1538        0.0000        7.2005        7.2005       3.046757       0.01610
  48    0.1069        4.1538        0.0000        7.2005        7.2005       3.046728       0.01576
  47    0.1255        4.1538        0.0000        7.2005        7.2005       3.046694       0.01542
  46    0.1487        4.1538        0.0000        7.2004        7.2005       3.046651       0.01565
  45    0.1794        4.1538        0.0000        7.2004        7.2004       3.046592       0.01610
  44    0.2165        4.1538        0.0000        7.2003        7.2003       3.046523       0.01579
  43    0.2613        4.1538        0.0000        7.2003        7.2003       3.046441       0.01550
  42    0.3336        4.1538        0.0000        7.2001        7.2001       3.046305       0.01586
  41    0.4307        4.1539        0.0000        7.2000        7.2000       3.046124       0.01568
  40    0.5894        4.1539        0.0000        7.1997        7.1997       3.045830       0.01566
  39     1.339        4.1541        0.0001        7.1984        7.1985       3.044436       0.01569
  38     1.782        4.1542        0.0001        7.1977        7.1978       3.043618       0.01558
  37     2.292        4.1543        0.0001        7.1968        7.1969       3.042671       0.01568
  36     2.964        4.1544        0.0001        7.1957        7.1959       3.041429       0.01560
  35     3.853        4.1546        0.0002        7.1942        7.1944       3.039788       0.01557
  34     5.035        4.1549        0.0003        7.1922        7.1925       3.037609       0.01556
  33     6.613        4.1552        0.0003        7.1896        7.1899       3.034701       0.01555
  32     8.786        4.1557        0.0004        7.1860        7.1865       3.030787       0.01520
  31     11.80        4.1564        0.0006        7.1810        7.1816       3.025199       0.01565
  30     15.07        4.1571        0.0008        7.1755        7.1763       3.019213       0.01545
  29     18.79        4.1579        0.0010        7.1694        7.1704       3.012470       0.01529
  28     23.16        4.1589        0.0012        7.1623        7.1635       3.004620       0.01518
  27     28.12        4.1600        0.0014        7.1542        7.1557       2.995676       0.01520
  26     33.73        4.1612        0.0017        7.1452        7.1470       2.985712       0.01498
  25     40.54        4.1627        0.0020        7.1344        7.1365       2.973737       0.01486
  24     48.69        4.1646        0.0025        7.1215        7.1240       2.959391       0.01485
  23     57.69        4.1666        0.0029        7.1074        7.1104       2.943748       0.01466
  22     68.43        4.1690        0.0034        7.0909        7.0943       2.925273       0.01452
  21     81.20        4.1719        0.0041        7.0713        7.0754       2.903481       0.01440
  20     96.49        4.1754        0.0048        7.0484        7.0533       2.877815       0.01417
  19     114.6        4.1797        0.0057        7.0217        7.0274       2.847755       0.01404
  18     136.5        4.1847        0.0068        6.9906        6.9974       2.812679       0.01349
  17     162.9        4.1908        0.0081        6.9544        6.9624       2.771644       0.01312
  16     196.4        4.1989        0.0097        6.9087        6.9184       2.719551       0.01311
  15     218.7        4.2043        0.0107        6.8794        6.8902       2.685915       0.01277
  14     243.0        4.2102        0.0119        6.8481        6.8600       2.649809       0.01252
  13     269.0        4.2168        0.0132        6.8147        6.8279       2.611073       0.01257
  12     297.5        4.2241        0.0145        6.7791        6.7936       2.569472       0.01234
  11     328.5        4.2323        0.0160        6.7409        6.7569       2.524639       0.01219
  10     361.9        4.2414        0.0175        6.7002        6.7177       2.476259       0.01224
   9     398.1        4.2517        0.0192        6.6563        6.6755       2.423723       0.01224
   8     437.6        4.2634        0.0210        6.6089        6.6298       2.366381       0.01226
   7     480.5        4.2770        0.0229        6.5570        6.5799       2.302913       0.01246
   6     533.0        4.2951        0.0252        6.4915        6.5167       2.221615       0.01308
   5     589.8        4.3167        0.0277        6.4182        6.4460       2.129266       0.01371
   4     651.6        4.3427        0.0304        6.3359        6.3663       2.023566       0.01445
   3     718.7        4.3738        0.0332        6.2441        6.2774       1.903585       0.01508
   2     792.3        4.4103        0.0362        6.1437        6.1799       1.769633       0.01536
   1     891.5        0.1278        1.8185        0.0064        1.8249       1.697068       0.00617
   0    1013.0        0.1295        1.7872        0.0062        1.7934       1.663935       0.00230



 Wavenumbers:  8050. - 12850. cm-1, ATM      1
 LEVEL PRESSURE   UPWARD FLUX   DIFDOWN FLUX  DIRDOWN FLUX  DOWNWARD FLUX   NET FLUX    HEATING RATE
          mb          W/m2          W/m2          W/m2        W/m2          W/m2       degree/day
  51    .06700       55.2435        0.0000      100.8135      100.8135      45.570018       0.00000
  50    .07753       55.2435        0.0000      100.8135      100.8135      45.570018       0.00000
  49    .09103       55.2435        0.0001      100.8134      100.8135      45.570018       0.00000
  48    0.1069       55.2434        0.0001      100.8134      100.8135      45.570018      -0.00000
  47    0.1255       55.2434        0.0001      100.8133      100.8134      45.570018       0.00000
  46    0.1487       55.2434        0.0002      100.8132      100.8134      45.570018      -0.00000
  45    0.1794       55.2433        0.0003      100.8131      100.8133      45.570018       0.00000
  44    0.2165       55.2433        0.0004      100.8129      100.8133      45.570018      -0.00000
  43    0.2613       55.2432        0.0005      100.8127      100.8132      45.570018       0.00000
  42    0.3336       55.2431        0.0007      100.8125      100.8131      45.570018      -0.00000
  41    0.4307       55.2430        0.0009      100.8121      100.8130      45.570018       0.00000
  40    0.5894       55.2427        0.0013      100.8115      100.8127      45.570018      -0.00000
  39     1.339       55.2416        0.0032      100.8085      100.8116      45.570018      -0.00000
  38     1.782       55.2410        0.0042      100.8068      100.8110      45.570018       0.00000
  37     2.292       55.2402        0.0055      100.8047      100.8103      45.570018       0.00000
  36     2.964       55.2393        0.0072      100.8021      100.8093      45.570018      -0.00000
  35     3.853       55.2380        0.0094      100.7986      100.8080      45.570018      -0.00000
  34     5.035       55.2362        0.0123      100.7940      100.8062      45.570018       0.00000
  33     6.613       55.2339        0.0162      100.7878      100.8039      45.570018       0.00000
  32     8.786       55.2308        0.0214      100.7794      100.8008      45.570018      -0.00000
  31     11.80       55.2264        0.0289      100.7674      100.7964      45.570018       0.00000
  30     15.07       55.2216        0.0370      100.7546      100.7916      45.570018       0.00000
  29     18.79       55.2162        0.0462      100.7400      100.7862      45.570018      -0.00000
  28     23.16       55.2098        0.0569      100.7230      100.7798      45.570018       0.00000
  27     28.12       55.2026        0.0691      100.7035      100.7726      45.570018       0.00000
  26     33.73       55.1945        0.0828      100.6817      100.7645      45.570018      -0.00000
  25     40.54       55.1846        0.0994      100.6552      100.7546      45.570018       0.00000
  24     48.69       55.1728        0.1194      100.6234      100.7428      45.570018      -0.00000
  23     57.69       55.1597        0.1415      100.5883      100.7297      45.570018       0.00000
  22     68.43       55.1442        0.1677      100.5464      100.7142      45.570018       0.00000
  21     81.20       55.1256        0.1991      100.4965      100.6956      45.570018      -0.00000
  20     96.49       55.1034        0.2365      100.4370      100.6734      45.570018       0.00000
  19     114.6       55.0772        0.2809      100.3585      100.6394      45.562237       0.00363
  18     136.5       55.0461        0.3338      100.2634      100.5971      45.551046       0.00430
  17     162.9       55.0090        0.3967      100.1407      100.5374      45.528376       0.00725
  16     196.4       54.9611        0.4786       99.9505      100.4291      45.467976       0.01520
  15     218.7       54.9297        0.5323       99.7889      100.3213      45.391611       0.02899
  14     243.0       54.8959        0.5907       99.5472      100.1379      45.241973       0.05190
  13     269.0       54.8609        0.6537       99.1452       99.7989      44.937959       0.09862
  12     297.5       54.8260        0.7213       98.5975       99.3187      44.492740       0.13205
  11     328.5       54.7932        0.7937       97.8659       98.6596      43.866325       0.17032
  10     361.9       54.7660        0.8707       96.8848       97.7555      42.989497       0.22185
   9     398.1       54.7488        0.9522       95.6330       96.5852      41.836365       0.26865
   8     437.6       54.7498        1.0376       94.0655       95.1031      40.353259       0.31710
   7     480.5       54.7854        1.1261       92.0807       93.2069      38.421482       0.37939
   6     533.0       54.8882        1.2309       89.4449       90.6758      35.787594       0.42371
   5     589.8       55.0892        1.3394       86.5544       87.8938      32.804586       0.44278
   4     651.6       55.4455        1.4511       83.4174       84.8685      29.423037       0.46244
   3     718.7       56.0047        1.5668       80.2037       81.7705      25.765745       0.45962
   2     792.3       56.8253        1.6871       77.0811       78.7682      21.942911       0.43844
   1     891.5        5.0193       24.8625        0.0784       24.9409      19.921587       0.17200
   0    1013.0        5.1435       23.9998        0.0737       24.0735      18.930061       0.06885



 Wavenumbers: 12850. - 16000. cm-1, ATM      1
 LEVEL PRESSURE   UPWARD FLUX   DIFDOWN FLUX  DIRDOWN FLUX  DOWNWARD FLUX   NET FLUX    HEATING RATE
          mb          W/m2          W/m2          W/m2        W/m2          W/m2       degree/day
  51    .06700       43.1239        0.0000       63.1686       63.1686      20.044682       0.00000
  50    .07753       43.1239        0.0001       63.1677       63.1678      20.043901       0.62650
  49    .09103       43.1238        0.0001       63.1666       63.1668      20.042926       0.60913
  48    0.1069       43.1238        0.0002       63.1654       63.1656      20.041816       0.59100
  47    0.1255       43.1238        0.0003       63.1640       63.1643      20.040552       0.57283
  46    0.1487       43.1238        0.0004       63.1623       63.1627      20.038975       0.57486
  45    0.1794       43.1237        0.0006       63.1600       63.1606      20.036859       0.58104
  44    0.2165       43.1237        0.0008       63.1573       63.1581      20.034409       0.55733
  43    0.2613       43.1237        0.0011       63.1542       63.1553      20.031579       0.53332
  42    0.3336       43.1237        0.0014       63.1493       63.1507      20.027065       0.52638
  41    0.4307       43.1237        0.0020       63.1431       63.1451      20.021407       0.49188
  40    0.5894       43.1238        0.0028       63.1338       63.1367      20.012813       0.45702
  39     1.339       43.1261        0.0069       63.0956       63.1025      19.976339       0.41064
  38     1.782       43.1286        0.0093       63.0740       63.0833      19.954645       0.41303
  37     2.292       43.1327        0.0120       63.0477       63.0597      19.927001       0.45784
  36     2.964       43.1397        0.0156       63.0095       63.0251      19.885479       0.52123
  35     3.853       43.1513        0.0204       62.9533       62.9736      19.822341       0.59919
  34     5.035       43.1691        0.0267       62.8725       62.8992      19.730101       0.65893
  33     6.613       43.1941        0.0351       62.7621       62.7972      19.603101       0.67894
  32     8.786       43.2265        0.0465       62.6182       62.6647      19.438210       0.64038
  31     11.80       43.2682        0.0627       62.4284       62.4910      19.222795       0.60310
  30     15.07       43.3076        0.0800       62.2426       62.3226      19.015021       0.53643
  29     18.79       43.3472        0.0996       62.0493       62.1489      18.801669       0.48374
  28     23.16       43.3878        0.1224       61.8424       61.9648      18.576984       0.43447
  27     28.12       43.4277        0.1484       61.6278       61.7762      18.348465       0.38847
  26     33.73       43.4630        0.1774       61.4177       61.5951      18.132123       0.32528
  25     40.54       43.4947        0.2125       61.1983       61.4108      17.916082       0.26802
  24     48.69       43.5224        0.2547       60.9680       61.2226      17.700278       0.22332
  23     57.69       43.5426        0.3010       60.7478       61.0488      17.506199       0.18192
  22     68.43       43.5555        0.3560       60.5202       60.8762      17.320691       0.14583
  21     81.20       43.5559        0.4217       60.2938       60.7155      17.159625       0.10643
  20     96.49       43.5422        0.4998       60.0643       60.5641      17.021857       0.07604
  19     114.6       43.5258        0.5932       59.8078       60.4010      16.875210       0.06847
  18     136.5       43.5002        0.7037       59.5157       60.2194      16.719269       0.05996
  17     162.9       43.4641        0.8350       59.1770       60.0120      16.547942       0.05476
  16     196.4       43.4055        1.0048       58.7604       59.7653      16.359828       0.04735
  15     218.7       43.3627        1.1161       58.4948       59.6109      16.248186       0.04239
  14     243.0       43.3146        1.2369       58.2089       59.4458      16.131181       0.04058
  13     269.0       43.2610        1.3675       57.9006       59.2680      16.007031       0.04027
  12     297.5       43.2023        1.5083       57.5668       59.0751      15.872799       0.03981
  11     328.5       43.1398        1.6601       57.2005       58.8606      15.720784       0.04133
  10     361.9       43.0747        1.8231       56.7963       58.6194      15.544749       0.04454
   9     398.1       43.0082        1.9979       56.3475       58.3454      15.337245       0.04834
   8     437.6       42.9431        2.1848       55.8422       58.0270      15.083906       0.05417
   7     480.5       42.8847        2.3840       55.2625       57.6465      14.761770       0.06327
   6     533.0       42.8318        2.6270       54.4972       57.1242      14.292359       0.07551
   5     589.8       42.7990        2.8857       53.6307       56.5164      13.717401       0.08534
   4     651.6       42.7976        3.1592       52.6606       55.8198      13.022174       0.09507
   3     718.7       42.8351        3.4480       51.6100       55.0580      12.222932       0.10044
   2     792.3       42.9210        3.7518       50.5019       54.2536      11.332619       0.10211
   1     891.5       12.4791       23.1917        0.0525       23.2441      10.765073       0.04830
   0    1013.0       12.5804       22.8767        0.0505       22.9273      10.346844       0.02904



 Wavenumbers: 16000. - 22650. cm-1, ATM      1
 LEVEL PRESSURE   UPWARD FLUX   DIFDOWN FLUX  DIRDOWN FLUX  DOWNWARD FLUX   NET FLUX    HEATING RATE
          mb          W/m2          W/m2          W/m2        W/m2          W/m2       degree/day
  51    .06700       79.9962        0.0000      100.7153      100.7153      20.719084       0.00000
  50    .07753       79.9961        0.0003      100.7147      100.7151      20.718965       0.09562
  49    .09103       79.9960        0.0007      100.7140      100.7147      20.718792       0.10845
  48    0.1069       79.9958        0.0012      100.7131      100.7144      20.718559       0.12367
  47    0.1255       79.9956        0.0018      100.7121      100.7139      20.718248       0.14097
  46    0.1487       79.9954        0.0025      100.7108      100.7132      20.717790       0.16705
  45    0.1794       79.9952        0.0034      100.7089      100.7123      20.717073       0.19669
  44    0.2165       79.9950        0.0045      100.7066      100.7111      20.716102       0.22105
  43    0.2613       79.9948        0.0059      100.7037      100.7095      20.714783       0.24851
  42    0.3336       79.9945        0.0081      100.6987      100.7068      20.712277       0.29224
  41    0.4307       79.9942        0.0110      100.6918      100.7027      20.708499       0.32850
  40    0.5894       79.9942        0.0157      100.6797      100.6955      20.701293       0.38317
  39     1.339       79.9997        0.0382      100.6095      100.6477      20.648070       0.59920
  38     1.782       80.0072        0.0515      100.5585      100.6099      20.602744       0.86294
  37     2.292       80.0198        0.0667      100.4903      100.5570      20.537153       1.08635
  36     2.964       80.0426        0.0868      100.3868      100.4736      20.430944       1.33325
  35     3.853       80.0813        0.1133      100.2306      100.3439      20.262532       1.59826
  34     5.035       80.1413        0.1484      100.0045      100.1528      20.011536       1.79301
  33     6.613       80.2258        0.1952       99.6939       99.8890      19.663240       1.86199
  32     8.786       80.3352        0.2581       99.2881       99.5462      19.210922       1.75664
  31     11.80       80.4751        0.3478       98.7496       99.0974      18.622290       1.64798
  30     15.07       80.6060        0.4438       98.2198       98.6636      18.057688       1.45769
  29     18.79       80.7363        0.5519       97.6651       98.2170      17.480713       1.30818
  28     23.16       80.8685        0.6777       97.0671       97.7448      16.876325       1.16869
  27     28.12       80.9962        0.8210       96.4406       97.2615      16.265353       1.03861
  26     33.73       81.1054        0.9808       95.8179       96.7987      15.693326       0.86006
  25     40.54       81.1983        1.1733       95.1548       96.3281      15.129793       0.69913
  24     48.69       81.2726        1.4044       94.4420       95.8464      14.573773       0.57539
  23     57.69       81.3178        1.6573       93.7416       95.3989      14.081079       0.46183
  22     68.43       81.3325        1.9573       92.9954       94.9527      13.620107       0.36239
  21     81.20       81.2964        2.3133       92.2231       94.5365      13.240041       0.25114
  20     96.49       81.2039        2.7357       91.4110       94.1467      12.942757       0.16408
  19     114.6       81.0696        3.2338       90.5070       93.7408      12.671212       0.12679
  18     136.5       80.8945        3.8193       89.4803       93.2995      12.405044       0.10235
  17     162.9       80.6724        4.5097       88.3022       92.8119      12.139489       0.08488
  16     196.4       80.3538        5.3949       86.8606       92.2555      11.901721       0.05985
  15     218.7       80.1341        5.9700       85.9492       91.9192      11.785053       0.04429
  14     243.0       79.8915        6.5896       84.9789       91.5685      11.677018       0.03747
  13     269.0       79.6247        7.2546       83.9493       91.2039      11.579128       0.03176
  12     297.5       79.3333        7.9659       82.8589       90.8248      11.491496       0.02599
  11     328.5       79.0188        8.7260       81.6982       90.4242      11.405387       0.02341
  10     361.9       78.6813        9.5346       80.4669       90.0016      11.320243       0.02154
   9     398.1       78.3201       10.3938       79.1611       89.5549      11.234801       0.01991
   8     437.6       77.9359       11.3038       77.7777       89.0815      11.145636       0.01906
   7     480.5       77.5292       12.2650       76.3136       88.5787      11.049450       0.01889
   6     533.0       77.0370       13.4283       74.5359       87.9642      10.927258       0.01966
   5     589.8       76.5181       14.6580       72.6469       87.3049      10.786866       0.02084
   4     651.6       75.9754       15.9521       70.6456       86.5977      10.622261       0.02251
   3     718.7       75.4097       17.3085       68.5367       85.8452      10.435508       0.02347
   2     792.3       74.8238       18.7219       66.3287       85.0506      10.226768       0.02394
   1     891.5       41.0050       50.9977        0.0678       51.0656      10.060623       0.01414
   0    1013.0       40.9597       50.7903        0.0642       50.8546       9.894846       0.01151



 Wavenumbers: 22650. - 29000. cm-1, ATM      1
 LEVEL PRESSURE   UPWARD FLUX   DIFDOWN FLUX  DIRDOWN FLUX  DOWNWARD FLUX   NET FLUX    HEATING RATE
          mb          W/m2          W/m2          W/m2        W/m2          W/m2       degree/day
  51    .06700       35.1154        0.0000       38.0063       38.0063       2.890868       0.00000
  50    .07753       35.1153        0.0004       38.0057       38.0061       2.890868      -0.00000
  49    .09103       35.1151        0.0009       38.0050       38.0059       2.890868       0.00000
  48    0.1069       35.1148        0.0014       38.0042       38.0057       2.890868       0.00000
  47    0.1255       35.1145        0.0021       38.0033       38.0054       2.890868       0.00000
  46    0.1487       35.1142        0.0029       38.0022       38.0051       2.890868      -0.00000
  45    0.1794       35.1137        0.0040       38.0006       38.0046       2.890868       0.00000
  44    0.2165       35.1132        0.0053       37.9987       38.0040       2.890868      -0.00000
  43    0.2613       35.1125        0.0069       37.9965       38.0034       2.890868       0.00000
  42    0.3336       35.1114        0.0094       37.9928       38.0023       2.890868       0.00000
  41    0.4307       35.1100        0.0129       37.9880       38.0008       2.890868       0.00000
  40    0.5894       35.1076        0.0184       37.9800       37.9985       2.890868      -0.00000
  39     1.339       35.0964        0.0448       37.9425       37.9873       2.890868       0.00000
  38     1.782       35.0899        0.0603       37.9204       37.9808       2.890868      -0.00000
  37     2.292       35.0823        0.0783       37.8949       37.9732       2.890868      -0.00000
  36     2.964       35.0723        0.1018       37.8614       37.9632       2.890868      -0.00000
  35     3.853       35.0592        0.1328       37.8172       37.9501       2.890868       0.00000
  34     5.035       35.0417        0.1740       37.7586       37.9326       2.890868       0.00000
  33     6.613       35.0185        0.2290       37.6803       37.9093       2.890868      -0.00000
  32     8.786       34.9871        0.3030       37.5750       37.8780       2.890868       0.00000
  31     11.80       34.9424        0.4085       37.4249       37.8333       2.890868       0.00000
  30     15.07       34.8946        0.5213       37.2642       37.7855       2.890868       0.00000
  29     18.79       34.8408        0.6483       37.0833       37.7316       2.890868       0.00000
  28     23.16       34.7781        0.7960       36.8730       37.6690       2.890868       0.00000
  27     28.12       34.7068        0.9639       36.6338       37.5977       2.890868       0.00000
  26     33.73       34.6275        1.1507       36.3677       37.5184       2.890868       0.00000
  25     40.54       34.5323        1.3746       36.0486       37.4232       2.890868       0.00000
  24     48.69       34.4185        1.6422       35.6672       37.3094       2.890868      -0.00000
  23     57.69       34.2947        1.9329       35.2527       37.1856       2.890868       0.00000
  22     68.43       34.1489        2.2749       34.7649       37.0398       2.890868       0.00000
  21     81.20       33.9776        2.6762       34.1922       36.8684       2.890868      -0.00000
  20     96.49       33.7767        3.1458       33.5217       36.6676       2.890868       0.00000
  19     114.6       33.5428        3.6914       32.7424       36.4337       2.890868       0.00000
  18     136.5       33.2721        4.3214       31.8416       36.1630       2.890868       0.00000
  17     162.9       32.9585        5.0486       30.8008       35.8494       2.890868       0.00000
  16     196.4       32.5658        5.9560       29.5007       35.4566       2.890868       0.00000
  15     218.7       32.3161        6.5303       28.6767       35.2070       2.890868       0.00000
  14     243.0       32.0519        7.1360       27.8068       34.9428       2.890868       0.00000
  13     269.0       31.7738        7.7713       26.8933       34.6646       2.890868       0.00000
  12     297.5       31.4824        8.4339       25.9393       34.3732       2.890868      -0.00000
  11     328.5       31.1777        9.1235       24.9451       34.0686       2.890868      -0.00000
  10     361.9       30.8611        9.8360       23.9160       33.7520       2.890868      -0.00000
   9     398.1       30.5331       10.5698       22.8541       33.4240       2.890868       0.00000
   8     437.6       30.1949       11.3213       21.7645       33.0857       2.890868      -0.00000
   7     480.5       29.8477       12.0864       20.6521       32.7386       2.890868      -0.00000
   6     533.0       29.4408       12.9748       19.3569       32.3317       2.890868       0.00000
   5     589.8       29.0259       13.8701       18.0467       31.9168       2.890868       0.00000
   4     651.6       28.6056       14.7649       16.7316       31.4965       2.890868       0.00000
   3     718.7       28.1823       15.6518       15.4214       31.0732       2.890868      -0.00000
   2     792.3       27.7591       16.5224       14.1276       30.6500       2.890868       0.00000
   1     891.5       19.3790       22.2562        0.0134       22.2696       2.890674       0.00002
   0    1013.0       19.2785       22.1575        0.0116       22.1691       2.890674       0.00000



 Wavenumbers: 29000. - 38000. cm-1, ATM      1
 LEVEL PRESSURE   UPWARD FLUX   DIFDOWN FLUX  DIRDOWN FLUX  DOWNWARD FLUX   NET FLUX    HEATING RATE
          mb          W/m2          W/m2          W/m2        W/m2          W/m2       degree/day
  51    .06700        4.9932        0.0000       13.4026       13.4026       8.409379       0.00000
  50    .07753        4.9930        0.0003       13.3983       13.3986       8.405581       3.04449
  49    .09103        4.9927        0.0007       13.3921       13.3928       8.400061       3.44978
  48    0.1069        4.9924        0.0011       13.3840       13.3851       8.392684       3.92690
  47    0.1255        4.9921        0.0016       13.3733       13.3749       8.382839       4.46333
  46    0.1487        4.9917        0.0022       13.3579       13.3600       8.368396       5.26457
  45    0.1794        4.9911        0.0030       13.3340       13.3371       8.345996       6.14949
  44    0.2165        4.9904        0.0040       13.3024       13.3064       8.315976       6.82902
  43    0.2613        4.9897        0.0052       13.2604       13.2656       8.275920       7.55040
  42    0.3336        4.9884        0.0071       13.1833       13.1903       8.201910       8.62877
  41    0.4307        4.9869        0.0095       13.0729       13.0824       8.095534       9.24920
  40    0.5894        4.9845        0.0134       12.8796       12.8930       7.908482       9.94718
  39     1.339        4.9762        0.0297       11.9165       11.9463       6.970077      10.56473
  38     1.782        4.9729        0.0381       11.4399       11.4780       6.505040       8.85355
  37     2.292        4.9705        0.0470       10.9796       11.0266       6.056028       7.43681
  36     2.964        4.9693        0.0579       10.4786       10.5366       5.567268       6.13541
  35     3.853        4.9701        0.0715        9.9429       10.0144       5.044206       4.96396
  34     5.035        4.9739        0.0884        9.4007        9.4890       4.515167       3.77924
  33     6.613        4.9807        0.1098        8.8752        8.9850       4.004346       2.73085
  32     8.786        4.9899        0.1374        8.3786        8.5160       3.526051       1.85753
  31     11.80        5.0014        0.1754        7.8897        8.0650       3.063653       1.29457
  30     15.07        5.0113        0.2145        7.5108        7.7253       2.714010       0.90271
  29     18.79        5.0206        0.2572        7.1776        7.4348       2.414167       0.67984
  28     23.16        5.0293        0.3053        6.8664        7.1717       2.142378       0.52555
  27     28.12        5.0365        0.3584        6.5780        6.9364       1.899890       0.41221
  26     33.73        5.0399        0.4163        6.3195        6.7358       1.695951       0.30663
  25     40.54        5.0381        0.4847        6.0663        6.5509       1.512809       0.22721
  24     48.69        5.0308        0.5648        5.8128        6.3776       1.346767       0.17183
  23     57.69        5.0178        0.6503        5.5777        6.2280       1.210137       0.12807
  22     68.43        4.9969        0.7492        5.3379        6.0871       1.090201       0.09429
  21     81.20        4.9638        0.8641        5.0965        5.9606       0.996773       0.06174
  20     96.49        4.9173        0.9968        4.8476        5.8444       0.927145       0.03843
  19     114.6        4.8605        1.1472        4.5799        5.7270       0.866487       0.02832
  18     136.5        4.7948        1.3153        4.2891        5.6044       0.809580       0.02188
  17     162.9        4.7197        1.5018        3.9732        5.4749       0.755270       0.01736
  16     196.4        4.6245        1.7253        3.6080        5.3333       0.708786       0.01170
  15     218.7        4.5645        1.8614        3.3898        5.2511       0.686630       0.00841
  14     243.0        4.5022        2.0002        3.1686        5.1687       0.666513       0.00698
  13     269.0        4.4379        2.1405        2.9461        5.0866       0.648752       0.00576
  12     297.5        4.3719        2.2813        2.7239        5.0053       0.633368       0.00456
  11     328.5        4.3051        2.4212        2.5029        4.9240       0.618902       0.00393
  10     361.9        4.2381        2.5588        2.2846        4.8434       0.605374       0.00342
   9     398.1        4.1711        2.6931        2.0708        4.7638       0.592781       0.00293
   8     437.6        4.1046        2.8229        1.8626        4.6855       0.580853       0.00255
   7     480.5        4.0392        2.9467        1.6621        4.6089       0.569721       0.00219
   6     533.0        3.9659        3.0801        1.4437        4.5237       0.557800       0.00192
   5     589.8        3.8952        3.2026        1.2390        4.4416       0.546467       0.00168
   4     651.6        3.8274        3.3130        1.0500        4.3630       0.535569       0.00149
   3     718.7        3.7630        3.4103        0.8778        4.2881       0.525068       0.00132
   2     792.3        3.7023        3.4935        0.7237        4.2172       0.514943       0.00116
   1     891.5        2.7100        3.2141        0.0006        3.2147       0.504632       0.00088
   0    1013.0        2.6789        3.1733        0.0004        3.1737       0.494774       0.00068



 Wavenumbers: 38000. - 50000. cm-1, ATM      1
 LEVEL PRESSURE   UPWARD FLUX   DIFDOWN FLUX  DIRDOWN FLUX  DOWNWARD FLUX   NET FLUX    HEATING RATE
          mb          W/m2          W/m2          W/m2        W/m2          W/m2       degree/day
  51    .06700        0.0051        0.0000        0.8267        0.8267       0.821528       0.00000
  50    .07753        0.0051        0.0001        0.8242        0.8243       0.819196       1.86936
  49    .09103        0.0050        0.0002        0.8207        0.8209       0.815872       2.07705
  48    0.1069        0.0049        0.0002        0.8162        0.8164       0.811514       2.31984
  47    0.1255        0.0048        0.0004        0.8103        0.8106       0.805801       2.59006
  46    0.1487        0.0047        0.0005        0.8018        0.8023       0.797567       3.00143
  45    0.1794        0.0045        0.0007        0.7889        0.7896       0.785013       3.44648
  44    0.2165        0.0044        0.0009        0.7720        0.7729       0.768507       3.75474
  43    0.2613        0.0042        0.0011        0.7500        0.7511       0.746955       4.06246
  42    0.3336        0.0039        0.0015        0.7106        0.7121       0.708267       4.51071
  41    0.4307        0.0035        0.0019        0.6566        0.6584       0.654972       4.63387
  40    0.5894        0.0029        0.0024        0.5680        0.5704       0.567464       4.65357
  39     1.339        0.0015        0.0030        0.2422        0.2452       0.243720       3.64476
  38     1.782        0.0010        0.0026        0.1493        0.1519       0.150889       1.76735
  37     2.292        0.0007        0.0022        0.0924        0.0946       0.093932       0.94336
  36     2.964        0.0005        0.0018        0.0539        0.0557       0.055224       0.48589
  35     3.853        0.0003        0.0013        0.0295        0.0308       0.030502       0.23462
  34     5.035        0.0002        0.0010        0.0154        0.0164       0.016181       0.10230
  33     6.613        0.0001        0.0007        0.0073        0.0080       0.007912       0.04420
  32     8.786        0.0000        0.0004        0.0030        0.0034       0.003390       0.01756
  31     11.80        0.0000        0.0003        0.0010        0.0012       0.001199       0.00613
  30     15.07        0.0000        0.0001        0.0003        0.0005       0.000463       0.00190
  29     18.79        0.0000        0.0001        0.0001        0.0002       0.000182       0.00064
  28     23.16        0.0000        0.0000        0.0000        0.0001       0.000071       0.00022
  27     28.12        0.0000        0.0000        0.0000        0.0000       0.000028       0.00007
  26     33.73        0.0000        0.0000        0.0000        0.0000       0.000011       0.00002
  25     40.54        0.0000        0.0000        0.0000        0.0000       0.000005       0.00001
  24     48.69        0.0000        0.0000        0.0000        0.0000       0.000002       0.00000
  23     57.69        0.0000        0.0000        0.0000        0.0000       0.000001       0.00000
  22     68.43        0.0000        0.0000        0.0000        0.0000       0.000000       0.00000
  21     81.20        0.0000        0.0000        0.0000        0.0000       0.000000       0.00000
  20     96.49        0.0000        0.0000        0.0000        0.0000       0.000000       0.00000
  19     114.6        0.0000        0.0000        0.0000        0.0000       0.000000       0.00000
  18     136.5        0.0000        0.0000        0.0000        0.0000       0.000000       0.00000
  17     162.9        0.0000        0.0000        0.0000        0.0000       0.000000       0.00000
  16     196.4        0.0000        0.0000        0.0000        0.0000       0.000000       0.00000
  15     218.7        0.0000        0.0000        0.0000        0.0000       0.000000       0.00000
  14     243.0        0.0000        0.0000        0.0000        0.0000       0.000000       0.00000
  13     269.0        0.0000        0.0000        0.0000        0.0000       0.000000       0.00000
  12     297.5        0.0000        0.0000        0.0000        0.0000       0.000000       0.00000
  11     328.5        0.0000        0.0000        0.0000        0.0000       0.000000       0.00000
  10     361.9        0.0000        0.0000        0.0000        0.0000       0.000000       0.00000
   9     398.1        0.0000        0.0000        0.0000        0.0000       0.000000       0.00000
   8     437.6        0.0000        0.0000        0.0000        0.0000       0.000000       0.00000
   7     480.5        0.0000        0.0000        0.0000        0.0000       0.000000       0.00000
   6     533.0        0.0000        0.0000        0.0000        0.0000       0.000000       0.00000
   5     589.8        0.0000        0.0000        0.0000        0.0000       0.000000       0.00000
   4     651.6        0.0000        0.0000        0.0000        0.0000       0.000000       0.00000
   3     718.7        0.0000        0.0000        0.0000        0.0000       0.000000       0.00000
   2     792.3        0.0000        0.0000        0.0000        0.0000       0.000000       0.00000
   1     891.5        0.0000        0.0000        0.0000        0.0000       0.000000       0.00000
   0    1013.0        0.0000        0.0000        0.0000        0.0000       0.000000       0.00000



 Wavenumbers:   820. -  2600. cm-1, ATM      1
 LEVEL PRESSURE   UPWARD FLUX   DIFDOWN FLUX  DIRDOWN FLUX  DOWNWARD FLUX   NET FLUX    HEATING RATE
          mb          W/m2          W/m2          W/m2        W/m2          W/m2       degree/day
  51    .06700        0.6752        0.0000        3.8670        3.8670       3.191867       0.00000
  50    .07753        0.6752        0.0000        3.8643        3.8643       3.189150       2.17771
  49    .09103        0.6752        0.0000        3.8635        3.8635       3.188340       0.50639
  48    0.1069        0.6752        0.0000        3.8626        3.8626       3.187449       0.47416
  47    0.1255        0.6752        0.0000        3.8616        3.8616       3.186488       0.43561
  46    0.1487        0.6752        0.0000        3.8605        3.8605       3.185379       0.40439
  45    0.1794        0.6752        0.0000        3.8592        3.8592       3.184044       0.36649
  44    0.2165        0.6752        0.0000        3.8578        3.8578       3.182666       0.31347
  43    0.2613        0.6752        0.0000        3.8564        3.8564       3.181206       0.27524
  42    0.3336        0.6752        0.0000        3.8541        3.8541       3.178974       0.26014
  41    0.4307        0.6752        0.0000        3.8512        3.8512       3.176092       0.25065
  40    0.5894        0.6752        0.0000        3.8465        3.8465       3.171365       0.25135
  39     1.339        0.6752        0.0000        3.8251        3.8251       3.149988       0.24066
  38     1.782        0.6752        0.0000        3.8133        3.8133       3.138175       0.22491
  37     2.292        0.6752        0.0000        3.8003        3.8003       3.125112       0.21635
  36     2.964        0.6752        0.0000        3.7841        3.7841       3.108982       0.20248
  35     3.853        0.6752        0.0000        3.7642        3.7642       3.089065       0.18901
  34     5.035        0.6752        0.0000        3.7395        3.7395       3.064372       0.17640
  33     6.613        0.6752        0.0000        3.7090        3.7090       3.033833       0.16326
  32     8.786        0.6752        0.0000        3.6726        3.6726       2.997435       0.14136
  31     11.80        0.6752        0.0000        3.6320        3.6320       2.956833       0.11367
  30     15.07        0.6752        0.0000        3.6016        3.6016       2.926442       0.07847
  29     18.79        0.6752        0.0000        3.5777        3.5777       2.902535       0.05420
  28     23.16        0.6752        0.0000        3.5564        3.5564       2.881171       0.04131
  27     28.12        0.6752        0.0000        3.5348        3.5348       2.859612       0.03665
  26     33.73        0.6753        0.0000        3.5118        3.5118       2.836565       0.03465
  25     40.54        0.6753        0.0000        3.4849        3.4849       2.809660       0.03338
  24     48.69        0.6753        0.0000        3.4537        3.4537       2.778386       0.03236
  23     57.69        0.6753        0.0000        3.4210        3.4210       2.745689       0.03065
  22     68.43        0.6754        0.0000        3.3844        3.3844       2.709075       0.02878
  21     81.20        0.6754        0.0000        3.3441        3.3441       2.668741       0.02665
  20     96.49        0.6755        0.0000        3.2998        3.2998       2.624334       0.02451
  19     114.6        0.6755        0.0000        3.2506        3.2507       2.575133       0.02297
  18     136.5        0.6756        0.0000        3.1936        3.1936       2.518009       0.02197
  17     162.9        0.6758        0.0000        3.1181        3.1181       2.442377       0.02417
  16     196.4        0.6760        0.0000        3.0090        3.0090       2.332941       0.02755
  15     218.7        0.6763        0.0000        2.9420        2.9420       2.265753       0.02551
  14     243.0        0.6766        0.0000        2.8605        2.8605       2.183921       0.02838
  13     269.0        0.6771        0.0000        2.7419        2.7420       2.064886       0.03861
  12     297.5        0.6780        0.0000        2.5729        2.5729       1.894934       0.05041
  11     328.5        0.6793        0.0000        2.3602        2.3602       1.680873       0.05820
  10     361.9        0.6814        0.0000        2.1524        2.1524       1.471014       0.05310
   9     398.1        0.6844        0.0000        1.9974        1.9974       1.313043       0.03680
   8     437.6        0.6885        0.0000        1.8835        1.8835       1.195005       0.02524
   7     480.5        0.6944        0.0000        1.7734        1.7734       1.079034       0.02278
   6     533.0        0.7041        0.0000        1.6397        1.6398       0.935701       0.02306
   5     589.8        0.7179        0.0000        1.5068        1.5069       0.788965       0.02178
   4     651.6        0.7383        0.0000        1.3807        1.3807       0.642412       0.02004
   3     718.7        0.7656        0.0000        1.2680        1.2681       0.502442       0.01759
   2     792.3        0.7998        0.0000        1.1659        1.1660       0.366152       0.01563
   1     891.5        0.0183        0.3133        0.0011        0.3144       0.296108       0.00596
   0    1013.0        0.0202        0.2822        0.0009        0.2831       0.262972       0.00230

  Modules and versions used in this calculation:

       rrtmg_sw.1col.f90:  $Revision$                    rrtmg_sw_init.f90:  $Revision$        
     rrtmgsw_cldprop.f90:  $Revision$                  rrtmgsw_cldprmc.f90:  NOT USED          
     rrtmg_sw_reftra.f90:  $Revision$                  rrtmg_sw_spcvrt.f90:  NOT USED          
     rrtmg_sw_spcvmc.f90:  NOT USED                    rrtmgsw_setcoef.f90:  NOT USED          
     rrtmg_sw_taumol.f90:  $Revision$                  rrtmg_sw_vrtqdr.f90:  NOT USED          
                rrtatm.f:  NOT USED                             util_xxx.f:  NOT USED          
                 extra.f:  NOT USED                       rrtmg_sw_k_g.f90:  $Revision$        

