

 Wavenumbers:   820. - 50000. cm-1, ATM      1
 LEVEL PRESSURE   UPWARD FLUX   DIFDOWN FLUX  DIRDOWN FLUX  DOWNWARD FLUX   NET FLUX    HEATING RATE
          mb          W/m2          W/m2          W/m2        W/m2          W/m2       degree/day
  51    .06700      249.2756        0.0000      397.8738      397.8738     148.598194       0.00000
  50    .07753      249.2750        0.0012      397.8577      397.8589     148.583904      11.45383
  49    .09103      249.2743        0.0026      397.8418      397.8445     148.570217       8.55478
  48    0.1069      249.2734        0.0043      397.8230      397.8273     148.553871       8.70102
  47    0.1255      249.2725        0.0063      397.7997      397.8059     148.533431       9.26645
  46    0.1487      249.2714        0.0087      397.7676      397.7763     148.504978      10.37147
  45    0.1794      249.2699        0.0121      397.7205      397.7326     148.462693      11.60822
  44    0.2165      249.2682        0.0160      397.6602      397.6762     148.408055      12.42925
  43    0.2613      249.2663        0.0206      397.5829      397.6035     148.337272      13.34229
  42    0.3336      249.2633        0.0282      397.4449      397.4731     148.209861      14.85492
  41    0.4307      249.2596        0.0382      397.2524      397.2906     148.031034      15.54860
  40    0.5894      249.2542        0.0543      396.9253      396.9796     147.725398      16.25331
  39     1.339      249.2403        0.1263      395.4254      395.5516     146.311283      15.92036
  38     1.782      249.2398        0.1666      394.7288      394.8954     145.655568      12.48376
  37     2.292      249.2459        0.2125      394.0572      394.2696     145.023767      10.46427
  36     2.964      249.2638        0.2721      393.3007      393.5728     144.308919       8.97351
  35     3.853      249.3014        0.3500      392.4318      392.7818     143.480363       7.86314
  34     5.035      249.3650        0.4525      391.4441      391.8965     142.531517       6.77817
  33     6.613      249.4576        0.5883      390.3268      390.9150     141.457445       5.74199
  32     8.786      249.5768        0.7699      389.0624      389.8323     140.255475       4.66802
  31     11.80      249.7241        1.0277      387.5500      388.5776     138.853512       3.92506
  30     15.07      249.8551        1.3022      386.1556      387.4578     137.602705       3.22934
  29     18.79      249.9787        1.6099      384.7502      386.3600     136.381302       2.76930
  28     23.16      250.0952        1.9663      383.2686      385.2350     135.139742       2.40077
  27     28.12      250.1958        2.3707      381.7329      384.1036     133.907835       2.09416
  26     33.73      250.2604        2.8200      380.1982      383.0181     132.757737       1.72920
  25     40.54      250.2830        3.3587      378.5384      381.8971     131.614120       1.41879
  24     48.69      250.2572        4.0026      376.7214      380.7241     130.466839       1.18726
  23     57.69      250.1780        4.7032      374.8959      379.5991     129.421123       0.98020
  22     68.43      250.0291        5.5293      372.8999      378.4292     128.400042       0.80271
  21     81.20      249.7765        6.5029      370.7496      377.2526     127.476098       0.61053
  20     96.49      249.4075        7.6486      368.4056      376.0541     126.646623       0.45781
  19     114.6      248.9479        8.9869      365.7513      374.7381     125.790227       0.39988
  18     136.5      248.3890       10.5414      362.7231      373.2645     124.875473       0.35174
  17     162.9      247.7167       12.3488      359.1748      371.5236     123.806893       0.34156
  16     196.4      246.8190       14.6282      354.5718      369.2000     122.381089       0.35889
  15     218.7      246.2262       16.0864      351.4437      367.5301     121.303887       0.40897
  14     243.0      245.5879       17.6377      347.7111      365.3489     119.761004       0.53512
  13     269.0      244.9062       19.2804      342.9441      362.2245     117.318367       0.79238
  12     297.5      244.1847       21.0123      337.4137      358.4260     114.241318       0.91262
  11     328.5      243.4313       22.8350      331.1302      353.9653     110.534002       1.00801
  10     361.9      242.6550       24.7433      324.1219      348.8652     106.210200       1.09396
   9     398.1      241.8650       26.7364      316.6066      343.3430     101.478016       1.10249
   8     437.6      241.0805       28.8099      308.5895      337.3994      96.318860       1.10306
   7     480.5      240.3365       30.9579      299.9349      330.8928      90.556308       1.13174
   6     533.0      239.5777       33.5030      289.7021      323.2052      83.627439       1.11463
   5     589.8      238.9846       36.1309      279.3388      315.4697      76.485072       1.06016
   4     651.6      238.6768       38.8294      268.7786      307.6080      68.931179       1.03302
   3     718.7      238.7546       41.5897      258.2837      299.8733      61.118732       0.98181
   2     792.3      239.3483       44.3976      248.0774      292.4750      53.126729       0.91659
   1     891.5       76.3192      125.4103        0.0455      125.4559      49.136652       0.33954
   0    1013.0       76.3703      123.5788        0.0428      123.6216      47.251279       0.13091



 Wavenumbers:  2600. -  3250. cm-1, ATM      1
 LEVEL PRESSURE   UPWARD FLUX   DIFDOWN FLUX  DIRDOWN FLUX  DOWNWARD FLUX   NET FLUX    HEATING RATE
          mb          W/m2          W/m2          W/m2        W/m2          W/m2       degree/day
  51    .06700        0.9520        0.0000        3.5066        3.5066       2.554624       0.00000
  50    .07753        0.9520        0.0000        3.5066        3.5066       2.554616       0.00640
  49    .09103        0.9520        0.0000        3.5066        3.5066       2.554606       0.00627
  48    0.1069        0.9520        0.0000        3.5066        3.5066       2.554594       0.00613
  47    0.1255        0.9520        0.0000        3.5066        3.5066       2.554581       0.00599
  46    0.1487        0.9520        0.0000        3.5066        3.5066       2.554564       0.00607
  45    0.1794        0.9520        0.0000        3.5065        3.5065       2.554542       0.00624
  44    0.2165        0.9520        0.0000        3.5065        3.5065       2.554515       0.00611
  43    0.2613        0.9520        0.0000        3.5065        3.5065       2.554483       0.00598
  42    0.3336        0.9520        0.0000        3.5064        3.5064       2.554430       0.00615
  41    0.4307        0.9520        0.0000        3.5064        3.5064       2.554359       0.00618
  40    0.5894        0.9520        0.0000        3.5062        3.5062       2.554240       0.00633
  39     1.339        0.9520        0.0000        3.5055        3.5055       2.553541       0.00787
  38     1.782        0.9520        0.0000        3.5050        3.5050       2.553011       0.01011
  37     2.292        0.9520        0.0000        3.5043        3.5043       2.552318       0.01147
  36     2.964        0.9520        0.0000        3.5033        3.5033       2.551327       0.01245
  35     3.853        0.9520        0.0000        3.5019        3.5019       2.549950       0.01307
  34     5.035        0.9520        0.0000        3.5001        3.5001       2.548088       0.01329
  33     6.613        0.9520        0.0000        3.4977        3.4977       2.545679       0.01288
  32     8.786        0.9520        0.0000        3.4947        3.4947       2.542708       0.01154
  31     11.80        0.9520        0.0000        3.4911        3.4911       2.539072       0.01018
  30     15.07        0.9520        0.0000        3.4878        3.4878       2.535850       0.00832
  29     18.79        0.9520        0.0000        3.4848        3.4848       2.532785       0.00695
  28     23.16        0.9520        0.0000        3.4816        3.4816       2.529563       0.00623
  27     28.12        0.9520        0.0000        3.4779        3.4779       2.525942       0.00616
  26     33.73        0.9520        0.0000        3.4735        3.4735       2.521472       0.00672
  25     40.54        0.9520        0.0000        3.4671        3.4672       2.515140       0.00786
  24     48.69        0.9520        0.0000        3.4582        3.4583       2.506235       0.00921
  23     57.69        0.9520        0.0000        3.4472        3.4472       2.495174       0.01037
  22     68.43        0.9521        0.0000        3.4329        3.4329       2.480895       0.01123
  21     81.20        0.9521        0.0000        3.4152        3.4152       2.463138       0.01173
  20     96.49        0.9521        0.0000        3.3940        3.3941       2.441954       0.01169
  19     114.6        0.9522        0.0000        3.3692        3.3692       2.417009       0.01165
  18     136.5        0.9523        0.0001        3.3419        3.3420       2.389710       0.01050
  17     162.9        0.9524        0.0001        3.3129        3.3129       2.360513       0.00933
  16     196.4        0.9527        0.0001        3.2793        3.2794       2.326718       0.00851
  15     218.7        0.9530        0.0001        3.2578        3.2578       2.304884       0.00829
  14     243.0        0.9534        0.0001        3.2320        3.2321       2.278672       0.00909
  13     269.0        0.9541        0.0001        3.1968        3.1969       2.242870       0.01161
  12     297.5        0.9551        0.0001        3.1489        3.1491       2.193934       0.01451
  11     328.5        0.9567        0.0001        3.0821        3.0822       2.125454       0.01862
  10     361.9        0.9591        0.0001        2.9902        2.9904       2.031271       0.02383
   9     398.1        0.9625        0.0001        2.8715        2.8716       1.909104       0.02846
   8     437.6        0.9675        0.0002        2.7276        2.7278       1.760328       0.03181
   7     480.5        0.9749        0.0002        2.5595        2.5597       1.584759       0.03448
   6     533.0        0.9875        0.0002        2.3617        2.3619       1.374396       0.03384
   5     589.8        1.0061        0.0002        2.1649        2.1651       1.159033       0.03197
   4     651.6        1.0337        0.0002        1.9608        1.9609       0.927200       0.03170
   3     718.7        1.0734        0.0002        1.7593        1.7595       0.686058       0.03030
   2     792.3        1.1291        0.0002        1.5761        1.5762       0.447104       0.02741
   1     891.5        0.0231        0.3627        0.0003        0.3630       0.339872       0.00912
   0    1013.0        0.0253        0.3264        0.0002        0.3267       0.301346       0.00268



 Wavenumbers:  3250. -  4000. cm-1, ATM      1
 LEVEL PRESSURE   UPWARD FLUX   DIFDOWN FLUX  DIRDOWN FLUX  DOWNWARD FLUX   NET FLUX    HEATING RATE
          mb          W/m2          W/m2          W/m2        W/m2          W/m2       degree/day
  51    .06700        0.0076        0.0000        5.9117        5.9117       5.904012       0.00000
  50    .07753        0.0076        0.0000        5.9075        5.9075       5.899822       3.35808
  49    .09103        0.0076        0.0000        5.9050        5.9050       5.897379       1.52677
  48    0.1069        0.0076        0.0000        5.9032        5.9032       5.895513       0.99346
  47    0.1255        0.0076        0.0000        5.9014        5.9014       5.893755       0.79708
  46    0.1487        0.0076        0.0000        5.8995        5.8995       5.891866       0.68848
  45    0.1794        0.0076        0.0000        5.8974        5.8974       5.889717       0.58983
  44    0.2165        0.0076        0.0000        5.8952        5.8952       5.887600       0.48155
  43    0.2613        0.0076        0.0000        5.8931        5.8931       5.885441       0.40696
  42    0.3336        0.0076        0.0000        5.8899        5.8899       5.882283       0.36820
  41    0.4307        0.0076        0.0000        5.8861        5.8861       5.878446       0.33365
  40    0.5894        0.0076        0.0000        5.8803        5.8803       5.872644       0.30857
  39     1.339        0.0076        0.0000        5.8597        5.8597       5.852046       0.23189
  38     1.782        0.0076        0.0000        5.8513        5.8513       5.843622       0.16039
  37     2.292        0.0076        0.0000        5.8431        5.8431       5.835450       0.13533
  36     2.964        0.0076        0.0000        5.8334        5.8334       5.825811       0.12100
  35     3.853        0.0076        0.0000        5.8213        5.8213       5.813635       0.11555
  34     5.035        0.0076        0.0000        5.8052        5.8052       5.797540       0.11498
  33     6.613        0.0076        0.0000        5.7833        5.7834       5.775719       0.11666
  32     8.786        0.0076        0.0000        5.7531        5.7531       5.745517       0.11729
  31     11.80        0.0076        0.0000        5.7090        5.7090       5.701349       0.12366
  30     15.07        0.0076        0.0000        5.6615        5.6615       5.653884       0.12254
  29     18.79        0.0076        0.0000        5.6093        5.6094       5.601748       0.11821
  28     23.16        0.0076        0.0000        5.5524        5.5524       5.544822       0.11008
  27     28.12        0.0076        0.0000        5.4935        5.4935       5.485943       0.10009
  26     33.73        0.0076        0.0000        5.4348        5.4349       5.427255       0.08824
  25     40.54        0.0076        0.0001        5.3707        5.3708       5.363193       0.07948
  24     48.69        0.0076        0.0001        5.2985        5.2985       5.290960       0.07475
  23     57.69        0.0076        0.0001        5.2215        5.2216       5.214021       0.07212
  22     68.43        0.0076        0.0001        5.1318        5.1319       5.124361       0.07048
  21     81.20        0.0075        0.0001        5.0284        5.0285       5.020932       0.06834
  20     96.49        0.0075        0.0001        4.9122        4.9123       4.904797       0.06410
  19     114.6        0.0075        0.0001        4.7780        4.7782       4.770686       0.06262
  18     136.5        0.0075        0.0002        4.6285        4.6287       4.621208       0.05748
  17     162.9        0.0074        0.0002        4.4406        4.4407       4.433295       0.06006
  16     196.4        0.0074        0.0002        4.1548        4.1550       4.147620       0.07191
  15     218.7        0.0074        0.0002        3.9564        3.9566       3.949238       0.07532
  14     243.0        0.0074        0.0002        3.7055        3.7058       3.698400       0.08700
  13     269.0        0.0074        0.0002        3.3399        3.3401       3.332751       0.11861
  12     297.5        0.0074        0.0002        2.8954        2.8956       2.888241       0.13184
  11     328.5        0.0074        0.0002        2.4388        2.4390       2.431658       0.12414
  10     361.9        0.0075        0.0002        2.0269        2.0271       2.019643       0.10424
   9     398.1        0.0076        0.0002        1.6753        1.6755       1.667920       0.08194
   8     437.6        0.0078        0.0002        1.3592        1.3594       1.351567       0.06764
   7     480.5        0.0082        0.0002        1.0616        1.0618       1.053560       0.05853
   6     533.0        0.0091        0.0001        0.7543        0.7544       0.745352       0.04958
   5     589.8        0.0107        0.0001        0.4951        0.4952       0.484547       0.03871
   4     651.6        0.0138        0.0001        0.2943        0.2943       0.280510       0.02790
   3     718.7        0.0200        0.0001        0.1528        0.1529       0.132834       0.01856
   2     792.3        0.0327        0.0000        0.0658        0.0658       0.033133       0.01143
   1     891.5        0.0000        0.0051        0.0000        0.0051       0.005050       0.00239
   0    1013.0        0.0001        0.0012        0.0000        0.0012       0.001138       0.00027



 Wavenumbers:  4000. -  4650. cm-1, ATM      1
 LEVEL PRESSURE   UPWARD FLUX   DIFDOWN FLUX  DIRDOWN FLUX  DOWNWARD FLUX   NET FLUX    HEATING RATE
          mb          W/m2          W/m2          W/m2        W/m2          W/m2       degree/day
  51    .06700        3.3832        0.0000        6.9421        6.9421       3.558905       0.00000
  50    .07753        3.3832        0.0000        6.9421        6.9421       3.558904       0.00079
  49    .09103        3.3832        0.0000        6.9421        6.9421       3.558902       0.00078
  48    0.1069        3.3832        0.0000        6.9421        6.9421       3.558901       0.00076
  47    0.1255        3.3832        0.0000        6.9421        6.9421       3.558899       0.00074
  46    0.1487        3.3832        0.0000        6.9421        6.9421       3.558897       0.00075
  45    0.1794        3.3832        0.0000        6.9421        6.9421       3.558894       0.00077
  44    0.2165        3.3832        0.0000        6.9421        6.9421       3.558891       0.00076
  43    0.2613        3.3832        0.0000        6.9420        6.9420       3.558887       0.00074
  42    0.3336        3.3832        0.0000        6.9420        6.9420       3.558881       0.00076
  41    0.4307        3.3832        0.0000        6.9420        6.9420       3.558872       0.00077
  40    0.5894        3.3832        0.0000        6.9420        6.9420       3.558857       0.00079
  39     1.339        3.3832        0.0000        6.9419        6.9419       3.558768       0.00100
  38     1.782        3.3832        0.0000        6.9418        6.9419       3.558699       0.00132
  37     2.292        3.3832        0.0000        6.9418        6.9418       3.558605       0.00155
  36     2.964        3.3832        0.0000        6.9416        6.9416       3.558466       0.00175
  35     3.853        3.3832        0.0000        6.9414        6.9414       3.558259       0.00196
  34     5.035        3.3832        0.0000        6.9411        6.9411       3.557954       0.00218
  33     6.613        3.3831        0.0000        6.9406        6.9407       3.557506       0.00240
  32     8.786        3.3831        0.0000        6.9399        6.9400       3.556845       0.00257
  31     11.80        3.3831        0.0001        6.9389        6.9389       3.555809       0.00290
  30     15.07        3.3831        0.0001        6.9377        6.9377       3.554598       0.00313
  29     18.79        3.3831        0.0001        6.9362        6.9363       3.553137       0.00331
  28     23.16        3.3831        0.0001        6.9343        6.9344       3.551329       0.00350
  27     28.12        3.3831        0.0001        6.9321        6.9323       3.549150       0.00370
  26     33.73        3.3831        0.0001        6.9294        6.9296       3.546474       0.00402
  25     40.54        3.3831        0.0002        6.9258        6.9260       3.542865       0.00448
  24     48.69        3.3831        0.0002        6.9210        6.9212       3.538084       0.00495
  23     57.69        3.3831        0.0002        6.9154        6.9156       3.532456       0.00528
  22     68.43        3.3832        0.0003        6.9083        6.9086       3.525452       0.00551
  21     81.20        3.3832        0.0003        6.8998        6.9001       3.516879       0.00567
  20     96.49        3.3833        0.0004        6.8894        6.8899       3.506511       0.00572
  19     114.6        3.3835        0.0005        6.8765        6.8770       3.493509       0.00607
  18     136.5        3.3838        0.0006        6.8610        6.8616       3.477793       0.00604
  17     162.9        3.3842        0.0007        6.8417        6.8424       3.458188       0.00627
  16     196.4        3.3849        0.0008        6.8147        6.8155       3.430598       0.00694
  15     218.7        3.3856        0.0009        6.7948        6.7958       3.410213       0.00774
  14     243.0        3.3865        0.0010        6.7698        6.7708       3.384289       0.00899
  13     269.0        3.3881        0.0011        6.7349        6.7360       3.347919       0.01180
  12     297.5        3.3904        0.0012        6.6869        6.6881       3.297708       0.01489
  11     328.5        3.3937        0.0014        6.6194        6.6207       3.227033       0.01922
  10     361.9        3.3981        0.0015        6.5295        6.5309       3.132865       0.02383
   9     398.1        3.4039        0.0016        6.4202        6.4218       3.017953       0.02677
   8     437.6        3.4117        0.0018        6.2962        6.2979       2.886268       0.02816
   7     480.5        3.4225        0.0019        6.1555        6.1574       2.734882       0.02973
   6     533.0        3.4403        0.0021        5.9675        5.9696       2.529270       0.03308
   5     589.8        3.4666        0.0022        5.7368        5.7390       2.272359       0.03813
   4     651.6        3.5059        0.0024        5.4662        5.4686       1.962681       0.04235
   3     718.7        3.5621        0.0025        5.1912        5.1937       1.631571       0.04161
   2     792.3        3.6400        0.0027        4.9395        4.9422       1.302157       0.03778
   1     891.5        0.0610        1.2104        0.0009        1.2113       1.150278       0.01292
   0    1013.0        0.0635        1.1557        0.0008        1.1566       1.093112       0.00397



 Wavenumbers:  4650. -  5150. cm-1, ATM      1
 LEVEL PRESSURE   UPWARD FLUX   DIFDOWN FLUX  DIRDOWN FLUX  DOWNWARD FLUX   NET FLUX    HEATING RATE
          mb          W/m2          W/m2          W/m2        W/m2          W/m2       degree/day
  51    .06700        2.3716        0.0000        6.5710        6.5710       4.199371       0.00000
  50    .07753        2.3716        0.0000        6.5708        6.5708       4.199135       0.18887
  49    .09103        2.3716        0.0000        6.5705        6.5705       4.198842       0.18362
  48    0.1069        2.3716        0.0000        6.5701        6.5701       4.198507       0.17806
  47    0.1255        2.3716        0.0000        6.5697        6.5697       4.198127       0.17238
  46    0.1487        2.3716        0.0000        6.5693        6.5693       4.197653       0.17268
  45    0.1794        2.3716        0.0000        6.5686        6.5686       4.197017       0.17473
  44    0.2165        2.3716        0.0000        6.5679        6.5679       4.196279       0.16788
  43    0.2613        2.3716        0.0000        6.5670        6.5670       4.195426       0.16078
  42    0.3336        2.3716        0.0000        6.5657        6.5657       4.194062       0.15894
  41    0.4307        2.3716        0.0000        6.5640        6.5640       4.192340       0.14971
  40    0.5894        2.3716        0.0000        6.5613        6.5613       4.189724       0.13913
  39     1.339        2.3716        0.0000        6.5516        6.5516       4.179946       0.11008
  38     1.782        2.3716        0.0000        6.5473        6.5473       4.175730       0.08027
  37     2.292        2.3716        0.0000        6.5434        6.5435       4.171843       0.06438
  36     2.964        2.3716        0.0000        6.5395        6.5395       4.167888       0.04965
  35     3.853        2.3716        0.0000        6.5355        6.5356       4.163944       0.03743
  34     5.035        2.3716        0.0000        6.5315        6.5315       4.159940       0.02860
  33     6.613        2.3716        0.0000        6.5271        6.5271       4.155543       0.02351
  32     8.786        2.3716        0.0001        6.5216        6.5216       4.150043       0.02136
  31     11.80        2.3716        0.0001        6.5135        6.5136       4.141955       0.02264
  30     15.07        2.3716        0.0001        6.5041        6.5042       4.132574       0.02422
  29     18.79        2.3716        0.0001        6.4925        6.4926       4.121042       0.02615
  28     23.16        2.3716        0.0001        6.4779        6.4780       4.106425       0.02826
  27     28.12        2.3716        0.0002        6.4599        6.4601       4.088417       0.03061
  26     33.73        2.3717        0.0002        6.4384        6.4386       4.066942       0.03229
  25     40.54        2.3717        0.0003        6.4112        6.4115       4.039755       0.03373
  24     48.69        2.3718        0.0003        6.3775        6.3778       4.006030       0.03490
  23     57.69        2.3719        0.0004        6.3404        6.3407       3.968828       0.03487
  22     68.43        2.3721        0.0004        6.2971        6.2976       3.925485       0.03407
  21     81.20        2.3723        0.0005        6.2483        6.2488       3.876460       0.03240
  20     96.49        2.3726        0.0006        6.1948        6.1954       3.822800       0.02962
  19     114.6        2.3731        0.0007        6.1381        6.1388       3.765769       0.02663
  18     136.5        2.3737        0.0008        6.0790        6.0798       3.706115       0.02294
  17     162.9        2.3746        0.0010        6.0160        6.0170       3.642397       0.02037
  16     196.4        2.3760        0.0012        5.9399        5.9410       3.564982       0.01949
  15     218.7        2.3772        0.0013        5.8896        5.8909       3.513722       0.01946
  14     243.0        2.3787        0.0014        5.8322        5.8336       3.454892       0.02040
  13     269.0        2.3809        0.0016        5.7624        5.7640       3.383085       0.02329
  12     297.5        2.3839        0.0017        5.6767        5.6784       3.294484       0.02628
  11     328.5        2.3881        0.0019        5.5726        5.5744       3.186300       0.02942
  10     361.9        2.3938        0.0020        5.4473        5.4493       3.055506       0.03309
   9     398.1        2.4015        0.0022        5.2995        5.3017       2.900191       0.03619
   8     437.6        2.4117        0.0023        5.1275        5.1298       2.718082       0.03894
   7     480.5        2.4257        0.0025        4.9290        4.9315       2.505730       0.04171
   6     533.0        2.4479        0.0027        4.6794        4.6820       2.234105       0.04370
   5     589.8        2.4791        0.0028        4.4188        4.4216       1.942526       0.04328
   4     651.6        2.5234        0.0030        4.1521        4.1551       1.631651       0.04251
   3     718.7        2.5841        0.0031        3.8929        3.8961       1.311973       0.04017
   2     792.3        2.6657        0.0033        3.6469        3.6502       0.984450       0.03756
   1     891.5        0.0443        0.8759        0.0006        0.8766       0.832237       0.01295
   0    1013.0        0.0467        0.8237        0.0006        0.8243       0.777603       0.00379



 Wavenumbers:  5150. -  6150. cm-1, ATM      1
 LEVEL PRESSURE   UPWARD FLUX   DIFDOWN FLUX  DIRDOWN FLUX  DOWNWARD FLUX   NET FLUX    HEATING RATE
          mb          W/m2          W/m2          W/m2        W/m2          W/m2       degree/day
  51    .06700        5.8591        0.0000       16.4735       16.4735      10.614421       0.00000
  50    .07753        5.8591        0.0000       16.4735       16.4735      10.614386       0.02763
  49    .09103        5.8591        0.0000       16.4734       16.4734      10.614341       0.02813
  48    0.1069        5.8591        0.0000       16.4734       16.4734      10.614287       0.02862
  47    0.1255        5.8591        0.0000       16.4733       16.4733      10.614223       0.02907
  46    0.1487        5.8591        0.0000       16.4732       16.4732      10.614139       0.03062
  45    0.1794        5.8591        0.0000       16.4731       16.4731      10.614020       0.03271
  44    0.2165        5.8591        0.0000       16.4730       16.4730      10.613873       0.03333
  43    0.2613        5.8591        0.0000       16.4728       16.4728      10.613694       0.03378
  42    0.3336        5.8591        0.0000       16.4725       16.4725      10.613388       0.03567
  41    0.4307        5.8591        0.0000       16.4720       16.4720      10.612969       0.03648
  40    0.5894        5.8591        0.0000       16.4713       16.4713      10.612267       0.03731
  39     1.339        5.8591        0.0000       16.4679       16.4679      10.608856       0.03841
  38     1.782        5.8591        0.0000       16.4659       16.4659      10.606854       0.03811
  37     2.292        5.8591        0.0001       16.4635       16.4636      10.604559       0.03800
  36     2.964        5.8590        0.0001       16.4605       16.4606      10.601585       0.03733
  35     3.853        5.8590        0.0001       16.4567       16.4568      10.597725       0.03663
  34     5.035        5.8590        0.0001       16.4516       16.4517      10.592719       0.03577
  33     6.613        5.8590        0.0002       16.4451       16.4453      10.586243       0.03462
  32     8.786        5.8590        0.0002       16.4367       16.4369      10.577910       0.03237
  31     11.80        5.8590        0.0003       16.4254       16.4257      10.566725       0.03131
  30     15.07        5.8590        0.0004       16.4141       16.4146      10.555598       0.02873
  29     18.79        5.8589        0.0005       16.4024       16.4030      10.544028       0.02623
  28     23.16        5.8589        0.0007       16.3900       16.3906      10.531706       0.02383
  27     28.12        5.8589        0.0008       16.3771       16.3779      10.518968       0.02165
  26     33.73        5.8589        0.0010       16.3641       16.3651      10.506150       0.01927
  25     40.54        5.8590        0.0012       16.3502       16.3513      10.492383       0.01708
  24     48.69        5.8590        0.0014       16.3354       16.3367      10.477741       0.01515
  23     57.69        5.8591        0.0016       16.3211       16.3227      10.463639       0.01322
  22     68.43        5.8592        0.0019       16.3062       16.3082      10.448995       0.01151
  21     81.20        5.8594        0.0023       16.2903       16.2926      10.433282       0.01038
  20     96.49        5.8596        0.0027       16.2726       16.2754      10.415813       0.00964
  19     114.6        5.8598        0.0033       16.2521       16.2553      10.395515       0.00948
  18     136.5        5.8601        0.0039       16.2245       16.2284      10.368259       0.01048
  17     162.9        5.8606        0.0046       16.1747       16.1793      10.318734       0.01583
  16     196.4        5.8612        0.0055       16.0518       16.0574      10.196104       0.03087
  15     218.7        5.8617        0.0061       15.8984       15.9045      10.042740       0.05823
  14     243.0        5.8624        0.0067       15.6153       15.6219       9.759582       0.09821
  13     269.0        5.8633        0.0073       15.1390       15.1462       9.282963       0.15461
  12     297.5        5.8647        0.0078       14.5779       14.5857       8.721046       0.16666
  11     328.5        5.8667        0.0083       13.8780       13.8864       8.019635       0.19071
  10     361.9        5.8698        0.0088       13.0814       13.0903       7.220438       0.20220
   9     398.1        5.8744        0.0093       12.2728       12.2821       6.407746       0.18934
   8     437.6        5.8811        0.0097       11.4776       11.4872       5.606134       0.17139
   7     480.5        5.8915        0.0100       10.7300       10.7400       4.848484       0.14880
   6     533.0        5.9102        0.0105       10.0326       10.0431       4.132890       0.11512
   5     589.8        5.9401        0.0111        9.5050        9.5161       3.576003       0.08266
   4     651.6        5.9884        0.0118        9.0814        9.0931       3.104732       0.06445
   3     718.7        6.0627        0.0125        8.7024        8.7150       2.652243       0.05687
   2     792.3        6.1728        0.0134        8.3379        8.3513       2.178504       0.05433
   1     891.5        0.1168        2.0692        0.0015        2.0708       1.953970       0.01911
   0    1013.0        0.1198        1.9933        0.0014        1.9947       1.874885       0.00549



 Wavenumbers:  6150. -  7700. cm-1, ATM      1
 LEVEL PRESSURE   UPWARD FLUX   DIFDOWN FLUX  DIRDOWN FLUX  DOWNWARD FLUX   NET FLUX    HEATING RATE
          mb          W/m2          W/m2          W/m2        W/m2          W/m2       degree/day
  51    .06700        9.1474        0.0000       30.4684       30.4684      21.321008       0.00000
  50    .07753        9.1474        0.0000       30.4683       30.4683      21.320957       0.04144
  49    .09103        9.1474        0.0000       30.4683       30.4683      21.320890       0.04174
  48    0.1069        9.1474        0.0000       30.4682       30.4682      21.320811       0.04202
  47    0.1255        9.1474        0.0000       30.4681       30.4681      21.320718       0.04227
  46    0.1487        9.1474        0.0000       30.4680       30.4680      21.320597       0.04411
  45    0.1794        9.1474        0.0000       30.4678       30.4678      21.320426       0.04669
  44    0.2165        9.1474        0.0000       30.4676       30.4676      21.320219       0.04715
  43    0.2613        9.1474        0.0000       30.4673       30.4673      21.319968       0.04744
  42    0.3336        9.1474        0.0000       30.4669       30.4669      21.319541       0.04974
  41    0.4307        9.1473        0.0000       30.4663       30.4663      21.318960       0.05052
  40    0.5894        9.1473        0.0001       30.4653       30.4653      21.317992       0.05146
  39     1.339        9.1473        0.0002       30.4604       30.4606      21.313309       0.05273
  38     1.782        9.1472        0.0002       30.4576       30.4578      21.310559       0.05235
  37     2.292        9.1472        0.0003       30.4543       30.4546      21.307400       0.05231
  36     2.964        9.1471        0.0003       30.4501       30.4504      21.303293       0.05156
  35     3.853        9.1470        0.0005       30.4445       30.4450      21.297936       0.05084
  34     5.035        9.1469        0.0006       30.4373       30.4379      21.290936       0.05000
  33     6.613        9.1468        0.0008       30.4278       30.4286      21.281788       0.04890
  32     8.786        9.1466        0.0010       30.4154       30.4164      21.269835       0.04642
  31     11.80        9.1463        0.0014       30.3984       30.3998      21.253450       0.04588
  30     15.07        9.1460        0.0018       30.3810       30.3828      21.236736       0.04315
  29     18.79        9.1457        0.0022       30.3623       30.3645      21.218834       0.04059
  28     23.16        9.1453        0.0027       30.3417       30.3444      21.199150       0.03806
  27     28.12        9.1448        0.0033       30.3196       30.3229      21.178049       0.03587
  26     33.73        9.1443        0.0040       30.2965       30.3005      21.156129       0.03296
  25     40.54        9.1437        0.0048       30.2708       30.2755      21.131789       0.03020
  24     48.69        9.1430        0.0057       30.2423       30.2480      21.105009       0.02771
  23     57.69        9.1422        0.0068       30.2139       30.2207      21.078439       0.02491
  22     68.43        9.1413        0.0081       30.1834       30.1914      21.050158       0.02223
  21     81.20        9.1401        0.0096       30.1500       30.1595      21.019422       0.02031
  20     96.49        9.1388        0.0113       30.1126       30.1240      20.985193       0.01889
  19     114.6        9.1372        0.0135       30.0695       30.0830      20.945791       0.01840
  18     136.5        9.1353        0.0160       30.0139       30.0299      20.894610       0.01968
  17     162.9        9.1331        0.0190       29.9225       29.9414      20.808377       0.02756
  16     196.4        9.1303        0.0228       29.7333       29.7561      20.625863       0.04594
  15     218.7        9.1285        0.0253       29.5259       29.5511      20.422597       0.07717
  14     243.0        9.1268        0.0278       29.1375       29.1653      20.038508       0.13321
  13     269.0        9.1254        0.0303       28.3800       28.4103      19.284916       0.24446
  12     297.5        9.1247        0.0327       27.3895       27.4222      18.297489       0.29286
  11     328.5        9.1254        0.0350       26.2257       26.2607      17.135262       0.31601
  10     361.9        9.1283        0.0371       24.8453       24.8824      15.754119       0.34944
   9     398.1        9.1346        0.0390       23.3471       23.3860      14.251440       0.35009
   8     437.6        9.1464        0.0406       21.7966       21.8373      12.690823       0.33367
   7     480.5        9.1681        0.0420       20.1977       20.2397      11.071677       0.31799
   6     533.0        9.2106        0.0435       18.4969       18.5404       9.329810       0.28021
   5     589.8        9.2820        0.0450       16.9754       17.0203       7.738375       0.23622
   4     651.6        9.4004        0.0464       15.6022       15.6486       6.248216       0.20378
   3     718.7        9.5840        0.0481       14.4232       14.4713       4.887305       0.17103
   2     792.3        9.8576        0.0501       13.4386       13.4887       3.631040       0.14408
   1     891.5        0.1877        3.2592        0.0024        3.2616       3.073848       0.04741
   0    1013.0        0.1960        3.0714        0.0022        3.0736       2.877546       0.01363



 Wavenumbers:  7700. -  8050. cm-1, ATM      1
 LEVEL PRESSURE   UPWARD FLUX   DIFDOWN FLUX  DIRDOWN FLUX  DOWNWARD FLUX   NET FLUX    HEATING RATE
          mb          W/m2          W/m2          W/m2        W/m2          W/m2       degree/day
  51    .06700        4.3596        0.0000        7.2006        7.2006       2.841027       0.00000
  50    .07753        4.3596        0.0000        7.2006        7.2006       2.841007       0.01653
  49    .09103        4.3596        0.0000        7.2005        7.2005       2.840981       0.01620
  48    0.1069        4.3596        0.0000        7.2005        7.2005       2.840951       0.01586
  47    0.1255        4.3596        0.0000        7.2005        7.2005       2.840917       0.01552
  46    0.1487        4.3596        0.0000        7.2004        7.2005       2.840874       0.01575
  45    0.1794        4.3596        0.0000        7.2004        7.2004       2.840815       0.01621
  44    0.2165        4.3596        0.0000        7.2003        7.2003       2.840745       0.01590
  43    0.2613        4.3596        0.0000        7.2003        7.2003       2.840662       0.01560
  42    0.3336        4.3596        0.0000        7.2001        7.2001       2.840525       0.01596
  41    0.4307        4.3596        0.0000        7.2000        7.2000       2.840343       0.01579
  40    0.5894        4.3597        0.0000        7.1997        7.1997       2.840047       0.01577
  39     1.339        4.3599        0.0001        7.1984        7.1985       2.838644       0.01579
  38     1.782        4.3600        0.0001        7.1977        7.1978       2.837820       0.01568
  37     2.292        4.3601        0.0001        7.1968        7.1969       2.836867       0.01579
  36     2.964        4.3602        0.0001        7.1957        7.1959       2.835616       0.01571
  35     3.853        4.3604        0.0002        7.1942        7.1944       2.833964       0.01568
  34     5.035        4.3607        0.0003        7.1922        7.1925       2.831770       0.01567
  33     6.613        4.3611        0.0003        7.1896        7.1899       2.828842       0.01565
  32     8.786        4.3616        0.0004        7.1860        7.1865       2.824902       0.01530
  31     11.80        4.3623        0.0006        7.1810        7.1816       2.819275       0.01575
  30     15.07        4.3631        0.0008        7.1755        7.1763       2.813248       0.01556
  29     18.79        4.3639        0.0010        7.1694        7.1704       2.806459       0.01539
  28     23.16        4.3650        0.0012        7.1623        7.1635       2.798553       0.01529
  27     28.12        4.3661        0.0014        7.1542        7.1557       2.789547       0.01531
  26     33.73        4.3675        0.0017        7.1452        7.1470       2.779512       0.01509
  25     40.54        4.3691        0.0021        7.1344        7.1365       2.767451       0.01496
  24     48.69        4.3710        0.0025        7.1215        7.1240       2.753001       0.01495
  23     57.69        4.3731        0.0029        7.1074        7.1104       2.737244       0.01477
  22     68.43        4.3757        0.0035        7.0909        7.0943       2.718631       0.01463
  21     81.20        4.3788        0.0041        7.0713        7.0755       2.696674       0.01451
  20     96.49        4.3825        0.0049        7.0484        7.0533       2.670811       0.01427
  19     114.6        4.3870        0.0058        7.0217        7.0275       2.640512       0.01415
  18     136.5        4.3923        0.0069        6.9906        6.9975       2.605152       0.01360
  17     162.9        4.3988        0.0081        6.9544        6.9625       2.563773       0.01323
  16     196.4        4.4073        0.0098        6.9087        6.9185       2.511227       0.01323
  15     218.7        4.4130        0.0109        6.8794        6.8903       2.477288       0.01289
  14     243.0        4.4193        0.0120        6.8481        6.8601       2.440848       0.01264
  13     269.0        4.4263        0.0133        6.8147        6.8280       2.401744       0.01269
  12     297.5        4.4340        0.0147        6.7791        6.7937       2.359735       0.01246
  11     328.5        4.4426        0.0161        6.7409        6.7571       2.314448       0.01231
  10     361.9        4.4523        0.0177        6.7002        6.7178       2.265560       0.01237
   9     398.1        4.4632        0.0194        6.6563        6.6757       2.212454       0.01237
   8     437.6        4.4756        0.0212        6.6089        6.6300       2.154467       0.01240
   7     480.5        4.4899        0.0231        6.5570        6.5801       2.090260       0.01261
   6     533.0        4.5090        0.0255        6.4915        6.5170       2.007976       0.01324
   5     589.8        4.5318        0.0280        6.4182        6.4463       1.914458       0.01388
   4     651.6        4.5592        0.0307        6.3359        6.3666       1.807360       0.01465
   3     718.7        4.5920        0.0336        6.2441        6.2777       1.685716       0.01529
   2     792.3        4.6305        0.0366        6.1437        6.1803       1.549815       0.01559
   1     891.5        0.1110        1.5903        0.0012        1.5914       1.480428       0.00590
   0    1013.0        0.1124        1.5629        0.0011        1.5641       1.451625       0.00200



 Wavenumbers:  8050. - 12850. cm-1, ATM      1
 LEVEL PRESSURE   UPWARD FLUX   DIFDOWN FLUX  DIRDOWN FLUX  DOWNWARD FLUX   NET FLUX    HEATING RATE
          mb          W/m2          W/m2          W/m2        W/m2          W/m2       degree/day
  51    .06700       57.6201        0.0000      100.8135      100.8135      43.193430       0.00000
  50    .07753       57.6201        0.0000      100.8135      100.8135      43.193430       0.00000
  49    .09103       57.6200        0.0001      100.8134      100.8135      43.193430      -0.00000
  48    0.1069       57.6200        0.0001      100.8134      100.8135      43.193430      -0.00000
  47    0.1255       57.6200        0.0001      100.8133      100.8134      43.193430       0.00000
  46    0.1487       57.6200        0.0002      100.8132      100.8134      43.193430      -0.00000
  45    0.1794       57.6199        0.0003      100.8131      100.8134      43.193430       0.00000
  44    0.2165       57.6199        0.0004      100.8129      100.8133      43.193430      -0.00000
  43    0.2613       57.6198        0.0005      100.8127      100.8132      43.193430       0.00000
  42    0.3336       57.6197        0.0007      100.8125      100.8131      43.193430       0.00000
  41    0.4307       57.6196        0.0009      100.8121      100.8130      43.193430       0.00000
  40    0.5894       57.6193        0.0013      100.8115      100.8128      43.193430      -0.00000
  39     1.339       57.6182        0.0032      100.8085      100.8117      43.193430       0.00000
  38     1.782       57.6176        0.0043      100.8068      100.8110      43.193430      -0.00000
  37     2.292       57.6169        0.0056      100.8047      100.8103      43.193430       0.00000
  36     2.964       57.6159        0.0072      100.8021      100.8093      43.193430       0.00000
  35     3.853       57.6146        0.0094      100.7986      100.8081      43.193430      -0.00000
  34     5.035       57.6129        0.0124      100.7940      100.8064      43.193430       0.00000
  33     6.613       57.6107        0.0163      100.7878      100.8041      43.193430      -0.00000
  32     8.786       57.6076        0.0216      100.7794      100.8010      43.193430       0.00000
  31     11.80       57.6032        0.0292      100.7674      100.7966      43.193430       0.00000
  30     15.07       57.5985        0.0374      100.7546      100.7919      43.193430       0.00000
  29     18.79       57.5931        0.0466      100.7400      100.7866      43.193430      -0.00000
  28     23.16       57.5869        0.0574      100.7230      100.7803      43.193430      -0.00000
  27     28.12       57.5798        0.0697      100.7035      100.7732      43.193430       0.00000
  26     33.73       57.5718        0.0835      100.6817      100.7652      43.193430      -0.00000
  25     40.54       57.5621        0.1003      100.6552      100.7555      43.193430       0.00000
  24     48.69       57.5504        0.1205      100.6234      100.7438      43.193430      -0.00000
  23     57.69       57.5375        0.1427      100.5883      100.7310      43.193430       0.00000
  22     68.43       57.5222        0.1692      100.5464      100.7156      43.193430      -0.00000
  21     81.20       57.5039        0.2008      100.4965      100.6973      43.193430      -0.00000
  20     96.49       57.4821        0.2385      100.4370      100.6755      43.193430       0.00000
  19     114.6       57.4562        0.2834      100.3585      100.6419      43.185642       0.00364
  18     136.5       57.4256        0.3367      100.2634      100.6000      43.174443       0.00431
  17     162.9       57.3891        0.4002      100.1407      100.5409      43.151757       0.00725
  16     196.4       57.3420        0.4828       99.9505      100.4333      43.091327       0.01521
  15     218.7       57.3110        0.5370       99.7889      100.3260      43.014938       0.02900
  14     243.0       57.2779        0.5959       99.5472      100.1431      42.865249       0.05192
  13     269.0       57.2436        0.6594       99.1452       99.8047      42.561101       0.09866
  12     297.5       57.2095        0.7276       98.5975       99.3251      42.115596       0.13213
  11     328.5       57.1780        0.8007       97.8659       98.6666      41.488618       0.17047
  10     361.9       57.1525        0.8785       96.8848       97.7633      40.610778       0.22210
   9     398.1       57.1378        0.9607       95.6330       96.5937      39.455941       0.26905
   8     437.6       57.1425        1.0470       94.0655       95.1125      37.970001       0.31770
   7     480.5       57.1837        1.1364       92.0807       93.2171      36.033400       0.38034
   6     533.0       57.2966        1.2423       89.4449       90.6871      33.390478       0.42516
   5     589.8       57.5134        1.3520       86.5544       87.9063      30.392931       0.44493
   4     651.6       57.8941        1.4649       83.4174       84.8823      26.988151       0.46561
   3     718.7       58.4896        1.5819       80.2037       81.7856      23.296029       0.46400
   2     792.3       59.3617        1.7037       77.0811       78.7847      19.422999       0.44419
   1     891.5        4.4078       21.8928        0.0142       21.9070      17.499163       0.16371
   0    1013.0        4.5156       21.1419        0.0133       21.1552      16.639545       0.05969



 Wavenumbers: 12850. - 16000. cm-1, ATM      1
 LEVEL PRESSURE   UPWARD FLUX   DIFDOWN FLUX  DIRDOWN FLUX  DOWNWARD FLUX   NET FLUX    HEATING RATE
          mb          W/m2          W/m2          W/m2        W/m2          W/m2       degree/day
  51    .06700       44.1019        0.0000       63.1686       63.1686      19.066670       0.00000
  50    .07753       44.1019        0.0001       63.1677       63.1678      19.065888       0.62669
  49    .09103       44.1019        0.0001       63.1666       63.1668      19.064914       0.60934
  48    0.1069       44.1018        0.0002       63.1654       63.1656      19.063803       0.59125
  47    0.1255       44.1018        0.0003       63.1640       63.1643      19.062539       0.57312
  46    0.1487       44.1018        0.0004       63.1623       63.1627      19.060961       0.57519
  45    0.1794       44.1017        0.0006       63.1600       63.1606      19.058843       0.58144
  44    0.2165       44.1017        0.0008       63.1573       63.1581      19.056391       0.55778
  43    0.2613       44.1017        0.0011       63.1542       63.1553      19.053559       0.53382
  42    0.3336       44.1017        0.0015       63.1493       63.1507      19.049039       0.52697
  41    0.4307       44.1017        0.0020       63.1431       63.1451      19.043374       0.49254
  40    0.5894       44.1019        0.0028       63.1338       63.1367      19.034765       0.45780
  39     1.339       44.1043        0.0069       63.0956       63.1025      18.998183       0.41185
  38     1.782       44.1069        0.0093       63.0740       63.0833      18.976397       0.41478
  37     2.292       44.1111        0.0121       63.0477       63.0597      18.948620       0.46005
  36     2.964       44.1183        0.0157       63.0095       63.0252      18.906882       0.52394
  35     3.853       44.1303        0.0205       62.9533       62.9737      18.843401       0.60244
  34     5.035       44.1487        0.0268       62.8725       62.8993      18.750649       0.66258
  33     6.613       44.1744        0.0353       62.7621       62.7974      18.622936       0.68276
  32     8.786       44.2078        0.0467       62.6182       62.6650      18.457114       0.64399
  31     11.80       44.2509        0.0630       62.4284       62.4913      18.240480       0.60651
  30     15.07       44.2915        0.0804       62.2426       62.3230      18.031529       0.53947
  29     18.79       44.3324        0.1001       62.0493       62.1494      17.816964       0.48648
  28     23.16       44.3744        0.1230       61.8424       61.9654      17.590999       0.43694
  27     28.12       44.4158        0.1491       61.6278       61.7770      17.361175       0.39069
  26     33.73       44.4524        0.1783       61.4177       61.5960      17.143600       0.32713
  25     40.54       44.4856        0.2136       61.1983       61.4119      16.926332       0.26955
  24     48.69       44.5147        0.2560       60.9680       61.2240      16.709306       0.22459
  23     57.69       44.5362        0.3026       60.7478       61.0504      16.514132       0.18295
  22     68.43       44.5506        0.3580       60.5202       60.8781      16.327588       0.14665
  21     81.20       44.5521        0.4239       60.2938       60.7178      16.165657       0.10700
  20     96.49       44.5396        0.5025       60.0643       60.5668      16.027197       0.07642
  19     114.6       44.5244        0.5964       59.8078       60.4042      15.879804       0.06882
  18     136.5       44.5002        0.7076       59.5157       60.2233      15.723115       0.06025
  17     162.9       44.4656        0.8396       59.1770       60.0166      15.551020       0.05501
  16     196.4       44.4087        1.0104       58.7604       59.7708      15.362176       0.04753
  15     218.7       44.3670        1.1223       58.4948       59.6171      15.250147       0.04253
  14     243.0       44.3199        1.2438       58.2089       59.4527      15.132756       0.04072
  13     269.0       44.2675        1.3751       57.9006       59.2757      15.008211       0.04040
  12     297.5       44.2100        1.5168       57.5668       59.0836      14.873556       0.03994
  11     328.5       44.1489        1.6695       57.2005       58.8700      14.721042       0.04147
  10     361.9       44.0854        1.8334       56.7963       58.6298      14.544385       0.04470
   9     398.1       44.0207        2.0093       56.3475       58.3568      14.336082       0.04853
   8     437.6       43.9579        2.1973       55.8422       58.0396      14.081665       0.05440
   7     480.5       43.9022        2.3977       55.2625       57.6602      13.757987       0.06357
   6     533.0       43.8534        2.6423       54.4972       57.1394      13.286026       0.07592
   5     589.8       43.8258        2.9026       53.6307       56.5333      12.707476       0.08588
   4     651.6       43.8312        3.1779       52.6606       55.8384      12.007180       0.09577
   3     718.7       43.8774        3.4685       51.6100       55.0785      11.201053       0.10131
   2     792.3       43.9746        3.7743       50.5019       54.2762      10.301600       0.10316
   1     891.5       11.3200       21.0726        0.0095       21.0821       9.762172       0.04590
   0    1013.0       11.4106       20.7895        0.0091       20.7986       9.388036       0.02598



 Wavenumbers: 16000. - 22650. cm-1, ATM      1
 LEVEL PRESSURE   UPWARD FLUX   DIFDOWN FLUX  DIRDOWN FLUX  DOWNWARD FLUX   NET FLUX    HEATING RATE
          mb          W/m2          W/m2          W/m2        W/m2          W/m2       degree/day
  51    .06700       80.5194        0.0000      100.7153      100.7153      20.195919       0.00000
  50    .07753       80.5193        0.0003      100.7147      100.7151      20.195800       0.09582
  49    .09103       80.5191        0.0007      100.7140      100.7147      20.195626       0.10868
  48    0.1069       80.5190        0.0012      100.7131      100.7144      20.195393       0.12393
  47    0.1255       80.5188        0.0018      100.7121      100.7139      20.195082       0.14126
  46    0.1487       80.5186        0.0025      100.7108      100.7132      20.194622       0.16739
  45    0.1794       80.5184        0.0034      100.7089      100.7123      20.193904       0.19709
  44    0.2165       80.5182        0.0045      100.7066      100.7111      20.192931       0.22151
  43    0.2613       80.5179        0.0059      100.7037      100.7095      20.191610       0.24902
  42    0.3336       80.5177        0.0081      100.6987      100.7068      20.189098       0.29284
  41    0.4307       80.5174        0.0110      100.6918      100.7028      20.185312       0.32918
  40    0.5894       80.5174        0.0158      100.6797      100.6955      20.178092       0.38396
  39     1.339       80.5230        0.0383      100.6095      100.6478      20.124758       0.60044
  38     1.782       80.5307        0.0515      100.5585      100.6100      20.079338       0.86473
  37     2.292       80.5435        0.0669      100.4903      100.5571      20.013612       1.08860
  36     2.964       80.5665        0.0869      100.3868      100.4737      19.907182       1.33602
  35     3.853       80.6056        0.1135      100.2306      100.3441      19.738420       1.60158
  34     5.035       80.6662        0.1486      100.0045      100.1531      19.486901       1.79674
  33     6.613       80.7515        0.1955       99.6939       99.8894      19.137876       1.86589
  32     8.786       80.8620        0.2585       99.2881       99.5466      18.684606       1.76034
  31     11.80       81.0033        0.3484       98.7496       99.0980      18.094728       1.65148
  30     15.07       81.1355        0.4446       98.2198       98.6644      17.528920       1.46080
  29     18.79       81.2673        0.5528       97.6651       98.2180      16.950704       1.31099
  28     23.16       81.4010        0.6788       97.0671       97.7460      16.345005       1.17123
  27     28.12       81.5303        0.8224       96.4406       97.2630      15.732697       1.04088
  26     33.73       81.6410        0.9825       95.8179       96.8004      15.159406       0.86196
  25     40.54       81.7355        1.1753       95.1548       96.3302      14.594620       0.70068
  24     48.69       81.8115        1.4069       94.4420       95.8489      14.037350       0.57669
  23     57.69       81.8583        1.6603       93.7416       95.4019      13.543540       0.46287
  22     68.43       81.8746        1.9608       92.9954       94.9561      13.081514       0.36321
  21     81.20       81.8400        2.3175       92.2231       94.5406      12.700572       0.25172
  20     96.49       81.7490        2.7406       91.4110       94.1516      12.402596       0.16446
  19     114.6       81.6162        3.2396       90.5070       93.7467      12.130421       0.12709
  18     136.5       81.4429        3.8263       89.4803       93.3065      11.863628       0.10259
  17     162.9       81.2228        4.5180       88.3022       92.8202      11.597443       0.08508
  16     196.4       80.9065        5.4049       86.8606       92.2656      11.359104       0.05999
  15     218.7       80.6883        5.9812       85.9492       91.9304      11.242153       0.04440
  14     243.0       80.4471        6.6020       84.9789       91.5810      11.133854       0.03756
  13     269.0       80.1820        7.2684       83.9493       91.2177      11.035720       0.03183
  12     297.5       79.8923        7.9812       82.8589       90.8401      10.947865       0.02606
  11     328.5       79.5796        8.7429       81.6982       90.4411      10.861532       0.02347
  10     361.9       79.2441        9.5533       80.4669       90.0202      10.776159       0.02160
   9     398.1       78.8850       10.4143       79.1611       89.5755      10.690477       0.01996
   8     437.6       78.5031       11.3264       77.7777       89.1041      10.601051       0.01912
   7     480.5       78.0989       12.2898       76.3136       88.6035      10.504564       0.01895
   6     533.0       77.6098       13.4558       74.5359       87.9917      10.381963       0.01972
   5     589.8       77.0943       14.6885       72.6469       87.3354      10.241067       0.02091
   4     651.6       76.5555       15.9858       70.6456       86.6313      10.075827       0.02260
   3     718.7       75.9940       17.3456       68.5367       85.8823       9.888303       0.02357
   2     792.3       75.4129       18.7628       66.3287       85.0915       9.678651       0.02404
   1     891.5       38.8010       48.3083        0.0123       48.3206       9.519546       0.01354
   0    1013.0       38.7582       48.1110        0.0116       48.1226       9.364397       0.01077



 Wavenumbers: 22650. - 29000. cm-1, ATM      1
 LEVEL PRESSURE   UPWARD FLUX   DIFDOWN FLUX  DIRDOWN FLUX  DOWNWARD FLUX   NET FLUX    HEATING RATE
          mb          W/m2          W/m2          W/m2        W/m2          W/m2       degree/day
  51    .06700       35.2258        0.0000       38.0063       38.0063       2.780491       0.00000
  50    .07753       35.2256        0.0004       38.0057       38.0061       2.780491      -0.00000
  49    .09103       35.2254        0.0009       38.0050       38.0059       2.780491       0.00000
  48    0.1069       35.2252        0.0014       38.0042       38.0057       2.780491       0.00000
  47    0.1255       35.2249        0.0021       38.0033       38.0054       2.780491       0.00000
  46    0.1487       35.2246        0.0029       38.0022       38.0051       2.780491      -0.00000
  45    0.1794       35.2241        0.0040       38.0006       38.0046       2.780491       0.00000
  44    0.2165       35.2236        0.0053       37.9987       38.0040       2.780491       0.00000
  43    0.2613       35.2229        0.0069       37.9965       38.0034       2.780491      -0.00000
  42    0.3336       35.2218        0.0095       37.9928       38.0023       2.780491       0.00000
  41    0.4307       35.2204        0.0129       37.9880       38.0009       2.780491       0.00000
  40    0.5894       35.2180        0.0185       37.9800       37.9985       2.780491       0.00000
  39     1.339       35.2069        0.0449       37.9425       37.9874       2.780491      -0.00000
  38     1.782       35.2003        0.0604       37.9204       37.9808       2.780491      -0.00000
  37     2.292       35.1927        0.0783       37.8949       37.9732       2.780491       0.00000
  36     2.964       35.1828        0.1019       37.8614       37.9633       2.780491       0.00000
  35     3.853       35.1697        0.1330       37.8172       37.9502       2.780491       0.00000
  34     5.035       35.1523        0.1742       37.7586       37.9328       2.780491      -0.00000
  33     6.613       35.1290        0.2292       37.6803       37.9095       2.780491      -0.00000
  32     8.786       35.0978        0.3032       37.5750       37.8783       2.780491       0.00000
  31     11.80       35.0532        0.4088       37.4249       37.8337       2.780491       0.00000
  30     15.07       35.0055        0.5218       37.2642       37.7860       2.780491       0.00000
  29     18.79       34.9517        0.6489       37.0833       37.7322       2.780491       0.00000
  28     23.16       34.8892        0.7967       36.8730       37.6697       2.780491      -0.00000
  27     28.12       34.8181        0.9648       36.6338       37.5986       2.780491       0.00000
  26     33.73       34.7390        1.1518       36.3677       37.5194       2.780491       0.00000
  25     40.54       34.6440        1.3759       36.0486       37.4245       2.780491      -0.00000
  24     48.69       34.5304        1.6437       35.6672       37.3109       2.780491       0.00000
  23     57.69       34.4069        1.9347       35.2527       37.1874       2.780491      -0.00000
  22     68.43       34.2615        2.2770       34.7649       37.0419       2.780491       0.00000
  21     81.20       34.0905        2.6788       34.1922       36.8710       2.780491       0.00000
  20     96.49       33.8901        3.1489       33.5217       36.6706       2.780491       0.00000
  19     114.6       33.6568        3.6950       32.7424       36.4373       2.780491       0.00000
  18     136.5       33.3868        4.3257       31.8416       36.1673       2.780491       0.00000
  17     162.9       33.0740        5.0537       30.8008       35.8545       2.780491      -0.00000
  16     196.4       32.6823        5.9621       29.5007       35.4628       2.780491       0.00000
  15     218.7       32.4334        6.5371       28.6767       35.2138       2.780491      -0.00000
  14     243.0       32.1699        7.1436       27.8068       34.9504       2.780491       0.00000
  13     269.0       31.8926        7.7797       26.8933       34.6731       2.780491       0.00000
  12     297.5       31.6021        8.4433       25.9393       34.3826       2.780491      -0.00000
  11     328.5       31.2984        9.1338       24.9451       34.0789       2.780491       0.00000
  10     361.9       30.9829        9.8474       23.9160       33.7634       2.780491       0.00000
   9     398.1       30.6560       10.5823       22.8541       33.4365       2.780491       0.00000
   8     437.6       30.3190       11.3350       21.7645       33.0995       2.780491      -0.00000
   7     480.5       29.9732       12.1015       20.6521       32.7537       2.780491       0.00000
   6     533.0       29.5679       12.9915       19.3569       32.3484       2.780491      -0.00000
   5     589.8       29.1548       13.8886       18.0467       31.9353       2.780491       0.00000
   4     651.6       28.7364       14.7853       16.7316       31.5169       2.780491       0.00000
   3     718.7       28.3153       15.6743       15.4214       31.0958       2.780491       0.00000
   2     792.3       27.8944       16.5472       14.1276       30.6748       2.780491       0.00000
   1     891.5       18.6372       21.4151        0.0024       21.4175       2.780254       0.00002
   0    1013.0       18.5410       21.3191        0.0021       21.3212       2.780254       0.00000



 Wavenumbers: 29000. - 38000. cm-1, ATM      1
 LEVEL PRESSURE   UPWARD FLUX   DIFDOWN FLUX  DIRDOWN FLUX  DOWNWARD FLUX   NET FLUX    HEATING RATE
          mb          W/m2          W/m2          W/m2        W/m2          W/m2       degree/day
  51    .06700        5.0122        0.0000       13.4026       13.4026       8.390408       0.00000
  50    .07753        5.0120        0.0003       13.3983       13.3986       8.386610       3.04451
  49    .09103        5.0117        0.0007       13.3921       13.3928       8.381090       3.44980
  48    0.1069        5.0114        0.0011       13.3840       13.3851       8.373713       3.92692
  47    0.1255        5.0111        0.0016       13.3733       13.3749       8.363868       4.46336
  46    0.1487        5.0106        0.0022       13.3579       13.3601       8.349425       5.26460
  45    0.1794        5.0101        0.0030       13.3340       13.3371       8.327024       6.14953
  44    0.2165        5.0094        0.0040       13.3024       13.3064       8.297004       6.82907
  43    0.2613        5.0086        0.0052       13.2604       13.2656       8.256948       7.55045
  42    0.3336        5.0074        0.0071       13.1833       13.1904       8.182938       8.62884
  41    0.4307        5.0059        0.0095       13.0729       13.0824       8.076560       9.24927
  40    0.5894        5.0035        0.0134       12.8796       12.8930       7.889507       9.94728
  39     1.339        4.9952        0.0297       11.9165       11.9463       6.951089      10.56488
  38     1.782        4.9920        0.0381       11.4399       11.4780       6.486041       8.85376
  37     2.292        4.9896        0.0470       10.9796       11.0266       6.037014       7.43707
  36     2.964        4.9884        0.0580       10.4786       10.5366       5.548229       6.13572
  35     3.853        4.9893        0.0715        9.9429       10.0144       5.025128       4.96432
  34     5.035        4.9931        0.0884        9.4007        9.4891       4.496032       3.77964
  33     6.613        4.9999        0.1098        8.8752        8.9851       3.985134       2.73127
  32     8.786        5.0094        0.1375        8.3786        8.5161       3.506737       1.85792
  31     11.80        5.0209        0.1755        7.8897        8.0651       3.044205       1.29494
  30     15.07        5.0311        0.2147        7.5108        7.7255       2.694432       0.90305
  29     18.79        5.0406        0.2574        7.1776        7.4350       2.394453       0.68014
  28     23.16        5.0494        0.3055        6.8664        7.1719       2.122518       0.52584
  27     28.12        5.0569        0.3587        6.5780        6.9367       1.879878       0.41247
  26     33.73        5.0604        0.4167        6.3195        6.7362       1.675793       0.30685
  25     40.54        5.0589        0.4851        6.0663        6.5514       1.492501       0.22739
  24     48.69        5.0518        0.5653        5.8128        6.3782       1.326307       0.17198
  23     57.69        5.0391        0.6509        5.5777        6.2286       1.189537       0.12820
  22     68.43        5.0184        0.7500        5.3379        6.0879       1.069465       0.09439
  21     81.20        4.9856        0.8650        5.0965        5.9615       0.975921       0.06181
  20     96.49        4.9393        0.9979        4.8476        5.8455       0.906199       0.03848
  19     114.6        4.8829        1.1485        4.5799        5.7284       0.845452       0.02836
  18     136.5        4.8175        1.3169        4.2891        5.6059       0.788454       0.02192
  17     162.9        4.7428        1.5037        3.9732        5.4769       0.734050       0.01739
  16     196.4        4.6481        1.7276        3.6080        5.3356       0.687476       0.01172
  15     218.7        4.5885        1.8640        3.3898        5.2537       0.665273       0.00843
  14     243.0        4.5265        2.0030        3.1686        5.1716       0.645111       0.00699
  13     269.0        4.4625        2.1438        2.9461        5.0898       0.627308       0.00578
  12     297.5        4.3970        2.2849        2.7239        5.0088       0.611885       0.00457
  11     328.5        4.3306        2.4251        2.5029        4.9280       0.597378       0.00394
  10     361.9        4.2640        2.5632        2.2846        4.8478       0.583812       0.00343
   9     398.1        4.1975        2.6979        2.0708        4.7687       0.571179       0.00294
   8     437.6        4.1316        2.8282        1.8626        4.6908       0.559211       0.00256
   7     480.5        4.0667        2.9526        1.6621        4.6147       0.548039       0.00219
   6     533.0        3.9942        3.0866        1.4437        4.5302       0.536071       0.00193
   5     589.8        3.9242        3.2099        1.2390        4.4489       0.524691       0.00169
   4     651.6        3.8573        3.3210        1.0500        4.3710       0.513742       0.00150
   3     718.7        3.7938        3.4191        0.8778        4.2970       0.503189       0.00133
   2     792.3        3.7340        3.5033        0.7237        4.2270       0.493010       0.00117
   1     891.5        2.5933        3.0761        0.0001        3.0762       0.482901       0.00086
   0    1013.0        2.5636        3.0370        0.0001        3.0371       0.473483       0.00065



 Wavenumbers: 38000. - 50000. cm-1, ATM      1
 LEVEL PRESSURE   UPWARD FLUX   DIFDOWN FLUX  DIRDOWN FLUX  DOWNWARD FLUX   NET FLUX    HEATING RATE
          mb          W/m2          W/m2          W/m2        W/m2          W/m2       degree/day
  51    .06700        0.0051        0.0000        0.8267        0.8267       0.821528       0.00000
  50    .07753        0.0051        0.0001        0.8242        0.8243       0.819196       1.86936
  49    .09103        0.0050        0.0002        0.8207        0.8209       0.815872       2.07705
  48    0.1069        0.0049        0.0002        0.8162        0.8164       0.811514       2.31984
  47    0.1255        0.0048        0.0004        0.8103        0.8106       0.805801       2.59006
  46    0.1487        0.0047        0.0005        0.8018        0.8023       0.797567       3.00143
  45    0.1794        0.0045        0.0007        0.7889        0.7896       0.785013       3.44648
  44    0.2165        0.0044        0.0009        0.7720        0.7729       0.768507       3.75474
  43    0.2613        0.0042        0.0011        0.7500        0.7511       0.746955       4.06246
  42    0.3336        0.0039        0.0015        0.7106        0.7121       0.708267       4.51071
  41    0.4307        0.0035        0.0019        0.6566        0.6584       0.654972       4.63387
  40    0.5894        0.0029        0.0024        0.5680        0.5704       0.567464       4.65357
  39     1.339        0.0015        0.0030        0.2422        0.2452       0.243720       3.64476
  38     1.782        0.0010        0.0026        0.1493        0.1519       0.150889       1.76735
  37     2.292        0.0007        0.0022        0.0924        0.0946       0.093932       0.94336
  36     2.964        0.0005        0.0018        0.0539        0.0557       0.055224       0.48589
  35     3.853        0.0003        0.0013        0.0295        0.0308       0.030502       0.23462
  34     5.035        0.0002        0.0010        0.0154        0.0164       0.016181       0.10230
  33     6.613        0.0001        0.0007        0.0073        0.0080       0.007912       0.04420
  32     8.786        0.0000        0.0004        0.0030        0.0034       0.003390       0.01756
  31     11.80        0.0000        0.0003        0.0010        0.0012       0.001199       0.00613
  30     15.07        0.0000        0.0001        0.0003        0.0005       0.000463       0.00190
  29     18.79        0.0000        0.0001        0.0001        0.0002       0.000182       0.00064
  28     23.16        0.0000        0.0000        0.0000        0.0001       0.000071       0.00022
  27     28.12        0.0000        0.0000        0.0000        0.0000       0.000028       0.00007
  26     33.73        0.0000        0.0000        0.0000        0.0000       0.000011       0.00002
  25     40.54        0.0000        0.0000        0.0000        0.0000       0.000005       0.00001
  24     48.69        0.0000        0.0000        0.0000        0.0000       0.000002       0.00000
  23     57.69        0.0000        0.0000        0.0000        0.0000       0.000001       0.00000
  22     68.43        0.0000        0.0000        0.0000        0.0000       0.000000       0.00000
  21     81.20        0.0000        0.0000        0.0000        0.0000       0.000000       0.00000
  20     96.49        0.0000        0.0000        0.0000        0.0000       0.000000       0.00000
  19     114.6        0.0000        0.0000        0.0000        0.0000       0.000000       0.00000
  18     136.5        0.0000        0.0000        0.0000        0.0000       0.000000       0.00000
  17     162.9        0.0000        0.0000        0.0000        0.0000       0.000000       0.00000
  16     196.4        0.0000        0.0000        0.0000        0.0000       0.000000       0.00000
  15     218.7        0.0000        0.0000        0.0000        0.0000       0.000000       0.00000
  14     243.0        0.0000        0.0000        0.0000        0.0000       0.000000       0.00000
  13     269.0        0.0000        0.0000        0.0000        0.0000       0.000000       0.00000
  12     297.5        0.0000        0.0000        0.0000        0.0000       0.000000       0.00000
  11     328.5        0.0000        0.0000        0.0000        0.0000       0.000000       0.00000
  10     361.9        0.0000        0.0000        0.0000        0.0000       0.000000       0.00000
   9     398.1        0.0000        0.0000        0.0000        0.0000       0.000000       0.00000
   8     437.6        0.0000        0.0000        0.0000        0.0000       0.000000       0.00000
   7     480.5        0.0000        0.0000        0.0000        0.0000       0.000000       0.00000
   6     533.0        0.0000        0.0000        0.0000        0.0000       0.000000       0.00000
   5     589.8        0.0000        0.0000        0.0000        0.0000       0.000000       0.00000
   4     651.6        0.0000        0.0000        0.0000        0.0000       0.000000       0.00000
   3     718.7        0.0000        0.0000        0.0000        0.0000       0.000000       0.00000
   2     792.3        0.0000        0.0000        0.0000        0.0000       0.000000       0.00000
   1     891.5        0.0000        0.0000        0.0000        0.0000       0.000000       0.00000
   0    1013.0        0.0000        0.0000        0.0000        0.0000       0.000000       0.00000



 Wavenumbers:   820. -  2600. cm-1, ATM      1
 LEVEL PRESSURE   UPWARD FLUX   DIFDOWN FLUX  DIRDOWN FLUX  DOWNWARD FLUX   NET FLUX    HEATING RATE
          mb          W/m2          W/m2          W/m2        W/m2          W/m2       degree/day
  51    .06700        0.7106        0.0000        3.8670        3.8670       3.156380       0.00000
  50    .07753        0.7106        0.0000        3.8643        3.8643       3.153663       2.17771
  49    .09103        0.7106        0.0000        3.8635        3.8635       3.152853       0.50639
  48    0.1069        0.7106        0.0000        3.8626        3.8626       3.151962       0.47416
  47    0.1255        0.7106        0.0000        3.8616        3.8616       3.151001       0.43561
  46    0.1487        0.7106        0.0000        3.8605        3.8605       3.149892       0.40439
  45    0.1794        0.7106        0.0000        3.8592        3.8592       3.148557       0.36649
  44    0.2165        0.7106        0.0000        3.8578        3.8578       3.147179       0.31347
  43    0.2613        0.7106        0.0000        3.8564        3.8564       3.145719       0.27524
  42    0.3336        0.7106        0.0000        3.8541        3.8541       3.143488       0.26014
  41    0.4307        0.7106        0.0000        3.8512        3.8512       3.140605       0.25065
  40    0.5894        0.7106        0.0000        3.8465        3.8465       3.135878       0.25135
  39     1.339        0.7106        0.0000        3.8251        3.8251       3.114501       0.24067
  38     1.782        0.7106        0.0000        3.8133        3.8133       3.102688       0.22491
  37     2.292        0.7106        0.0000        3.8003        3.8003       3.089625       0.21635
  36     2.964        0.7106        0.0000        3.7841        3.7841       3.073495       0.20249
  35     3.853        0.7106        0.0000        3.7642        3.7642       3.053578       0.18901
  34     5.035        0.7107        0.0000        3.7395        3.7395       3.028884       0.17640
  33     6.613        0.7107        0.0000        3.7090        3.7090       2.998345       0.16326
  32     8.786        0.7107        0.0000        3.6726        3.6726       2.961947       0.14136
  31     11.80        0.7107        0.0000        3.6320        3.6320       2.921345       0.11367
  30     15.07        0.7107        0.0000        3.6016        3.6016       2.890952       0.07847
  29     18.79        0.7107        0.0000        3.5777        3.5777       2.867045       0.05421
  28     23.16        0.7107        0.0000        3.5564        3.5564       2.845680       0.04131
  27     28.12        0.7107        0.0000        3.5348        3.5348       2.824121       0.03665
  26     33.73        0.7107        0.0000        3.5118        3.5118       2.801072       0.03465
  25     40.54        0.7108        0.0000        3.4849        3.4849       2.774166       0.03338
  24     48.69        0.7108        0.0000        3.4537        3.4537       2.742891       0.03236
  23     57.69        0.7108        0.0000        3.4210        3.4210       2.710192       0.03065
  22     68.43        0.7109        0.0000        3.3844        3.3844       2.673576       0.02879
  21     81.20        0.7109        0.0000        3.3441        3.3441       2.633240       0.02665
  20     96.49        0.7110        0.0000        3.2998        3.2998       2.588830       0.02451
  19     114.6        0.7110        0.0000        3.2506        3.2507       2.539625       0.02298
  18     136.5        0.7111        0.0000        3.1936        3.1936       2.482496       0.02197
  17     162.9        0.7113        0.0000        3.1181        3.1181       2.406855       0.02418
  16     196.4        0.7116        0.0000        3.0090        3.0090       2.297403       0.02755
  15     218.7        0.7118        0.0000        2.9420        2.9420       2.230202       0.02551
  14     243.0        0.7121        0.0000        2.8605        2.8605       2.148352       0.02839
  13     269.0        0.7127        0.0000        2.7419        2.7420       2.029288       0.03862
  12     297.5        0.7136        0.0000        2.5729        2.5729       1.859287       0.05042
  11     328.5        0.7151        0.0000        2.3602        2.3602       1.645149       0.05822
  10     361.9        0.7173        0.0000        2.1524        2.1524       1.435173       0.05313
   9     398.1        0.7204        0.0000        1.9974        1.9974       1.277038       0.03684
   8     437.6        0.7248        0.0000        1.8835        1.8835       1.158770       0.02529
   7     480.5        0.7310        0.0000        1.7734        1.7734       1.042475       0.02284
   6     533.0        0.7412        0.0000        1.6397        1.6398       0.898610       0.02314
   5     589.8        0.7557        0.0000        1.5068        1.5069       0.751114       0.02189
   4     651.6        0.7773        0.0000        1.3807        1.3807       0.603439       0.02020
   3     718.7        0.8061        0.0000        1.2680        1.2681       0.461965       0.01778
   2     792.3        0.8422        0.0000        1.1659        1.1660       0.323777       0.01585
   1     891.5        0.0158        0.2725        0.0002        0.2727       0.256932       0.00569
   0    1013.0        0.0174        0.2456        0.0002        0.2457       0.228307       0.00199

  Modules and versions used in this calculation:

       rrtmg_sw.1col.f90:  $Revision$                    rrtmg_sw_init.f90:  $Revision$        
     rrtmgsw_cldprop.f90:  $Revision$                  rrtmgsw_cldprmc.f90:  NOT USED          
     rrtmg_sw_reftra.f90:  $Revision$                  rrtmg_sw_spcvrt.f90:  NOT USED          
     rrtmg_sw_spcvmc.f90:  NOT USED                    rrtmgsw_setcoef.f90:  NOT USED          
     rrtmg_sw_taumol.f90:  $Revision$                  rrtmg_sw_vrtqdr.f90:  NOT USED          
                rrtatm.f:  NOT USED                             util_xxx.f:  NOT USED          
                 extra.f:  NOT USED                       rrtmg_sw_k_g.f90:  $Revision$        

