

 Wavenumbers:   820. - 50000. cm-1, ATM      1
 LEVEL PRESSURE   UPWARD FLUX   DIFDOWN FLUX  DIRDOWN FLUX  DOWNWARD FLUX   NET FLUX    HEATING RATE
          mb          W/m2          W/m2          W/m2        W/m2          W/m2       degree/day
  51    .06700      227.6094        0.0000      397.8738      397.8738     170.264395       0.00000
  50    .07753      227.6088        0.0012      397.8577      397.8589     170.250107      11.45182
  49    .09103      227.6080        0.0026      397.8418      397.8445     170.236423       8.55257
  48    0.1069      227.6072        0.0043      397.8230      397.8273     170.220082       8.69858
  47    0.1255      227.6063        0.0062      397.7997      397.8059     170.199648       9.26375
  46    0.1487      227.6051        0.0087      397.7676      397.7763     170.171204      10.36834
  45    0.1794      227.6036        0.0120      397.7205      397.7325     170.128932      11.60461
  44    0.2165      227.6018        0.0159      397.6602      397.6761     170.074311      12.42525
  43    0.2613      227.5999        0.0205      397.5829      397.6034     170.003552      13.33786
  42    0.3336      227.5968        0.0281      397.4449      397.4730     169.876184      14.84978
  41    0.4307      227.5930        0.0381      397.2524      397.2904     169.697423      15.54288
  40    0.5894      227.5874        0.0541      396.9253      396.9794     169.391912      16.24670
  39     1.339      227.5723        0.1256      395.4254      395.5509     167.978694      15.91027
  38     1.782      227.5707        0.1657      394.7288      394.8945     167.323731      12.46943
  37     2.292      227.5755        0.2113      394.0572      394.2685     166.693012      10.44636
  36     2.964      227.5913        0.2706      393.3007      393.5712     165.979906       8.95163
  35     3.853      227.6257        0.3480      392.4318      392.7798     165.154107       7.83699
  34     5.035      227.6846        0.4499      391.4441      391.8939     164.209368       6.74882
  33     6.613      227.7706        0.5848      390.3268      390.9116     163.141012       5.71143
  32     8.786      227.8812        0.7653      389.0624      389.8277     161.946506       4.63903
  31     11.80      228.0172        1.0215      387.5500      388.5715     160.554340       3.89763
  30     15.07      228.1369        1.2943      386.1556      387.4499     159.313027       3.20483
  29     18.79      228.2488        1.6000      384.7502      386.3502     158.101427       2.74707
  28     23.16      228.3526        1.9543      383.2686      385.2229     156.870258       2.38068
  27     28.12      228.4399        2.3560      381.7329      384.0889     155.648992       2.07607
  26     33.73      228.4915        2.8023      380.1982      383.0005     154.509017       1.71398
  25     40.54      228.5004        3.3376      378.5384      381.8760     153.375563       1.40618
  24     48.69      228.4601        3.9771      376.7214      380.6986     152.238525       1.17666
  23     57.69      228.3668        4.6730      374.8959      379.5689     151.202115       0.97148
  22     68.43      228.2033        5.4934      372.8999      378.3933     150.190010       0.79565
  21     81.20      227.9361        6.4603      370.7496      377.2099     149.273853       0.60538
  20     96.49      227.5524        7.5978      368.4056      376.0034     148.450964       0.45418
  19     114.6      227.0763        8.9264      365.7513      374.6777     147.601400       0.39669
  18     136.5      226.4987       10.4694      362.7231      373.1926     146.693803       0.34899
  17     162.9      225.8049       12.2631      359.1748      371.4379     145.632956       0.33909
  16     196.4      224.8809       14.5245      354.5718      369.0964     144.215431       0.35681
  15     218.7      224.2715       15.9709      351.4437      367.4146     143.143135       0.40711
  14     243.0      223.6148       17.5093      347.7111      365.2205     141.605628       0.53326
  13     269.0      222.9126       19.1379      342.9441      362.0820     139.169407       0.79030
  12     297.5      222.1677       20.8545      337.4137      358.2682     136.100489       0.91021
  11     328.5      221.3867       22.6607      331.1302      353.7910     132.404245       1.00500
  10     361.9      220.5770       24.5510      324.1219      348.6730     128.095923       1.09005
   9     398.1      219.7458       26.5248      316.6066      343.1314     123.385628       1.09739
   8     437.6      218.9085       28.5774      308.5895      337.1669     118.258336       1.09625
   7     480.5      218.0933       30.7029      299.9349      330.6378     112.544513       1.12217
   6     533.0      217.2213       33.2201      289.7021      322.9222     105.700913       1.10092
   5     589.8      216.4672       35.8177      279.3388      315.1565      98.689270       1.04076
   4     651.6      215.9247       38.4836      268.7786      307.2622      91.337444       1.00538
   3     718.7      215.6698       41.2085      258.2837      299.4921      83.822299       0.94445
   2     792.3      215.8005       43.9783      248.0774      292.0557      76.255181       0.86786
   1     891.5       94.9583      158.5296        7.7032      166.2328      71.274508       0.42383
   0    1013.0       95.0651      156.0192        7.2438      163.2630      68.197844       0.21363



 Wavenumbers:  2600. -  3250. cm-1, ATM      1
 LEVEL PRESSURE   UPWARD FLUX   DIFDOWN FLUX  DIRDOWN FLUX  DOWNWARD FLUX   NET FLUX    HEATING RATE
          mb          W/m2          W/m2          W/m2        W/m2          W/m2       degree/day
  51    .06700        0.7484        0.0000        3.5066        3.5066       2.758181       0.00000
  50    .07753        0.7484        0.0000        3.5066        3.5066       2.758173       0.00640
  49    .09103        0.7484        0.0000        3.5066        3.5066       2.758163       0.00627
  48    0.1069        0.7484        0.0000        3.5066        3.5066       2.758152       0.00613
  47    0.1255        0.7484        0.0000        3.5066        3.5066       2.758138       0.00599
  46    0.1487        0.7484        0.0000        3.5066        3.5066       2.758122       0.00607
  45    0.1794        0.7484        0.0000        3.5065        3.5065       2.758099       0.00624
  44    0.2165        0.7484        0.0000        3.5065        3.5065       2.758072       0.00611
  43    0.2613        0.7484        0.0000        3.5065        3.5065       2.758041       0.00598
  42    0.3336        0.7484        0.0000        3.5064        3.5064       2.757988       0.00615
  41    0.4307        0.7484        0.0000        3.5064        3.5064       2.757917       0.00618
  40    0.5894        0.7484        0.0000        3.5062        3.5062       2.757798       0.00633
  39     1.339        0.7484        0.0000        3.5055        3.5055       2.757099       0.00787
  38     1.782        0.7484        0.0000        3.5050        3.5050       2.756568       0.01011
  37     2.292        0.7484        0.0000        3.5043        3.5043       2.755876       0.01147
  36     2.964        0.7484        0.0000        3.5033        3.5033       2.754884       0.01245
  35     3.853        0.7484        0.0000        3.5019        3.5019       2.753507       0.01307
  34     5.035        0.7484        0.0000        3.5001        3.5001       2.751646       0.01329
  33     6.613        0.7484        0.0000        3.4977        3.4977       2.749236       0.01288
  32     8.786        0.7484        0.0000        3.4947        3.4947       2.746265       0.01154
  31     11.80        0.7484        0.0000        3.4911        3.4911       2.742629       0.01018
  30     15.07        0.7484        0.0000        3.4878        3.4878       2.739408       0.00832
  29     18.79        0.7484        0.0000        3.4848        3.4848       2.736343       0.00695
  28     23.16        0.7484        0.0000        3.4816        3.4816       2.733122       0.00623
  27     28.12        0.7484        0.0000        3.4779        3.4779       2.729502       0.00615
  26     33.73        0.7484        0.0000        3.4735        3.4735       2.725033       0.00672
  25     40.54        0.7484        0.0000        3.4671        3.4671       2.718703       0.00785
  24     48.69        0.7485        0.0000        3.4582        3.4583       2.709801       0.00921
  23     57.69        0.7485        0.0000        3.4472        3.4472       2.698744       0.01036
  22     68.43        0.7485        0.0000        3.4329        3.4329       2.684470       0.01122
  21     81.20        0.7485        0.0000        3.4152        3.4152       2.666722       0.01173
  20     96.49        0.7485        0.0000        3.3940        3.3941       2.645549       0.01169
  19     114.6        0.7486        0.0000        3.3692        3.3692       2.620620       0.01164
  18     136.5        0.7487        0.0001        3.3419        3.3420       2.593345       0.01049
  17     162.9        0.7488        0.0001        3.3129        3.3129       2.564183       0.00932
  16     196.4        0.7490        0.0001        3.2793        3.2794       2.530450       0.00849
  15     218.7        0.7492        0.0001        3.2578        3.2578       2.508678       0.00827
  14     243.0        0.7495        0.0001        3.2320        3.2321       2.482562       0.00906
  13     269.0        0.7500        0.0001        3.1968        3.1969       2.446917       0.01156
  12     297.5        0.7508        0.0001        3.1489        3.1491       2.398223       0.01444
  11     328.5        0.7521        0.0001        3.0821        3.0822       2.330111       0.01852
  10     361.9        0.7539        0.0001        2.9902        2.9904       2.236470       0.02369
   9     398.1        0.7565        0.0001        2.8715        2.8716       2.115091       0.02828
   8     437.6        0.7603        0.0001        2.7276        2.7278       1.967457       0.03157
   7     480.5        0.7661        0.0002        2.5595        2.5597       1.793614       0.03414
   6     533.0        0.7757        0.0002        2.3617        2.3619       1.586183       0.03337
   5     589.8        0.7899        0.0002        2.1649        2.1651       1.375168       0.03132
   4     651.6        0.8111        0.0002        1.9608        1.9609       1.149874       0.03081
   3     718.7        0.8413        0.0002        1.7593        1.7595       0.918232       0.02911
   2     792.3        0.8834        0.0002        1.5761        1.5762       0.692828       0.02585
   1     891.5        0.0443        0.5582        0.0448        0.6030       0.558712       0.01141
   0    1013.0        0.0485        0.5016        0.0379        0.5395       0.490977       0.00470



 Wavenumbers:  3250. -  4000. cm-1, ATM      1
 LEVEL PRESSURE   UPWARD FLUX   DIFDOWN FLUX  DIRDOWN FLUX  DOWNWARD FLUX   NET FLUX    HEATING RATE
          mb          W/m2          W/m2          W/m2        W/m2          W/m2       degree/day
  51    .06700        0.0053        0.0000        5.9117        5.9117       5.906392       0.00000
  50    .07753        0.0053        0.0000        5.9075        5.9075       5.902202       3.35808
  49    .09103        0.0053        0.0000        5.9050        5.9050       5.899759       1.52677
  48    0.1069        0.0053        0.0000        5.9032        5.9032       5.897893       0.99346
  47    0.1255        0.0053        0.0000        5.9014        5.9014       5.896135       0.79708
  46    0.1487        0.0053        0.0000        5.8995        5.8995       5.894246       0.68848
  45    0.1794        0.0053        0.0000        5.8974        5.8974       5.892097       0.58983
  44    0.2165        0.0053        0.0000        5.8952        5.8952       5.889980       0.48155
  43    0.2613        0.0053        0.0000        5.8931        5.8931       5.887821       0.40696
  42    0.3336        0.0053        0.0000        5.8899        5.8899       5.884663       0.36820
  41    0.4307        0.0053        0.0000        5.8861        5.8861       5.880826       0.33365
  40    0.5894        0.0053        0.0000        5.8803        5.8803       5.875024       0.30857
  39     1.339        0.0053        0.0000        5.8597        5.8597       5.854426       0.23189
  38     1.782        0.0053        0.0000        5.8513        5.8513       5.846001       0.16039
  37     2.292        0.0053        0.0000        5.8431        5.8431       5.837830       0.13533
  36     2.964        0.0053        0.0000        5.8334        5.8334       5.828191       0.12100
  35     3.853        0.0053        0.0000        5.8213        5.8213       5.816015       0.11555
  34     5.035        0.0053        0.0000        5.8052        5.8052       5.799920       0.11498
  33     6.613        0.0053        0.0000        5.7833        5.7834       5.778099       0.11666
  32     8.786        0.0053        0.0000        5.7531        5.7531       5.747897       0.11729
  31     11.80        0.0052        0.0000        5.7090        5.7090       5.703729       0.12366
  30     15.07        0.0052        0.0000        5.6615        5.6615       5.656264       0.12254
  29     18.79        0.0052        0.0000        5.6093        5.6094       5.604128       0.11821
  28     23.16        0.0052        0.0000        5.5524        5.5524       5.547202       0.11008
  27     28.12        0.0052        0.0000        5.4935        5.4935       5.488323       0.10009
  26     33.73        0.0052        0.0000        5.4348        5.4349       5.429635       0.08824
  25     40.54        0.0052        0.0001        5.3707        5.3708       5.365573       0.07948
  24     48.69        0.0052        0.0001        5.2985        5.2985       5.293340       0.07475
  23     57.69        0.0052        0.0001        5.2215        5.2216       5.216401       0.07212
  22     68.43        0.0052        0.0001        5.1318        5.1319       5.126741       0.07048
  21     81.20        0.0052        0.0001        5.0284        5.0285       5.023312       0.06834
  20     96.49        0.0051        0.0001        4.9122        4.9123       4.907177       0.06410
  19     114.6        0.0051        0.0001        4.7780        4.7782       4.773066       0.06262
  18     136.5        0.0051        0.0002        4.6285        4.6287       4.623588       0.05748
  17     162.9        0.0051        0.0002        4.4406        4.4407       4.435675       0.06006
  16     196.4        0.0050        0.0002        4.1548        4.1550       4.150001       0.07191
  15     218.7        0.0050        0.0002        3.9564        3.9566       3.951619       0.07532
  14     243.0        0.0050        0.0002        3.7055        3.7058       3.700782       0.08700
  13     269.0        0.0050        0.0002        3.3399        3.3401       3.335137       0.11861
  12     297.5        0.0050        0.0002        2.8954        2.8956       2.890633       0.13183
  11     328.5        0.0050        0.0002        2.4388        2.4390       2.434064       0.12414
  10     361.9        0.0050        0.0002        2.0269        2.0271       2.022074       0.10424
   9     398.1        0.0051        0.0002        1.6753        1.6755       1.670396       0.08193
   8     437.6        0.0052        0.0002        1.3592        1.3594       1.354121       0.06762
   7     480.5        0.0055        0.0002        1.0616        1.0618       1.056253       0.05850
   6     533.0        0.0061        0.0001        0.7543        0.7544       0.748333       0.04953
   5     589.8        0.0072        0.0001        0.4951        0.4952       0.488060       0.03863
   4     651.6        0.0093        0.0001        0.2943        0.2943       0.285058       0.02776
   3     718.7        0.0134        0.0001        0.1528        0.1529       0.139420       0.01830
   2     792.3        0.0219        0.0000        0.0658        0.0658       0.043895       0.01096
   1     891.5        0.0000        0.0084        0.0005        0.0089       0.008851       0.00298
   0    1013.0        0.0001        0.0020        0.0000        0.0020       0.001885       0.00048



 Wavenumbers:  4000. -  4650. cm-1, ATM      1
 LEVEL PRESSURE   UPWARD FLUX   DIFDOWN FLUX  DIRDOWN FLUX  DOWNWARD FLUX   NET FLUX    HEATING RATE
          mb          W/m2          W/m2          W/m2        W/m2          W/m2       degree/day
  51    .06700        2.6668        0.0000        6.9421        6.9421       4.275296       0.00000
  50    .07753        2.6668        0.0000        6.9421        6.9421       4.275295       0.00079
  49    .09103        2.6668        0.0000        6.9421        6.9421       4.275294       0.00078
  48    0.1069        2.6668        0.0000        6.9421        6.9421       4.275293       0.00076
  47    0.1255        2.6668        0.0000        6.9421        6.9421       4.275291       0.00074
  46    0.1487        2.6668        0.0000        6.9421        6.9421       4.275289       0.00075
  45    0.1794        2.6668        0.0000        6.9421        6.9421       4.275286       0.00077
  44    0.2165        2.6668        0.0000        6.9421        6.9421       4.275283       0.00076
  43    0.2613        2.6668        0.0000        6.9420        6.9420       4.275279       0.00074
  42    0.3336        2.6668        0.0000        6.9420        6.9420       4.275272       0.00076
  41    0.4307        2.6668        0.0000        6.9420        6.9420       4.275263       0.00077
  40    0.5894        2.6668        0.0000        6.9420        6.9420       4.275249       0.00079
  39     1.339        2.6668        0.0000        6.9419        6.9419       4.275160       0.00100
  38     1.782        2.6668        0.0000        6.9418        6.9419       4.275090       0.00132
  37     2.292        2.6668        0.0000        6.9418        6.9418       4.274997       0.00155
  36     2.964        2.6668        0.0000        6.9416        6.9416       4.274857       0.00175
  35     3.853        2.6668        0.0000        6.9414        6.9414       4.274651       0.00196
  34     5.035        2.6668        0.0000        6.9411        6.9411       4.274346       0.00218
  33     6.613        2.6668        0.0000        6.9406        6.9407       4.273898       0.00240
  32     8.786        2.6667        0.0000        6.9399        6.9400       4.273238       0.00256
  31     11.80        2.6667        0.0000        6.9389        6.9389       4.272202       0.00290
  30     15.07        2.6667        0.0001        6.9377        6.9377       4.270991       0.00313
  29     18.79        2.6667        0.0001        6.9362        6.9363       4.269531       0.00331
  28     23.16        2.6667        0.0001        6.9343        6.9344       4.267725       0.00349
  27     28.12        2.6667        0.0001        6.9321        6.9323       4.265548       0.00370
  26     33.73        2.6667        0.0001        6.9294        6.9296       4.262875       0.00402
  25     40.54        2.6667        0.0002        6.9258        6.9260       4.259271       0.00447
  24     48.69        2.6667        0.0002        6.9210        6.9212       4.254498       0.00494
  23     57.69        2.6667        0.0002        6.9154        6.9156       4.248880       0.00527
  22     68.43        2.6667        0.0003        6.9083        6.9086       4.241892       0.00549
  21     81.20        2.6668        0.0003        6.8998        6.9001       4.233342       0.00565
  20     96.49        2.6668        0.0004        6.8894        6.8898       4.223006       0.00570
  19     114.6        2.6669        0.0005        6.8765        6.8770       4.210053       0.00605
  18     136.5        2.6671        0.0006        6.8610        6.8615       4.194408       0.00602
  17     162.9        2.6674        0.0007        6.8417        6.8423       4.174912       0.00623
  16     196.4        2.6680        0.0008        6.8147        6.8155       4.147508       0.00690
  15     218.7        2.6684        0.0009        6.7948        6.7957       4.127284       0.00768
  14     243.0        2.6692        0.0010        6.7698        6.7708       4.101589       0.00891
  13     269.0        2.6704        0.0011        6.7349        6.7359       4.065582       0.01168
  12     297.5        2.6721        0.0012        6.6869        6.6880       4.015908       0.01473
  11     328.5        2.6747        0.0013        6.6194        6.6207       3.945990       0.01901
  10     361.9        2.6781        0.0014        6.5295        6.5309       3.852823       0.02357
   9     398.1        2.6825        0.0016        6.4202        6.4218       3.739233       0.02646
   8     437.6        2.6885        0.0017        6.2962        6.2979       3.609326       0.02777
   7     480.5        2.6969        0.0018        6.1555        6.1573       3.460429       0.02924
   6     533.0        2.7106        0.0020        5.9675        5.9695       3.258921       0.03242
   5     589.8        2.7308        0.0021        5.7368        5.7389       3.008097       0.03723
   4     651.6        2.7609        0.0023        5.4662        5.4685       2.707594       0.04109
   3     718.7        2.8038        0.0024        5.1912        5.1936       2.389777       0.03994
   2     792.3        2.8629        0.0026        4.9395        4.9420       2.079164       0.03562
   1     891.5        0.1151        1.8528        0.1520        2.0048       1.889750       0.01612
   0    1013.0        0.1196        1.7679        0.1412        1.9091       1.789444       0.00696



 Wavenumbers:  4650. -  5150. cm-1, ATM      1
 LEVEL PRESSURE   UPWARD FLUX   DIFDOWN FLUX  DIRDOWN FLUX  DOWNWARD FLUX   NET FLUX    HEATING RATE
          mb          W/m2          W/m2          W/m2        W/m2          W/m2       degree/day
  51    .06700        1.8666        0.0000        6.5710        6.5710       4.704357       0.00000
  50    .07753        1.8666        0.0000        6.5708        6.5708       4.704121       0.18887
  49    .09103        1.8666        0.0000        6.5705        6.5705       4.703827       0.18362
  48    0.1069        1.8666        0.0000        6.5701        6.5701       4.703493       0.17806
  47    0.1255        1.8666        0.0000        6.5697        6.5697       4.703113       0.17238
  46    0.1487        1.8666        0.0000        6.5693        6.5693       4.702639       0.17268
  45    0.1794        1.8666        0.0000        6.5686        6.5686       4.702002       0.17473
  44    0.2165        1.8666        0.0000        6.5679        6.5679       4.701264       0.16788
  43    0.2613        1.8666        0.0000        6.5670        6.5670       4.700411       0.16078
  42    0.3336        1.8666        0.0000        6.5657        6.5657       4.699048       0.15894
  41    0.4307        1.8666        0.0000        6.5640        6.5640       4.697326       0.14971
  40    0.5894        1.8666        0.0000        6.5613        6.5613       4.694710       0.13913
  39     1.339        1.8666        0.0000        6.5516        6.5516       4.684932       0.11008
  38     1.782        1.8666        0.0000        6.5473        6.5473       4.680716       0.08027
  37     2.292        1.8666        0.0000        6.5434        6.5435       4.676829       0.06438
  36     2.964        1.8666        0.0000        6.5395        6.5395       4.672874       0.04964
  35     3.853        1.8666        0.0000        6.5355        6.5356       4.668931       0.03742
  34     5.035        1.8666        0.0000        6.5315        6.5315       4.664927       0.02860
  33     6.613        1.8666        0.0000        6.5271        6.5271       4.660531       0.02350
  32     8.786        1.8666        0.0001        6.5216        6.5216       4.655033       0.02135
  31     11.80        1.8666        0.0001        6.5135        6.5136       4.646948       0.02264
  30     15.07        1.8666        0.0001        6.5041        6.5042       4.637571       0.02421
  29     18.79        1.8666        0.0001        6.4925        6.4926       4.626043       0.02614
  28     23.16        1.8666        0.0001        6.4779        6.4780       4.611434       0.02825
  27     28.12        1.8666        0.0002        6.4599        6.4600       4.593436       0.03060
  26     33.73        1.8666        0.0002        6.4384        6.4386       4.571974       0.03227
  25     40.54        1.8667        0.0002        6.4112        6.4115       4.544806       0.03370
  24     48.69        1.8667        0.0003        6.3775        6.3778       4.511109       0.03487
  23     57.69        1.8668        0.0003        6.3404        6.3407       4.473941       0.03484
  22     68.43        1.8669        0.0004        6.2971        6.2975       4.430646       0.03404
  21     81.20        1.8670        0.0005        6.2483        6.2487       4.381687       0.03235
  20     96.49        1.8673        0.0006        6.1948        6.1954       4.328118       0.02957
  19     114.6        1.8676        0.0007        6.1381        6.1388       4.271211       0.02657
  18     136.5        1.8681        0.0008        6.0790        6.0798       4.211729       0.02287
  17     162.9        1.8687        0.0009        6.0160        6.0170       4.148249       0.02029
  16     196.4        1.8698        0.0011        5.9399        5.9410       4.071202       0.01939
  15     218.7        1.8706        0.0012        5.8896        5.8909       4.020232       0.01935
  14     243.0        1.8718        0.0014        5.8322        5.8336       3.961777       0.02027
  13     269.0        1.8734        0.0015        5.7624        5.7639       3.890498       0.02312
  12     297.5        1.8757        0.0016        5.6767        5.6784       3.802640       0.02606
  11     328.5        1.8789        0.0018        5.5726        5.5744       3.695459       0.02914
  10     361.9        1.8833        0.0019        5.4473        5.4493       3.566015       0.03275
   9     398.1        1.8891        0.0021        5.2995        5.3016       3.412505       0.03576
   8     437.6        1.8969        0.0023        5.1275        5.1297       3.232815       0.03842
   7     480.5        1.9076        0.0024        4.9290        4.9314       3.023764       0.04106
   6     533.0        1.9246        0.0026        4.6794        4.6819       2.757370       0.04285
   5     589.8        1.9484        0.0027        4.4188        4.4215       2.473131       0.04219
   4     651.6        1.9822        0.0029        4.1521        4.1550       2.172726       0.04108
   3     718.7        2.0285        0.0030        3.8929        3.8960       1.867439       0.03837
   2     792.3        2.0906        0.0032        3.6469        3.6500       1.559395       0.03533
   1     891.5        0.0835        1.3432        0.1097        1.4529       1.369355       0.01617
   0    1013.0        0.0880        1.2620        0.0994        1.3613       1.273340       0.00667



 Wavenumbers:  5150. -  6150. cm-1, ATM      1
 LEVEL PRESSURE   UPWARD FLUX   DIFDOWN FLUX  DIRDOWN FLUX  DOWNWARD FLUX   NET FLUX    HEATING RATE
          mb          W/m2          W/m2          W/m2        W/m2          W/m2       degree/day
  51    .06700        4.6356        0.0000       16.4735       16.4735      11.837885       0.00000
  50    .07753        4.6356        0.0000       16.4735       16.4735      11.837851       0.02763
  49    .09103        4.6356        0.0000       16.4734       16.4734      11.837806       0.02812
  48    0.1069        4.6356        0.0000       16.4734       16.4734      11.837752       0.02861
  47    0.1255        4.6356        0.0000       16.4733       16.4733      11.837688       0.02906
  46    0.1487        4.6356        0.0000       16.4732       16.4732      11.837604       0.03061
  45    0.1794        4.6356        0.0000       16.4731       16.4731      11.837485       0.03271
  44    0.2165        4.6356        0.0000       16.4730       16.4730      11.837338       0.03333
  43    0.2613        4.6356        0.0000       16.4728       16.4728      11.837159       0.03378
  42    0.3336        4.6356        0.0000       16.4725       16.4725      11.836853       0.03566
  41    0.4307        4.6356        0.0000       16.4720       16.4720      11.836434       0.03647
  40    0.5894        4.6356        0.0000       16.4713       16.4713      11.835732       0.03730
  39     1.339        4.6356        0.0000       16.4679       16.4679      11.832321       0.03840
  38     1.782        4.6356        0.0000       16.4659       16.4659      11.830320       0.03810
  37     2.292        4.6356        0.0001       16.4635       16.4636      11.828027       0.03799
  36     2.964        4.6356        0.0001       16.4605       16.4606      11.825054       0.03732
  35     3.853        4.6356        0.0001       16.4567       16.4568      11.821196       0.03661
  34     5.035        4.6355        0.0001       16.4516       16.4517      11.816192       0.03575
  33     6.613        4.6355        0.0002       16.4451       16.4452      11.809721       0.03459
  32     8.786        4.6355        0.0002       16.4367       16.4369      11.801394       0.03234
  31     11.80        4.6355        0.0003       16.4254       16.4257      11.790218       0.03129
  30     15.07        4.6354        0.0004       16.4141       16.4145      11.779103       0.02870
  29     18.79        4.6354        0.0005       16.4024       16.4030      11.767547       0.02620
  28     23.16        4.6354        0.0006       16.3900       16.3906      11.755242       0.02379
  27     28.12        4.6353        0.0008       16.3771       16.3779      11.742525       0.02162
  26     33.73        4.6353        0.0009       16.3641       16.3650      11.729733       0.01923
  25     40.54        4.6353        0.0011       16.3502       16.3513      11.716003       0.01703
  24     48.69        4.6353        0.0013       16.3354       16.3367      11.701409       0.01510
  23     57.69        4.6353        0.0016       16.3211       16.3227      11.687365       0.01316
  22     68.43        4.6353        0.0019       16.3062       16.3081      11.672795       0.01145
  21     81.20        4.6354        0.0022       16.2903       16.2926      11.657174       0.01032
  20     96.49        4.6355        0.0027       16.2726       16.2753      11.639820       0.00958
  19     114.6        4.6356        0.0032       16.2521       16.2552      11.619662       0.00941
  18     136.5        4.6357        0.0038       16.2245       16.2283      11.592578       0.01041
  17     162.9        4.6359        0.0045       16.1747       16.1792      11.543266       0.01576
  16     196.4        4.6363        0.0054       16.0518       16.0572      11.420933       0.03079
  15     218.7        4.6365        0.0059       15.8984       15.9043      11.267775       0.05815
  14     243.0        4.6369        0.0065       15.6153       15.6218      10.984862       0.09812
  13     269.0        4.6375        0.0070       15.1390       15.1460      10.508561       0.15451
  12     297.5        4.6384        0.0076       14.5779       14.5855       9.947071       0.16653
  11     328.5        4.6398        0.0081       13.8780       13.8861       9.246253       0.19055
  10     361.9        4.6421        0.0085       13.0814       13.0900       8.447896       0.20199
   9     398.1        4.6454        0.0089       12.2728       12.2818       7.636392       0.18906
   8     437.6        4.6504        0.0093       11.4776       11.4869       6.836504       0.17102
   7     480.5        4.6581        0.0096       10.7300       10.7396       6.081482       0.14828
   6     533.0        4.6721        0.0101       10.0326       10.0427       5.370563       0.11436
   5     589.8        4.6945        0.0106        9.5050        9.5156       4.821130       0.08155
   4     651.6        4.7307        0.0112        9.0814        9.0926       4.361924       0.06280
   3     718.7        4.7863        0.0120        8.7024        8.7144       3.928087       0.05452
   2     792.3        4.8686        0.0128        8.3379        8.3507       3.482163       0.05114
   1     891.5        0.2192        3.1622        0.2585        3.4207       3.201566       0.02388
   0    1013.0        0.2249        3.0429        0.2444        3.2873       3.062415       0.00966



 Wavenumbers:  6150. -  7700. cm-1, ATM      1
 LEVEL PRESSURE   UPWARD FLUX   DIFDOWN FLUX  DIRDOWN FLUX  DOWNWARD FLUX   NET FLUX    HEATING RATE
          mb          W/m2          W/m2          W/m2        W/m2          W/m2       degree/day
  51    .06700        7.2243        0.0000       30.4684       30.4684      23.244110       0.00000
  50    .07753        7.2243        0.0000       30.4683       30.4683      23.244059       0.04144
  49    .09103        7.2243        0.0000       30.4683       30.4683      23.243992       0.04174
  48    0.1069        7.2243        0.0000       30.4682       30.4682      23.243913       0.04202
  47    0.1255        7.2243        0.0000       30.4681       30.4681      23.243820       0.04227
  46    0.1487        7.2243        0.0000       30.4680       30.4680      23.243699       0.04411
  45    0.1794        7.2243        0.0000       30.4678       30.4678      23.243529       0.04669
  44    0.2165        7.2243        0.0000       30.4676       30.4676      23.243321       0.04715
  43    0.2613        7.2243        0.0000       30.4673       30.4673      23.243070       0.04744
  42    0.3336        7.2242        0.0000       30.4669       30.4669      23.242643       0.04974
  41    0.4307        7.2242        0.0000       30.4663       30.4663      23.242062       0.05052
  40    0.5894        7.2242        0.0001       30.4653       30.4653      23.241094       0.05146
  39     1.339        7.2242        0.0001       30.4604       30.4606      23.236411       0.05273
  38     1.782        7.2241        0.0002       30.4576       30.4578      23.233661       0.05235
  37     2.292        7.2241        0.0003       30.4543       30.4546      23.230502       0.05231
  36     2.964        7.2240        0.0003       30.4501       30.4504      23.226395       0.05156
  35     3.853        7.2239        0.0004       30.4445       30.4450      23.221038       0.05084
  34     5.035        7.2238        0.0006       30.4373       30.4378      23.214038       0.05000
  33     6.613        7.2237        0.0008       30.4278       30.4286      23.204890       0.04890
  32     8.786        7.2235        0.0010       30.4154       30.4164      23.192938       0.04642
  31     11.80        7.2232        0.0014       30.3984       30.3997      23.176552       0.04587
  30     15.07        7.2229        0.0017       30.3810       30.3827      23.159838       0.04315
  29     18.79        7.2225        0.0022       30.3623       30.3645      23.141937       0.04059
  28     23.16        7.2221        0.0027       30.3417       30.3444      23.122253       0.03806
  27     28.12        7.2217        0.0032       30.3196       30.3228      23.101152       0.03587
  26     33.73        7.2211        0.0039       30.2965       30.3004      23.079233       0.03296
  25     40.54        7.2205        0.0047       30.2708       30.2754      23.054894       0.03020
  24     48.69        7.2198        0.0056       30.2423       30.2479      23.028115       0.02771
  23     57.69        7.2189        0.0066       30.2139       30.2205      23.001546       0.02490
  22     68.43        7.2180        0.0079       30.1834       30.1912      22.973267       0.02223
  21     81.20        7.2168        0.0093       30.1500       30.1593      22.942533       0.02031
  20     96.49        7.2154        0.0111       30.1126       30.1237      22.908308       0.01889
  19     114.6        7.2137        0.0131       30.0695       30.0826      22.868911       0.01840
  18     136.5        7.2118        0.0156       30.0139       30.0295      22.817738       0.01968
  17     162.9        7.2094        0.0185       29.9225       29.9410      22.731522       0.02756
  16     196.4        7.2065        0.0222       29.7333       29.7556      22.549047       0.04593
  15     218.7        7.2047        0.0246       29.5259       29.5505      22.345823       0.07716
  14     243.0        7.2028        0.0271       29.1375       29.1646      21.961814       0.13319
  13     269.0        7.2011        0.0295       28.3800       28.4096      21.208406       0.24440
  12     297.5        7.2000        0.0318       27.3895       27.4214      20.221351       0.29275
  11     328.5        7.1999        0.0340       26.2257       26.2597      19.059830       0.31581
  10     361.9        7.2014        0.0360       24.8453       24.8814      17.679934       0.34913
   9     398.1        7.2056        0.0378       23.3471       23.3849      16.179328       0.34961
   8     437.6        7.2139        0.0394       21.7966       21.8360      14.622128       0.33294
   7     480.5        7.2296        0.0406       20.1977       20.2384      13.008771       0.31686
   6     533.0        7.2610        0.0420       18.4969       18.5389      11.277868       0.27845
   5     589.8        7.3142        0.0433       16.9754       17.0187       9.704473       0.23354
   4     651.6        7.4027        0.0446       15.6022       15.6468       8.244038       0.19972
   3     718.7        7.5399        0.0461       14.4232       14.4693       6.929361       0.16522
   2     792.3        7.7436        0.0479       13.4386       13.4865       5.742836       0.13608
   1     891.5        0.3490        4.9919        0.4047        5.3965       5.047499       0.05917
   0    1013.0        0.3643        4.6977        0.3692        5.0670       4.702666       0.02394



 Wavenumbers:  7700. -  8050. cm-1, ATM      1
 LEVEL PRESSURE   UPWARD FLUX   DIFDOWN FLUX  DIRDOWN FLUX  DOWNWARD FLUX   NET FLUX    HEATING RATE
          mb          W/m2          W/m2          W/m2        W/m2          W/m2       degree/day
  51    .06700        3.4692        0.0000        7.2006        7.2006       3.731367       0.00000
  50    .07753        3.4692        0.0000        7.2006        7.2006       3.731347       0.01605
  49    .09103        3.4692        0.0000        7.2005        7.2005       3.731322       0.01573
  48    0.1069        3.4692        0.0000        7.2005        7.2005       3.731293       0.01540
  47    0.1255        3.4692        0.0000        7.2005        7.2005       3.731260       0.01507
  46    0.1487        3.4692        0.0000        7.2004        7.2005       3.731218       0.01529
  45    0.1794        3.4692        0.0000        7.2004        7.2004       3.731160       0.01574
  44    0.2165        3.4692        0.0000        7.2003        7.2003       3.731093       0.01544
  43    0.2613        3.4693        0.0000        7.2003        7.2003       3.731012       0.01515
  42    0.3336        3.4693        0.0000        7.2001        7.2001       3.730879       0.01550
  41    0.4307        3.4693        0.0000        7.2000        7.2000       3.730703       0.01533
  40    0.5894        3.4693        0.0000        7.1997        7.1997       3.730415       0.01531
  39     1.339        3.4694        0.0001        7.1984        7.1985       3.729053       0.01533
  38     1.782        3.4695        0.0001        7.1977        7.1978       3.728253       0.01523
  37     2.292        3.4696        0.0001        7.1968        7.1969       3.727328       0.01533
  36     2.964        3.4697        0.0001        7.1957        7.1958       3.726113       0.01525
  35     3.853        3.4699        0.0002        7.1942        7.1944       3.724509       0.01522
  34     5.035        3.4701        0.0002        7.1922        7.1925       3.722380       0.01521
  33     6.613        3.4704        0.0003        7.1896        7.1899       3.719538       0.01519
  32     8.786        3.4708        0.0004        7.1860        7.1865       3.715713       0.01485
  31     11.80        3.4713        0.0006        7.1810        7.1816       3.710252       0.01529
  30     15.07        3.4719        0.0007        7.1755        7.1763       3.704404       0.01510
  29     18.79        3.4725        0.0009        7.1694        7.1704       3.697817       0.01494
  28     23.16        3.4733        0.0011        7.1623        7.1635       3.690149       0.01483
  27     28.12        3.4742        0.0014        7.1542        7.1556       3.681415       0.01485
  26     33.73        3.4752        0.0016        7.1452        7.1469       3.671686       0.01463
  25     40.54        3.4764        0.0020        7.1344        7.1364       3.659995       0.01450
  24     48.69        3.4779        0.0024        7.1215        7.1239       3.645995       0.01449
  23     57.69        3.4795        0.0028        7.1074        7.1103       3.630734       0.01431
  22     68.43        3.4815        0.0033        7.0909        7.0942       3.612716       0.01416
  21     81.20        3.4838        0.0039        7.0713        7.0753       3.591473       0.01404
  20     96.49        3.4866        0.0047        7.0484        7.0531       3.566467       0.01380
  19     114.6        3.4900        0.0055        7.0217        7.0272       3.537197       0.01367
  18     136.5        3.4941        0.0066        6.9906        6.9972       3.503069       0.01312
  17     162.9        3.4990        0.0078        6.9544        6.9622       3.463178       0.01275
  16     196.4        3.5055        0.0093        6.9087        6.9181       3.412595       0.01273
  15     218.7        3.5098        0.0104        6.8794        6.8898       3.379966       0.01239
  14     243.0        3.5146        0.0115        6.8481        6.8596       3.344970       0.01214
  13     269.0        3.5200        0.0127        6.8147        6.8274       3.307461       0.01217
  12     297.5        3.5259        0.0140        6.7791        6.7931       3.267218       0.01194
  11     328.5        3.5324        0.0154        6.7409        6.7563       3.223896       0.01178
  10     361.9        3.5399        0.0169        6.7002        6.7171       3.177205       0.01181
   9     398.1        3.5482        0.0185        6.6563        6.6748       3.126568       0.01180
   8     437.6        3.5577        0.0202        6.6089        6.6291       3.071371       0.01180
   7     480.5        3.5687        0.0221        6.5570        6.5791       3.010365       0.01198
   6     533.0        3.5835        0.0243        6.4915        6.5158       2.932348       0.01255
   5     589.8        3.6011        0.0267        6.4182        6.4450       2.843889       0.01313
   4     651.6        3.6223        0.0293        6.3359        6.3652       2.742843       0.01382
   3     718.7        3.6478        0.0320        6.2441        6.2762       2.628398       0.01438
   2     792.3        3.6777        0.0349        6.1437        6.1786       2.500932       0.01462
   1     891.5        0.2034        2.4217        0.1963        2.6180       2.414627       0.00734
   0    1013.0        0.2060        2.3801        0.1905        2.5706       2.364542       0.00348



 Wavenumbers:  8050. - 12850. cm-1, ATM      1
 LEVEL PRESSURE   UPWARD FLUX   DIFDOWN FLUX  DIRDOWN FLUX  DOWNWARD FLUX   NET FLUX    HEATING RATE
          mb          W/m2          W/m2          W/m2        W/m2          W/m2       degree/day
  51    .06700       47.6290        0.0000      100.8135      100.8135      53.184538       0.00000
  50    .07753       47.6290        0.0000      100.8135      100.8135      53.184538       0.00000
  49    .09103       47.6289        0.0001      100.8134      100.8135      53.184538       0.00000
  48    0.1069       47.6289        0.0001      100.8134      100.8135      53.184538       0.00000
  47    0.1255       47.6289        0.0001      100.8133      100.8134      53.184538      -0.00000
  46    0.1487       47.6289        0.0002      100.8132      100.8134      53.184538      -0.00000
  45    0.1794       47.6288        0.0003      100.8131      100.8133      53.184538       0.00000
  44    0.2165       47.6287        0.0004      100.8129      100.8133      53.184538      -0.00000
  43    0.2613       47.6287        0.0005      100.8127      100.8132      53.184538       0.00000
  42    0.3336       47.6286        0.0006      100.8125      100.8131      53.184538      -0.00000
  41    0.4307       47.6284        0.0009      100.8121      100.8130      53.184538       0.00000
  40    0.5894       47.6282        0.0013      100.8115      100.8127      53.184538      -0.00000
  39     1.339       47.6270        0.0031      100.8085      100.8116      53.184538      -0.00000
  38     1.782       47.6263        0.0041      100.8068      100.8109      53.184538      -0.00000
  37     2.292       47.6256        0.0054      100.8047      100.8101      53.184538       0.00000
  36     2.964       47.6245        0.0070      100.8021      100.8091      53.184538       0.00000
  35     3.853       47.6232        0.0091      100.7986      100.8077      53.184538       0.00000
  34     5.035       47.6214        0.0119      100.7940      100.8059      53.184538      -0.00000
  33     6.613       47.6190        0.0157      100.7878      100.8035      53.184538       0.00000
  32     8.786       47.6157        0.0208      100.7794      100.8002      53.184538       0.00000
  31     11.80       47.6110        0.0281      100.7674      100.7956      53.184538       0.00000
  30     15.07       47.6060        0.0360      100.7546      100.7906      53.184538      -0.00000
  29     18.79       47.6003        0.0449      100.7400      100.7849      53.184538      -0.00000
  28     23.16       47.5937        0.0553      100.7230      100.7783      53.184538      -0.00000
  27     28.12       47.5861        0.0672      100.7035      100.7707      53.184538      -0.00000
  26     33.73       47.5776        0.0805      100.6817      100.7622      53.184538       0.00000
  25     40.54       47.5673        0.0966      100.6552      100.7519      53.184538       0.00000
  24     48.69       47.5549        0.1161      100.6234      100.7394      53.184538      -0.00000
  23     57.69       47.5412        0.1375      100.5883      100.7258      53.184538      -0.00000
  22     68.43       47.5249        0.1630      100.5464      100.7095      53.184538       0.00000
  21     81.20       47.5055        0.1935      100.4965      100.6900      53.184538      -0.00000
  20     96.49       47.4823        0.2298      100.4370      100.6668      53.184538      -0.00000
  19     114.6       47.4548        0.2731      100.3585      100.6315      53.176779       0.00362
  18     136.5       47.4221        0.3244      100.2634      100.5878      53.165618       0.00429
  17     162.9       47.3833        0.3856      100.1407      100.5263      53.142998       0.00723
  16     196.4       47.3329        0.4651       99.9505      100.4156      53.082692       0.01518
  15     218.7       47.2999        0.5174       99.7889      100.3063      53.006408       0.02896
  14     243.0       47.2643        0.5741       99.5472      100.1213      52.856935       0.05184
  13     269.0       47.2271        0.6352       99.1452       99.7805      52.553356       0.09848
  12     297.5       47.1893        0.7009       98.5975       99.2983      52.109072       0.13177
  11     328.5       47.1526        0.7712       97.8659       98.6370      51.484492       0.16982
  10     361.9       47.1197        0.8459       96.8848       97.7307      50.610969       0.22101
   9     398.1       47.0945        0.9249       95.6330       96.5579      49.463401       0.26736
   8     437.6       47.0836        1.0077       94.0655       95.0732      47.989543       0.31512
   7     480.5       47.1006        1.0933       92.0807       93.1741      46.073510       0.37630
   6     533.0       47.1704        1.1946       89.4449       90.6395      43.469106       0.41897
   5     589.8       47.3202        1.2994       86.5544       87.8537      40.533547       0.43573
   4     651.6       47.5966        1.4070       83.4174       84.8244      37.227804       0.45207
   3     718.7       48.0379        1.5183       80.2037       81.7220      33.684131       0.44534
   2     792.3       48.6902        1.6340       77.0811       78.7151      30.024958       0.41967
   1     891.5        7.1613       32.3814        2.3965       34.7779      27.616628       0.20494
   0    1013.0        7.3375       31.2441        2.2551       33.4992      26.161721       0.10102



 Wavenumbers: 12850. - 16000. cm-1, ATM      1
 LEVEL PRESSURE   UPWARD FLUX   DIFDOWN FLUX  DIRDOWN FLUX  DOWNWARD FLUX   NET FLUX    HEATING RATE
          mb          W/m2          W/m2          W/m2        W/m2          W/m2       degree/day
  51    .06700       40.2991        0.0000       63.1686       63.1686      22.869465       0.00000
  50    .07753       40.2991        0.0001       63.1677       63.1678      22.868684       0.62593
  49    .09103       40.2991        0.0001       63.1666       63.1668      22.867711       0.60848
  48    0.1069       40.2990        0.0002       63.1654       63.1656      22.866602       0.59026
  47    0.1255       40.2990        0.0003       63.1640       63.1643      22.865340       0.57200
  46    0.1487       40.2990        0.0004       63.1623       63.1627      22.863766       0.57387
  45    0.1794       40.2989        0.0006       63.1600       63.1606      22.861653       0.57988
  44    0.2165       40.2989        0.0008       63.1573       63.1581      22.859209       0.55603
  43    0.2613       40.2989        0.0010       63.1542       63.1552      22.856387       0.53185
  42    0.3336       40.2988        0.0014       63.1493       63.1507      22.851888       0.52465
  41    0.4307       40.2988        0.0019       63.1431       63.1451      22.846253       0.48993
  40    0.5894       40.2989        0.0028       63.1338       63.1366      22.837701       0.45475
  39     1.339       40.3008        0.0068       63.0956       63.1024      22.801543       0.40708
  38     1.782       40.3030        0.0091       63.0740       63.0831      22.780117       0.40791
  37     2.292       40.3066        0.0118       63.0477       63.0595      22.752863       0.45139
  36     2.964       40.3129        0.0154       63.0095       63.0249      22.711972       0.51331
  35     3.853       40.3235        0.0201       62.9533       62.9733      22.649836       0.58968
  34     5.035       40.3397        0.0263       62.8725       62.8988      22.559093       0.64823
  33     6.613       40.3625        0.0346       62.7621       62.7967      22.434176       0.66780
  32     8.786       40.3920        0.0458       62.6182       62.6640      22.272005       0.62982
  31     11.80       40.4299        0.0617       62.4284       62.4901      22.060151       0.59312
  30     15.07       40.4656        0.0788       62.2426       62.3214      21.855819       0.52754
  29     18.79       40.5013        0.0980       62.0493       62.1473      21.646010       0.47570
  28     23.16       40.5379        0.1205       61.8424       61.9629      21.425066       0.42723
  27     28.12       40.5735        0.1461       61.6278       61.7739      21.200362       0.38198
  26     33.73       40.6047        0.1747       61.4177       61.5924      20.987623       0.31986
  25     40.54       40.6323        0.2092       61.1983       61.4075      20.775166       0.26358
  24     48.69       40.6558        0.2507       60.9680       61.2187      20.562935       0.21963
  23     57.69       40.6720        0.2963       60.7478       61.0441      20.372057       0.17892
  22     68.43       40.6811        0.3505       60.5202       60.8707      20.189578       0.14345
  21     81.20       40.6779        0.4151       60.2938       60.7089      20.031046       0.10476
  20     96.49       40.6610        0.4920       60.0643       60.5563      19.895302       0.07492
  19     114.6       40.6408        0.5839       59.8078       60.3916      19.750819       0.06746
  18     136.5       40.6112        0.6926       59.5157       60.2083      19.597050       0.05913
  17     162.9       40.5708        0.8217       59.1770       59.9987      19.427954       0.05405
  16     196.4       40.5072        0.9887       58.7604       59.7492      19.241975       0.04681
  15     218.7       40.4615        1.0982       58.4948       59.5930      19.131473       0.04195
  14     243.0       40.4102        1.2169       58.2089       59.4258      19.015611       0.04019
  13     269.0       40.3532        1.3453       57.9006       59.2459      18.892637       0.03989
  12     297.5       40.2909        1.4837       57.5668       59.0505      18.759670       0.03944
  11     328.5       40.2243        1.6330       57.2005       58.8335      18.609166       0.04092
  10     361.9       40.1545        1.7932       56.7963       58.5895      18.435012       0.04406
   9     398.1       40.0825        1.9650       56.3475       58.3125      18.229936       0.04778
   8     437.6       40.0110        2.1486       55.8422       57.9908      17.979884       0.05346
   7     480.5       39.9443        2.3442       55.2625       57.6068      17.662450       0.06234
   6     533.0       39.8793        2.5830       54.4972       57.0801      17.200818       0.07426
   5     589.8       39.8308        2.8370       53.6307       56.4677      16.636825       0.08372
   4     651.6       39.8089        3.1054       52.6606       55.7660      15.957101       0.09295
   3     718.7       39.8198        3.3887       51.6100       54.9987      15.178952       0.09779
   2     792.3       39.8718        3.6866       50.5019       54.1885      14.316710       0.09889
   1     891.5       15.9430       27.9810        1.6033       29.5842      13.641265       0.05748
   0    1013.0       16.0699       27.6071        1.5447       29.1518      13.081898       0.03884



 Wavenumbers: 16000. - 22650. cm-1, ATM      1
 LEVEL PRESSURE   UPWARD FLUX   DIFDOWN FLUX  DIRDOWN FLUX  DOWNWARD FLUX   NET FLUX    HEATING RATE
          mb          W/m2          W/m2          W/m2        W/m2          W/m2       degree/day
  51    .06700       78.6934        0.0000      100.7153      100.7153      22.021926       0.00000
  50    .07753       78.6933        0.0003      100.7147      100.7151      22.021807       0.09512
  49    .09103       78.6931        0.0007      100.7140      100.7147      22.021634       0.10789
  48    0.1069       78.6930        0.0012      100.7131      100.7144      22.021403       0.12303
  47    0.1255       78.6928        0.0018      100.7121      100.7139      22.021094       0.14024
  46    0.1487       78.6926        0.0025      100.7108      100.7132      22.020638       0.16618
  45    0.1794       78.6923        0.0034      100.7089      100.7123      22.019925       0.19566
  44    0.2165       78.6921        0.0045      100.7066      100.7111      22.018959       0.21990
  43    0.2613       78.6919        0.0058      100.7037      100.7095      22.017647       0.24722
  42    0.3336       78.6916        0.0080      100.6987      100.7067      22.015154       0.29072
  41    0.4307       78.6913        0.0109      100.6918      100.7027      22.011395       0.32679
  40    0.5894       78.6912        0.0157      100.6797      100.6954      22.004227       0.38117
  39     1.339       78.6963        0.0381      100.6095      100.6476      21.951282       0.59607
  38     1.782       78.7035        0.0512      100.5585      100.6097      21.906192       0.85844
  37     2.292       78.7158        0.0665      100.4903      100.5567      21.840944       1.08068
  36     2.964       78.7379        0.0864      100.3868      100.4732      21.735289       1.32628
  35     3.853       78.7756        0.1128      100.2306      100.3434      21.567759       1.58989
  34     5.035       78.8341        0.1478      100.0045      100.1522      21.318082       1.78359
  33     6.613       78.9166        0.1944       99.6939       99.8882      20.971623       1.85217
  32     8.786       79.0234        0.2570       99.2881       99.5451      20.521702       1.74733
  31     11.80       79.1597        0.3463       98.7496       99.0959      19.936212       1.63919
  30     15.07       79.2871        0.4419       98.2198       98.6618      19.374647       1.44985
  29     18.79       79.4139        0.5495       97.6651       98.2147      18.800800       1.30109
  28     23.16       79.5422        0.6748       97.0671       97.7419      18.199716       1.16230
  27     28.12       79.6659        0.8174       96.4406       97.2580      17.592113       1.03288
  26     33.73       79.7712        0.9766       95.8179       96.7944      17.023267       0.85528
  25     40.54       79.8601        1.1682       95.1548       96.3230      16.462896       0.69520
  24     48.69       79.9302        1.3983       94.4420       95.8403      15.910023       0.57214
  23     57.69       79.9715        1.6500       93.7416       95.3916      15.420143       0.45919
  22     68.43       79.9822        1.9487       92.9954       94.9440      14.961827       0.36030
  21     81.20       79.9422        2.3031       92.2231       94.5262      14.583970       0.24968
  20     96.49       79.8460        2.7235       91.4110       94.1345      14.288428       0.16312
  19     114.6       79.7078        3.2192       90.5070       93.7262      14.018470       0.12605
  18     136.5       79.5284        3.8020       89.4803       93.2822      13.753871       0.10174
  17     162.9       79.3014        4.4890       88.3022       92.7913      13.489898       0.08438
  16     196.4       78.9770        5.3699       86.8606       92.2305      13.253564       0.05949
  15     218.7       78.7538        5.9422       85.9492       91.8914      13.137608       0.04402
  14     243.0       78.5073        6.5586       84.9789       91.5376      13.030240       0.03724
  13     269.0       78.2366        7.2203       83.9493       91.1695      12.932964       0.03156
  12     297.5       77.9409        7.9279       82.8589       90.7868      12.845894       0.02582
  11     328.5       77.6219        8.6840       81.6982       90.3822      12.760355       0.02326
  10     361.9       77.2795        9.4883       80.4669       89.9553      12.675798       0.02139
   9     398.1       76.9130       10.3428       79.1611       89.5039      12.590974       0.01976
   8     437.6       76.5230       11.2478       77.7777       89.0255      12.502494       0.01892
   7     480.5       76.1101       12.2036       76.3136       88.5172      12.407105       0.01873
   6     533.0       75.6100       13.3602       74.5359       87.8960      12.286009       0.01948
   5     589.8       75.0824       14.5825       72.6469       87.2294      12.146980       0.02064
   4     651.6       74.5300       15.8686       70.6456       86.5142      11.984109       0.02227
   3     718.7       73.9536       17.2163       68.5367       85.7530      11.799472       0.02320
   2     792.3       73.3559       18.6204       66.3287       84.9491      11.593239       0.02365
   1     891.5       46.6802       56.0074        2.0744       58.0818      11.401520       0.01631
   0    1013.0       46.6037       55.8450        1.9640       57.8089      11.205229       0.01363



 Wavenumbers: 22650. - 29000. cm-1, ATM      1
 LEVEL PRESSURE   UPWARD FLUX   DIFDOWN FLUX  DIRDOWN FLUX  DOWNWARD FLUX   NET FLUX    HEATING RATE
          mb          W/m2          W/m2          W/m2        W/m2          W/m2       degree/day
  51    .06700       34.8601        0.0000       38.0063       38.0063       3.146155       0.00000
  50    .07753       34.8600        0.0004       38.0057       38.0061       3.146155       0.00000
  49    .09103       34.8598        0.0009       38.0050       38.0059       3.146155       0.00000
  48    0.1069       34.8595        0.0014       38.0042       38.0057       3.146155       0.00000
  47    0.1255       34.8592        0.0021       38.0033       38.0054       3.146155      -0.00000
  46    0.1487       34.8589        0.0029       38.0022       38.0051       3.146155      -0.00000
  45    0.1794       34.8584        0.0040       38.0006       38.0046       3.146155       0.00000
  44    0.2165       34.8579        0.0053       37.9987       38.0040       3.146155       0.00000
  43    0.2613       34.8572        0.0069       37.9965       38.0034       3.146155       0.00000
  42    0.3336       34.8561        0.0094       37.9928       38.0023       3.146155       0.00000
  41    0.4307       34.8547        0.0128       37.9880       38.0008       3.146155       0.00000
  40    0.5894       34.8523        0.0184       37.9800       37.9984       3.146155       0.00000
  39     1.339       34.8411        0.0447       37.9425       37.9872       3.146155      -0.00000
  38     1.782       34.8345        0.0602       37.9204       37.9806       3.146155       0.00000
  37     2.292       34.8268        0.0781       37.8949       37.9730       3.146155       0.00000
  36     2.964       34.8168        0.1016       37.8614       37.9630       3.146155       0.00000
  35     3.853       34.8036        0.1326       37.8172       37.9498       3.146155       0.00000
  34     5.035       34.7861        0.1737       37.7586       37.9323       3.146155      -0.00000
  33     6.613       34.7627        0.2285       37.6803       37.9089       3.146155       0.00000
  32     8.786       34.7312        0.3023       37.5750       37.8774       3.146155      -0.00000
  31     11.80       34.6863        0.4076       37.4249       37.8325       3.146155       0.00000
  30     15.07       34.6382        0.5202       37.2642       37.7844       3.146155       0.00000
  29     18.79       34.5841        0.6470       37.0833       37.7303       3.146155      -0.00000
  28     23.16       34.5211        0.7943       36.8730       37.6673       3.146155       0.00000
  27     28.12       34.4495        0.9619       36.6338       37.5957       3.146155      -0.00000
  26     33.73       34.3698        1.1482       36.3677       37.5159       3.146155       0.00000
  25     40.54       34.2741        1.3717       36.0486       37.4203       3.146155       0.00000
  24     48.69       34.1597        1.6386       35.6672       37.3059       3.146155       0.00000
  23     57.69       34.0352        1.9287       35.2527       37.1814       3.146155      -0.00000
  22     68.43       33.8887        2.2699       34.7649       37.0348       3.146155       0.00000
  21     81.20       33.7164        2.6703       34.1922       36.8625       3.146155       0.00000
  20     96.49       33.5144        3.1388       33.5217       36.6606       3.146155      -0.00000
  19     114.6       33.2792        3.6830       32.7424       36.4254       3.146155       0.00000
  18     136.5       33.0069        4.3115       31.8416       36.1531       3.146155       0.00000
  17     162.9       32.6915        5.0368       30.8008       35.8376       3.146155      -0.00000
  16     196.4       32.2962        5.9417       29.5007       35.4424       3.146155       0.00000
  15     218.7       32.0450        6.5144       28.6767       35.1911       3.146155       0.00000
  14     243.0       31.7790        7.1184       27.8068       34.9252       3.146155       0.00000
  13     269.0       31.4990        7.7518       26.8933       34.6451       3.146155       0.00000
  12     297.5       31.2055        8.4124       25.9393       34.3517       3.146155      -0.00000
  11     328.5       30.8986        9.0996       24.9451       34.0447       3.146155       0.00000
  10     361.9       30.5796        9.8097       23.9160       33.7257       3.146155       0.00000
   9     398.1       30.2489       10.5409       22.8541       33.3951       3.146155      -0.00000
   8     437.6       29.9078       11.2895       21.7645       33.0540       3.146155       0.00000
   7     480.5       29.5576       12.0517       20.6521       32.7038       3.146155      -0.00000
   6     533.0       29.1469       12.9362       19.3569       32.2931       3.146155       0.00000
   5     589.8       28.7279       13.8273       18.0467       31.8741       3.146155      -0.00000
   4     651.6       28.3031       14.7176       16.7316       31.4492       3.146155       0.00000
   3     718.7       27.8749       15.5997       15.4214       31.0211       3.146155       0.00000
   2     792.3       27.4465       16.4650       14.1276       30.5926       3.146155      -0.00000
   1     891.5       21.1471       23.8827        0.4104       24.2931       3.146050       0.00001
   0    1013.0       21.0229       23.8133        0.3556       24.1690       3.146050      -0.00000



 Wavenumbers: 29000. - 38000. cm-1, ATM      1
 LEVEL PRESSURE   UPWARD FLUX   DIFDOWN FLUX  DIRDOWN FLUX  DOWNWARD FLUX   NET FLUX    HEATING RATE
          mb          W/m2          W/m2          W/m2        W/m2          W/m2       degree/day
  51    .06700        4.9493        0.0000       13.4026       13.4026       8.453296       0.00000
  50    .07753        4.9491        0.0003       13.3983       13.3986       8.449497       3.04444
  49    .09103        4.9488        0.0007       13.3921       13.3928       8.443978       3.44973
  48    0.1069        4.9485        0.0011       13.3840       13.3851       8.436601       3.92684
  47    0.1255        4.9482        0.0016       13.3733       13.3749       8.426756       4.46326
  46    0.1487        4.9477        0.0022       13.3579       13.3600       8.412313       5.26448
  45    0.1794        4.9472        0.0030       13.3340       13.3371       8.389913       6.14939
  44    0.2165        4.9465        0.0040       13.3024       13.3064       8.359894       6.82891
  43    0.2613        4.9457        0.0052       13.2604       13.2656       8.319838       7.55027
  42    0.3336        4.9445        0.0070       13.1833       13.1903       8.245830       8.62862
  41    0.4307        4.9430        0.0095       13.0729       13.0824       8.139456       9.24902
  40    0.5894        4.9406        0.0134       12.8796       12.8930       7.952408       9.94697
  39     1.339        4.9322        0.0297       11.9165       11.9462       7.014033      10.56439
  38     1.782        4.9289        0.0380       11.4399       11.4779       6.549022       8.85307
  37     2.292        4.9265        0.0469       10.9796       11.0265       6.100045       7.43622
  36     2.964        4.9251        0.0578       10.4786       10.5365       5.611343       6.13469
  35     3.853        4.9259        0.0714        9.9429       10.0143       5.088370       4.96311
  34     5.035        4.9294        0.0882        9.4007        9.4889       4.559463       3.77829
  33     6.613        4.9360        0.1096        8.8752        8.9848       4.048826       2.72987
  32     8.786        4.9450        0.1372        8.3786        8.5158       3.570768       1.85660
  31     11.80        4.9560        0.1751        7.8897        8.0647       3.108682       1.29370
  30     15.07        4.9656        0.2141        7.5108        7.7249       2.759343       0.90193
  29     18.79        4.9745        0.2567        7.1776        7.4343       2.459817       0.67912
  28     23.16        4.9827        0.3047        6.8664        7.1711       2.188368       0.52490
  27     28.12        4.9895        0.3577        6.5780        6.9357       1.946234       0.41161
  26     33.73        4.9923        0.4155        6.3195        6.7349       1.742637       0.30611
  25     40.54        4.9901        0.4836        6.0663        6.5499       1.559843       0.22678
  24     48.69        4.9822        0.5635        5.8128        6.3763       1.394157       0.17146
  23     57.69        4.9686        0.6488        5.5777        6.2265       1.257854       0.12776
  22     68.43        4.9471        0.7474        5.3379        6.0853       1.138236       0.09404
  21     81.20        4.9133        0.8619        5.0965        5.9584       1.045079       0.06156
  20     96.49        4.8662        0.9942        4.8476        5.8418       0.975670       0.03831
  19     114.6        4.8087        1.1441        4.5799        5.7240       0.915220       0.02823
  18     136.5        4.7421        1.3116        4.2891        5.6007       0.858525       0.02180
  17     162.9        4.6661        1.4974        3.9732        5.4705       0.804438       0.01729
  16     196.4        4.5697        1.7199        3.6080        5.3279       0.758164       0.01165
  15     218.7        4.5090        1.8554        3.3898        5.2451       0.736117       0.00837
  14     243.0        4.4459        1.9934        3.1686        5.1620       0.716106       0.00694
  13     269.0        4.3807        2.1331        2.9461        5.0792       0.698444       0.00573
  12     297.5        4.3138        2.2730        2.7239        4.9970       0.683152       0.00454
  11     328.5        4.2461        2.4120        2.5029        4.9149       0.668777       0.00391
  10     361.9        4.1779        2.5487        2.2846        4.8333       0.655342       0.00340
   9     398.1        4.1098        2.6819        2.0708        4.7526       0.642841       0.00291
   8     437.6        4.0421        2.8105        1.8626        4.6731       0.631007       0.00253
   7     480.5        3.9753        2.9332        1.6621        4.5953       0.619969       0.00217
   6     533.0        3.9004        3.0649        1.4437        4.5086       0.608156       0.00190
   5     589.8        3.8279        3.1858        1.2390        4.4248       0.596935       0.00167
   4     651.6        3.7582        3.2944        1.0500        4.3444       0.586154       0.00147
   3     718.7        3.6917        3.3897        0.8778        4.2675       0.575776       0.00130
   2     792.3        3.6287        3.4707        0.7237        4.1944       0.565779       0.00115
   1     891.5        2.9829        3.5197        0.0182        3.5379       0.554972       0.00092
   0    1013.0        2.9474        3.4782        0.0132        3.4915       0.544067       0.00076



 Wavenumbers: 38000. - 50000. cm-1, ATM      1
 LEVEL PRESSURE   UPWARD FLUX   DIFDOWN FLUX  DIRDOWN FLUX  DOWNWARD FLUX   NET FLUX    HEATING RATE
          mb          W/m2          W/m2          W/m2        W/m2          W/m2       degree/day
  51    .06700        0.0051        0.0000        0.8267        0.8267       0.821528       0.00000
  50    .07753        0.0051        0.0001        0.8242        0.8243       0.819196       1.86936
  49    .09103        0.0050        0.0002        0.8207        0.8209       0.815872       2.07705
  48    0.1069        0.0049        0.0002        0.8162        0.8164       0.811514       2.31984
  47    0.1255        0.0048        0.0004        0.8103        0.8106       0.805801       2.59006
  46    0.1487        0.0047        0.0005        0.8018        0.8023       0.797567       3.00143
  45    0.1794        0.0045        0.0007        0.7889        0.7896       0.785013       3.44648
  44    0.2165        0.0044        0.0009        0.7720        0.7729       0.768507       3.75474
  43    0.2613        0.0042        0.0011        0.7500        0.7511       0.746955       4.06246
  42    0.3336        0.0039        0.0015        0.7106        0.7121       0.708267       4.51071
  41    0.4307        0.0035        0.0019        0.6566        0.6584       0.654972       4.63387
  40    0.5894        0.0029        0.0024        0.5680        0.5704       0.567464       4.65357
  39     1.339        0.0015        0.0030        0.2422        0.2452       0.243720       3.64476
  38     1.782        0.0010        0.0026        0.1493        0.1519       0.150889       1.76735
  37     2.292        0.0007        0.0022        0.0924        0.0946       0.093932       0.94336
  36     2.964        0.0005        0.0018        0.0539        0.0557       0.055224       0.48589
  35     3.853        0.0003        0.0013        0.0295        0.0308       0.030502       0.23462
  34     5.035        0.0002        0.0010        0.0154        0.0164       0.016181       0.10230
  33     6.613        0.0001        0.0007        0.0073        0.0080       0.007912       0.04420
  32     8.786        0.0000        0.0004        0.0030        0.0034       0.003390       0.01756
  31     11.80        0.0000        0.0003        0.0010        0.0012       0.001199       0.00613
  30     15.07        0.0000        0.0001        0.0003        0.0005       0.000463       0.00190
  29     18.79        0.0000        0.0001        0.0001        0.0002       0.000182       0.00064
  28     23.16        0.0000        0.0000        0.0000        0.0001       0.000071       0.00022
  27     28.12        0.0000        0.0000        0.0000        0.0000       0.000028       0.00007
  26     33.73        0.0000        0.0000        0.0000        0.0000       0.000011       0.00002
  25     40.54        0.0000        0.0000        0.0000        0.0000       0.000005       0.00001
  24     48.69        0.0000        0.0000        0.0000        0.0000       0.000002       0.00000
  23     57.69        0.0000        0.0000        0.0000        0.0000       0.000001       0.00000
  22     68.43        0.0000        0.0000        0.0000        0.0000       0.000000       0.00000
  21     81.20        0.0000        0.0000        0.0000        0.0000       0.000000       0.00000
  20     96.49        0.0000        0.0000        0.0000        0.0000       0.000000       0.00000
  19     114.6        0.0000        0.0000        0.0000        0.0000       0.000000       0.00000
  18     136.5        0.0000        0.0000        0.0000        0.0000       0.000000       0.00000
  17     162.9        0.0000        0.0000        0.0000        0.0000       0.000000       0.00000
  16     196.4        0.0000        0.0000        0.0000        0.0000       0.000000       0.00000
  15     218.7        0.0000        0.0000        0.0000        0.0000       0.000000       0.00000
  14     243.0        0.0000        0.0000        0.0000        0.0000       0.000000       0.00000
  13     269.0        0.0000        0.0000        0.0000        0.0000       0.000000       0.00000
  12     297.5        0.0000        0.0000        0.0000        0.0000       0.000000       0.00000
  11     328.5        0.0000        0.0000        0.0000        0.0000       0.000000       0.00000
  10     361.9        0.0000        0.0000        0.0000        0.0000       0.000000       0.00000
   9     398.1        0.0000        0.0000        0.0000        0.0000       0.000000       0.00000
   8     437.6        0.0000        0.0000        0.0000        0.0000       0.000000       0.00000
   7     480.5        0.0000        0.0000        0.0000        0.0000       0.000000       0.00000
   6     533.0        0.0000        0.0000        0.0000        0.0000       0.000000       0.00000
   5     589.8        0.0000        0.0000        0.0000        0.0000       0.000000       0.00000
   4     651.6        0.0000        0.0000        0.0000        0.0000       0.000000       0.00000
   3     718.7        0.0000        0.0000        0.0000        0.0000       0.000000       0.00000
   2     792.3        0.0000        0.0000        0.0000        0.0000       0.000000       0.00000
   1     891.5        0.0000        0.0000        0.0000        0.0000       0.000000       0.00000
   0    1013.0        0.0000        0.0000        0.0000        0.0000       0.000000       0.00000



 Wavenumbers:   820. -  2600. cm-1, ATM      1
 LEVEL PRESSURE   UPWARD FLUX   DIFDOWN FLUX  DIRDOWN FLUX  DOWNWARD FLUX   NET FLUX    HEATING RATE
          mb          W/m2          W/m2          W/m2        W/m2          W/m2       degree/day
  51    .06700        0.5571        0.0000        3.8670        3.8670       3.309899       0.00000
  50    .07753        0.5571        0.0000        3.8643        3.8643       3.307182       2.17770
  49    .09103        0.5571        0.0000        3.8635        3.8635       3.306372       0.50639
  48    0.1069        0.5571        0.0000        3.8626        3.8626       3.305481       0.47416
  47    0.1255        0.5571        0.0000        3.8616        3.8616       3.304520       0.43560
  46    0.1487        0.5571        0.0000        3.8605        3.8605       3.303411       0.40438
  45    0.1794        0.5571        0.0000        3.8592        3.8592       3.302076       0.36649
  44    0.2165        0.5571        0.0000        3.8578        3.8578       3.300698       0.31347
  43    0.2613        0.5571        0.0000        3.8564        3.8564       3.299238       0.27523
  42    0.3336        0.5571        0.0000        3.8541        3.8541       3.297006       0.26014
  41    0.4307        0.5571        0.0000        3.8512        3.8512       3.294124       0.25064
  40    0.5894        0.5571        0.0000        3.8465        3.8465       3.289397       0.25135
  39     1.339        0.5571        0.0000        3.8251        3.8251       3.268021       0.24066
  38     1.782        0.5571        0.0000        3.8133        3.8133       3.256207       0.22491
  37     2.292        0.5571        0.0000        3.8003        3.8003       3.243145       0.21634
  36     2.964        0.5571        0.0000        3.7841        3.7841       3.227015       0.20248
  35     3.853        0.5571        0.0000        3.7642        3.7642       3.207099       0.18901
  34     5.035        0.5571        0.0000        3.7395        3.7395       3.182406       0.17640
  33     6.613        0.5571        0.0000        3.7090        3.7090       3.151868       0.16326
  32     8.786        0.5571        0.0000        3.6726        3.6726       3.115471       0.14135
  31     11.80        0.5571        0.0000        3.6320        3.6320       3.074872       0.11367
  30     15.07        0.5572        0.0000        3.6016        3.6016       3.044482       0.07846
  29     18.79        0.5572        0.0000        3.5777        3.5777       3.020577       0.05420
  28     23.16        0.5572        0.0000        3.5564        3.5564       2.999216       0.04131
  27     28.12        0.5572        0.0000        3.5348        3.5348       2.977660       0.03664
  26     33.73        0.5572        0.0000        3.5118        3.5118       2.954616       0.03465
  25     40.54        0.5572        0.0000        3.4849        3.4849       2.927715       0.03337
  24     48.69        0.5572        0.0000        3.4537        3.4537       2.896447       0.03236
  23     57.69        0.5573        0.0000        3.4210        3.4210       2.863755       0.03064
  22     68.43        0.5573        0.0000        3.3844        3.3844       2.827148       0.02878
  21     81.20        0.5573        0.0000        3.3441        3.3441       2.786822       0.02665
  20     96.49        0.5574        0.0000        3.2998        3.2998       2.742425       0.02450
  19     114.6        0.5574        0.0000        3.2506        3.2506       2.693236       0.02297
  18     136.5        0.5575        0.0000        3.1936        3.1936       2.636129       0.02196
  17     162.9        0.5576        0.0000        3.1181        3.1181       2.560526       0.02417
  16     196.4        0.5578        0.0000        3.0090        3.0090       2.451144       0.02753
  15     218.7        0.5580        0.0000        2.9420        2.9420       2.383997       0.02549
  14     243.0        0.5583        0.0000        2.8605        2.8605       2.302224       0.02836
  13     269.0        0.5587        0.0000        2.7419        2.7420       2.183289       0.03858
  12     297.5        0.5594        0.0000        2.5729        2.5729       2.013501       0.05036
  11     328.5        0.5605        0.0000        2.3602        2.3602       1.799696       0.05813
  10     361.9        0.5622        0.0000        2.1524        2.1524       1.590227       0.05300
   9     398.1        0.5646        0.0000        1.9974        1.9974       1.432807       0.03668
   8     437.6        0.5680        0.0000        1.8835        1.8835       1.315531       0.02507
   7     480.5        0.5728        0.0000        1.7734        1.7734       1.200646       0.02256
   6     533.0        0.5807        0.0000        1.6397        1.6398       1.059083       0.02277
   5     589.8        0.5920        0.0000        1.5068        1.5069       0.914879       0.02140
   4     651.6        0.6087        0.0000        1.3807        1.3807       0.772063       0.01953
   3     718.7        0.6310        0.0000        1.2680        1.2681       0.637099       0.01696
   2     792.3        0.6589        0.0000        1.1659        1.1660       0.507126       0.01491
   1     891.5        0.0292        0.4190        0.0339        0.4529       0.423711       0.00710
   0    1013.0        0.0323        0.3774        0.0285        0.4059       0.373609       0.00348

  Modules and versions used in this calculation:

       rrtmg_sw.1col.f90:  $Revision$                    rrtmg_sw_init.f90:  $Revision$        
     rrtmgsw_cldprop.f90:  $Revision$                  rrtmgsw_cldprmc.f90:  NOT USED          
     rrtmg_sw_reftra.f90:  $Revision$                  rrtmg_sw_spcvrt.f90:  NOT USED          
     rrtmg_sw_spcvmc.f90:  NOT USED                    rrtmgsw_setcoef.f90:  NOT USED          
     rrtmg_sw_taumol.f90:  $Revision$                  rrtmg_sw_vrtqdr.f90:  NOT USED          
                rrtatm.f:  NOT USED                             util_xxx.f:  NOT USED          
                 extra.f:  NOT USED                       rrtmg_sw_k_g.f90:  $Revision$        

