

 Wavenumbers:   820. - 50000. cm-1, ATM      1
 LEVEL PRESSURE   UPWARD FLUX   DIFDOWN FLUX  DIRDOWN FLUX  DOWNWARD FLUX   NET FLUX    HEATING RATE
          mb          W/m2          W/m2          W/m2        W/m2          W/m2       degree/day
  51    .06700      252.5524        0.0000      397.8738      397.8738     145.321427       0.00000
  50    .07753      252.5518        0.0012      397.8577      397.8589     145.307137      11.45403
  49    .09103      252.5510        0.0026      397.8418      397.8445     145.293449       8.55498
  48    0.1069      252.5502        0.0043      397.8230      397.8273     145.277103       8.70123
  47    0.1255      252.5493        0.0063      397.7997      397.8059     145.256663       9.26667
  46    0.1487      252.5481        0.0087      397.7676      397.7763     145.228209      10.37171
  45    0.1794      252.5466        0.0120      397.7205      397.7325     145.185923      11.60848
  44    0.2165      252.5449        0.0159      397.6602      397.6762     145.131283      12.42952
  43    0.2613      252.5430        0.0206      397.5829      397.6035     145.060499      13.34257
  42    0.3336      252.5400        0.0282      397.4449      397.4731     144.933085      14.85523
  41    0.4307      252.5363        0.0381      397.2524      397.2905     144.754254      15.54892
  40    0.5894      252.5309        0.0542      396.9253      396.9795     144.448612      16.25365
  39     1.339      252.5168        0.1259      395.4254      395.5512     143.034457      15.92082
  38     1.782      252.5161        0.1661      394.7288      394.8948     142.378711      12.48436
  37     2.292      252.5221        0.2118      394.0572      394.2690     141.746865      10.46502
  36     2.964      252.5399        0.2712      393.3007      393.5719     141.031944       8.97442
  35     3.853      252.5774        0.3488      392.4318      392.7806     140.203273       7.86424
  34     5.035      252.6408        0.4510      391.4441      391.8950     139.254254       6.77940
  33     6.613      252.7331        0.5863      390.3268      390.9130     138.179940       5.74329
  32     8.786      252.8520        0.7672      389.0624      389.8296     136.977650       4.66926
  31     11.80      252.9988        1.0241      387.5500      388.5741     135.575262       3.92624
  30     15.07      253.1292        1.2976      386.1556      387.4532     134.324041       3.23041
  29     18.79      253.2521        1.6041      384.7502      386.3543     133.102209       2.77027
  28     23.16      253.3677        1.9593      383.2686      385.2279     131.860196       2.40165
  27     28.12      253.4672        2.3622      381.7329      384.0951     130.627824       2.09495
  26     33.73      253.5306        2.8097      380.1982      383.0079     129.477279       1.72988
  25     40.54      253.5516        3.3464      378.5384      381.8848     128.333204       1.41935
  24     48.69      253.5238        3.9878      376.7214      380.7092     127.185449       1.18775
  23     57.69      253.4423        4.6857      374.8959      379.5816     126.139283       0.98062
  22     68.43      253.2906        5.5084      372.8999      378.4083     125.117742       0.80307
  21     81.20      253.0345        6.4782      370.7496      377.2278     124.193345       0.61083
  20     96.49      252.6613        7.6191      368.4056      376.0247     123.363410       0.45806
  19     114.6      252.1967        8.9518      365.7513      374.7031     122.506397       0.40016
  18     136.5      251.6319       10.4997      362.7231      373.2228     121.590947       0.35201
  17     162.9      250.9525       12.2993      359.1748      371.4740     120.521552       0.34182
  16     196.4      250.0454       14.5683      354.5718      369.1401     119.094717       0.35915
  15     218.7      249.4466       16.0197      351.4437      367.4634     118.016820       0.40924
  14     243.0      248.8016       17.5636      347.7111      365.2747     116.473110       0.53541
  13     269.0      248.1129       19.1982      342.9441      362.1423     114.029385       0.79273
  12     297.5      247.3841       20.9212      337.4137      358.3350     110.950840       0.91306
  11     328.5      246.6233       22.7345      331.1302      353.8647     107.241397       1.00859
  10     361.9      245.8398       24.6324      324.1219      348.7543     102.914533       1.09474
   9     398.1      245.0430       26.6144      316.6066      343.2210      98.177944       1.10352
   8     437.6      244.2530       28.6758      308.5895      337.2653      93.012316       1.10444
   7     480.5      243.5059       30.8108      299.9349      330.7457      87.239822       1.13370
   6     533.0      242.7484       33.3398      289.7021      323.0419      80.293529       1.11744
   5     589.8      242.1644       35.9501      279.3388      315.2888      73.124468       1.06412
   4     651.6      241.8786       38.6294      268.7786      307.4080      65.529419       1.03864
   3     718.7      241.9958       41.3689      258.2837      299.6525      57.656679       0.98939
   2     792.3      242.6527       44.1543      248.0774      292.2317      49.579015       0.92642
   1     891.5       68.4532      114.1373        0.0082      114.1455      45.692327       0.33074
   0    1013.0       68.5204      112.3958        0.0077      112.4036      43.883179       0.12562



 Wavenumbers:  2600. -  3250. cm-1, ATM      1
 LEVEL PRESSURE   UPWARD FLUX   DIFDOWN FLUX  DIRDOWN FLUX  DOWNWARD FLUX   NET FLUX    HEATING RATE
          mb          W/m2          W/m2          W/m2        W/m2          W/m2       degree/day
  51    .06700        1.0022        0.0000        3.5066        3.5066       2.504462       0.00000
  50    .07753        1.0022        0.0000        3.5066        3.5066       2.504454       0.00640
  49    .09103        1.0022        0.0000        3.5066        3.5066       2.504444       0.00627
  48    0.1069        1.0022        0.0000        3.5066        3.5066       2.504433       0.00613
  47    0.1255        1.0022        0.0000        3.5066        3.5066       2.504420       0.00599
  46    0.1487        1.0022        0.0000        3.5066        3.5066       2.504403       0.00607
  45    0.1794        1.0022        0.0000        3.5065        3.5065       2.504380       0.00624
  44    0.2165        1.0022        0.0000        3.5065        3.5065       2.504353       0.00611
  43    0.2613        1.0022        0.0000        3.5065        3.5065       2.504322       0.00598
  42    0.3336        1.0022        0.0000        3.5064        3.5064       2.504269       0.00615
  41    0.4307        1.0022        0.0000        3.5064        3.5064       2.504198       0.00618
  40    0.5894        1.0022        0.0000        3.5062        3.5062       2.504079       0.00633
  39     1.339        1.0022        0.0000        3.5055        3.5055       2.503380       0.00787
  38     1.782        1.0022        0.0000        3.5050        3.5050       2.502849       0.01011
  37     2.292        1.0022        0.0000        3.5043        3.5043       2.502157       0.01147
  36     2.964        1.0022        0.0000        3.5033        3.5033       2.501165       0.01245
  35     3.853        1.0022        0.0000        3.5019        3.5019       2.499788       0.01307
  34     5.035        1.0022        0.0000        3.5001        3.5001       2.497927       0.01329
  33     6.613        1.0022        0.0000        3.4977        3.4977       2.495517       0.01288
  32     8.786        1.0022        0.0000        3.4947        3.4947       2.492546       0.01154
  31     11.80        1.0022        0.0000        3.4911        3.4911       2.488910       0.01018
  30     15.07        1.0022        0.0000        3.4878        3.4878       2.485688       0.00832
  29     18.79        1.0022        0.0000        3.4848        3.4848       2.482623       0.00695
  28     23.16        1.0022        0.0000        3.4816        3.4816       2.479401       0.00623
  27     28.12        1.0022        0.0000        3.4779        3.4779       2.475780       0.00616
  26     33.73        1.0022        0.0000        3.4735        3.4735       2.471310       0.00672
  25     40.54        1.0022        0.0000        3.4671        3.4672       2.464977       0.00786
  24     48.69        1.0022        0.0000        3.4582        3.4583       2.456072       0.00922
  23     57.69        1.0022        0.0000        3.4472        3.4472       2.445010       0.01037
  22     68.43        1.0022        0.0000        3.4329        3.4330       2.430729       0.01123
  21     81.20        1.0023        0.0000        3.4152        3.4152       2.412971       0.01173
  20     96.49        1.0023        0.0000        3.3940        3.3941       2.391784       0.01169
  19     114.6        1.0024        0.0000        3.3692        3.3692       2.366835       0.01165
  18     136.5        1.0025        0.0001        3.3419        3.3420       2.339532       0.01050
  17     162.9        1.0026        0.0001        3.3129        3.3129       2.310327       0.00934
  16     196.4        1.0029        0.0001        3.2793        3.2794       2.276517       0.00851
  15     218.7        1.0032        0.0001        3.2578        3.2579       2.254669       0.00829
  14     243.0        1.0036        0.0001        3.2320        3.2321       2.228435       0.00910
  13     269.0        1.0043        0.0001        3.1968        3.1969       2.192597       0.01163
  12     297.5        1.0055        0.0001        3.1489        3.1491       2.143606       0.01453
  11     328.5        1.0071        0.0001        3.0821        3.0822       2.075043       0.01864
  10     361.9        1.0096        0.0001        2.9902        2.9904       1.980737       0.02386
   9     398.1        1.0132        0.0001        2.8715        2.8716       1.858393       0.02850
   8     437.6        1.0184        0.0002        2.7276        2.7278       1.709361       0.03186
   7     480.5        1.0263        0.0002        2.5595        2.5597       1.533407       0.03456
   6     533.0        1.0395        0.0002        2.3617        2.3619       1.322394       0.03395
   5     589.8        1.0590        0.0002        2.1649        2.1651       1.106073       0.03211
   4     651.6        1.0881        0.0002        1.9608        1.9609       0.872809       0.03190
   3     718.7        1.1299        0.0002        1.7593        1.7595       0.629607       0.03056
   2     792.3        1.1885        0.0002        1.5761        1.5762       0.387749       0.02774
   1     891.5        0.0738        0.3556        0.0000        0.3557       0.281923       0.00901
   0    1013.0        0.0806        0.3213        0.0000        0.3213       0.240752       0.00286



 Wavenumbers:  3250. -  4000. cm-1, ATM      1
 LEVEL PRESSURE   UPWARD FLUX   DIFDOWN FLUX  DIRDOWN FLUX  DOWNWARD FLUX   NET FLUX    HEATING RATE
          mb          W/m2          W/m2          W/m2        W/m2          W/m2       degree/day
  51    .06700        0.0081        0.0000        5.9117        5.9117       5.903550       0.00000
  50    .07753        0.0081        0.0000        5.9075        5.9075       5.899360       3.35808
  49    .09103        0.0081        0.0000        5.9050        5.9050       5.896918       1.52677
  48    0.1069        0.0081        0.0000        5.9032        5.9032       5.895051       0.99346
  47    0.1255        0.0081        0.0000        5.9014        5.9014       5.893293       0.79708
  46    0.1487        0.0081        0.0000        5.8995        5.8995       5.891404       0.68848
  45    0.1794        0.0081        0.0000        5.8974        5.8974       5.889256       0.58983
  44    0.2165        0.0081        0.0000        5.8952        5.8952       5.887139       0.48155
  43    0.2613        0.0081        0.0000        5.8931        5.8931       5.884980       0.40696
  42    0.3336        0.0081        0.0000        5.8899        5.8899       5.881822       0.36820
  41    0.4307        0.0081        0.0000        5.8861        5.8861       5.877985       0.33365
  40    0.5894        0.0081        0.0000        5.8803        5.8803       5.872182       0.30857
  39     1.339        0.0081        0.0000        5.8597        5.8597       5.851585       0.23189
  38     1.782        0.0081        0.0000        5.8513        5.8513       5.843160       0.16039
  37     2.292        0.0081        0.0000        5.8431        5.8431       5.834989       0.13533
  36     2.964        0.0081        0.0000        5.8334        5.8334       5.825349       0.12100
  35     3.853        0.0081        0.0000        5.8213        5.8213       5.813174       0.11555
  34     5.035        0.0081        0.0000        5.8052        5.8052       5.797079       0.11498
  33     6.613        0.0081        0.0000        5.7833        5.7834       5.775257       0.11666
  32     8.786        0.0081        0.0000        5.7531        5.7531       5.745056       0.11729
  31     11.80        0.0081        0.0000        5.7090        5.7090       5.700887       0.12366
  30     15.07        0.0081        0.0000        5.6615        5.6615       5.653422       0.12254
  29     18.79        0.0081        0.0000        5.6093        5.6094       5.601287       0.11821
  28     23.16        0.0081        0.0000        5.5524        5.5524       5.544361       0.11008
  27     28.12        0.0081        0.0000        5.4935        5.4935       5.485482       0.10009
  26     33.73        0.0081        0.0000        5.4348        5.4349       5.426793       0.08824
  25     40.54        0.0080        0.0001        5.3707        5.3708       5.362732       0.07948
  24     48.69        0.0080        0.0001        5.2985        5.2985       5.290498       0.07475
  23     57.69        0.0080        0.0001        5.2215        5.2216       5.213560       0.07212
  22     68.43        0.0080        0.0001        5.1318        5.1319       5.123899       0.07048
  21     81.20        0.0080        0.0001        5.0284        5.0285       5.020470       0.06834
  20     96.49        0.0080        0.0001        4.9122        4.9123       4.904336       0.06410
  19     114.6        0.0080        0.0001        4.7780        4.7782       4.770225       0.06262
  18     136.5        0.0079        0.0002        4.6285        4.6287       4.620746       0.05748
  17     162.9        0.0079        0.0002        4.4406        4.4407       4.432834       0.06006
  16     196.4        0.0079        0.0002        4.1548        4.1550       4.147159       0.07191
  15     218.7        0.0079        0.0002        3.9564        3.9566       3.948776       0.07532
  14     243.0        0.0078        0.0002        3.7055        3.7058       3.697938       0.08700
  13     269.0        0.0078        0.0002        3.3399        3.3401       3.332289       0.11861
  12     297.5        0.0078        0.0002        2.8954        2.8956       2.887777       0.13184
  11     328.5        0.0079        0.0002        2.4388        2.4390       2.431192       0.12414
  10     361.9        0.0079        0.0002        2.0269        2.0271       2.019172       0.10425
   9     398.1        0.0081        0.0002        1.6753        1.6755       1.667440       0.08195
   8     437.6        0.0083        0.0002        1.3592        1.3594       1.351072       0.06764
   7     480.5        0.0087        0.0002        1.0616        1.0618       1.053038       0.05853
   6     533.0        0.0097        0.0001        0.7543        0.7544       0.744774       0.04959
   5     589.8        0.0114        0.0001        0.4951        0.4952       0.483866       0.03873
   4     651.6        0.0147        0.0001        0.2943        0.2943       0.279628       0.02793
   3     718.7        0.0213        0.0001        0.1528        0.1529       0.131557       0.01861
   2     792.3        0.0348        0.0000        0.0658        0.0658       0.031047       0.01153
   1     891.5        0.0001        0.0043        0.0000        0.0043       0.004235       0.00228
   0    1013.0        0.0003        0.0010        0.0000        0.0010       0.000765       0.00024



 Wavenumbers:  4000. -  4650. cm-1, ATM      1
 LEVEL PRESSURE   UPWARD FLUX   DIFDOWN FLUX  DIRDOWN FLUX  DOWNWARD FLUX   NET FLUX    HEATING RATE
          mb          W/m2          W/m2          W/m2        W/m2          W/m2       degree/day
  51    .06700        3.5770        0.0000        6.9421        6.9421       3.365091       0.00000
  50    .07753        3.5770        0.0000        6.9421        6.9421       3.365090       0.00079
  49    .09103        3.5770        0.0000        6.9421        6.9421       3.365089       0.00078
  48    0.1069        3.5770        0.0000        6.9421        6.9421       3.365087       0.00076
  47    0.1255        3.5770        0.0000        6.9421        6.9421       3.365086       0.00074
  46    0.1487        3.5770        0.0000        6.9421        6.9421       3.365084       0.00075
  45    0.1794        3.5770        0.0000        6.9421        6.9421       3.365081       0.00077
  44    0.2165        3.5770        0.0000        6.9421        6.9421       3.365077       0.00076
  43    0.2613        3.5770        0.0000        6.9420        6.9420       3.365073       0.00074
  42    0.3336        3.5770        0.0000        6.9420        6.9420       3.365067       0.00076
  41    0.4307        3.5770        0.0000        6.9420        6.9420       3.365058       0.00077
  40    0.5894        3.5770        0.0000        6.9420        6.9420       3.365043       0.00079
  39     1.339        3.5770        0.0000        6.9419        6.9419       3.364954       0.00100
  38     1.782        3.5770        0.0000        6.9418        6.9419       3.364885       0.00132
  37     2.292        3.5770        0.0000        6.9418        6.9418       3.364791       0.00155
  36     2.964        3.5770        0.0000        6.9416        6.9416       3.364652       0.00175
  35     3.853        3.5770        0.0000        6.9414        6.9414       3.364445       0.00196
  34     5.035        3.5770        0.0000        6.9411        6.9411       3.364140       0.00218
  33     6.613        3.5770        0.0000        6.9406        6.9407       3.363692       0.00240
  32     8.786        3.5770        0.0000        6.9399        6.9400       3.363032       0.00257
  31     11.80        3.5769        0.0001        6.9389        6.9389       3.361996       0.00290
  30     15.07        3.5769        0.0001        6.9377        6.9377       3.360784       0.00313
  29     18.79        3.5769        0.0001        6.9362        6.9363       3.359322       0.00331
  28     23.16        3.5769        0.0001        6.9343        6.9344       3.357514       0.00350
  27     28.12        3.5769        0.0001        6.9321        6.9323       3.355335       0.00371
  26     33.73        3.5769        0.0001        6.9294        6.9296       3.352658       0.00402
  25     40.54        3.5769        0.0002        6.9258        6.9260       3.349048       0.00448
  24     48.69        3.5769        0.0002        6.9210        6.9212       3.344266       0.00495
  23     57.69        3.5770        0.0002        6.9154        6.9156       3.338635       0.00528
  22     68.43        3.5770        0.0003        6.9083        6.9086       3.331628       0.00551
  21     81.20        3.5771        0.0003        6.8998        6.9001       3.323049       0.00567
  20     96.49        3.5772        0.0004        6.8894        6.8899       3.312673       0.00573
  19     114.6        3.5774        0.0005        6.8765        6.8770       3.299660       0.00608
  18     136.5        3.5776        0.0006        6.8610        6.8616       3.283927       0.00605
  17     162.9        3.5781        0.0007        6.8417        6.8424       3.264297       0.00627
  16     196.4        3.5788        0.0008        6.8147        6.8155       3.236662       0.00696
  15     218.7        3.5795        0.0009        6.7948        6.7958       3.216239       0.00775
  14     243.0        3.5806        0.0010        6.7698        6.7708       3.190260       0.00901
  13     269.0        3.5822        0.0011        6.7349        6.7360       3.153802       0.01183
  12     297.5        3.5846        0.0013        6.6869        6.6881       3.103461       0.01493
  11     328.5        3.5881        0.0014        6.6194        6.6207       3.032601       0.01927
  10     361.9        3.5928        0.0015        6.5295        6.5310       2.938190       0.02389
   9     398.1        3.5989        0.0016        6.4202        6.4218       2.822958       0.02685
   8     437.6        3.6071        0.0018        6.2962        6.2979       2.690846       0.02825
   7     480.5        3.6185        0.0019        6.1555        6.1574       2.538869       0.02985
   6     533.0        3.6373        0.0021        5.9675        5.9696       2.332290       0.03323
   5     589.8        3.6650        0.0022        5.7368        5.7390       2.073956       0.03835
   4     651.6        3.7065        0.0024        5.4662        5.4686       1.762153       0.04264
   3     718.7        3.7657        0.0026        5.1912        5.1937       1.428000       0.04199
   2     792.3        3.8478        0.0027        4.9395        4.9422       1.094349       0.03827
   1     891.5        0.2833        1.2263        0.0002        1.2264       0.943120       0.01287
   0    1013.0        0.2942        1.1734        0.0002        1.1736       0.879362       0.00443



 Wavenumbers:  4650. -  5150. cm-1, ATM      1
 LEVEL PRESSURE   UPWARD FLUX   DIFDOWN FLUX  DIRDOWN FLUX  DOWNWARD FLUX   NET FLUX    HEATING RATE
          mb          W/m2          W/m2          W/m2        W/m2          W/m2       degree/day
  51    .06700        2.5057        0.0000        6.5710        6.5710       4.065306       0.00000
  50    .07753        2.5057        0.0000        6.5708        6.5708       4.065070       0.18887
  49    .09103        2.5057        0.0000        6.5705        6.5705       4.064776       0.18362
  48    0.1069        2.5057        0.0000        6.5701        6.5701       4.064442       0.17806
  47    0.1255        2.5057        0.0000        6.5697        6.5697       4.064062       0.17238
  46    0.1487        2.5057        0.0000        6.5693        6.5693       4.063588       0.17268
  45    0.1794        2.5057        0.0000        6.5686        6.5686       4.062951       0.17474
  44    0.2165        2.5057        0.0000        6.5679        6.5679       4.062213       0.16788
  43    0.2613        2.5057        0.0000        6.5670        6.5670       4.061360       0.16078
  42    0.3336        2.5057        0.0000        6.5657        6.5657       4.059997       0.15894
  41    0.4307        2.5057        0.0000        6.5640        6.5640       4.058275       0.14971
  40    0.5894        2.5057        0.0000        6.5613        6.5613       4.055659       0.13913
  39     1.339        2.5057        0.0000        6.5516        6.5516       4.045881       0.11008
  38     1.782        2.5057        0.0000        6.5473        6.5473       4.041665       0.08027
  37     2.292        2.5057        0.0000        6.5434        6.5435       4.037778       0.06438
  36     2.964        2.5057        0.0000        6.5395        6.5395       4.033823       0.04965
  35     3.853        2.5057        0.0000        6.5355        6.5356       4.029879       0.03743
  34     5.035        2.5057        0.0000        6.5315        6.5315       4.025875       0.02860
  33     6.613        2.5057        0.0000        6.5271        6.5271       4.021478       0.02351
  32     8.786        2.5057        0.0001        6.5216        6.5216       4.015977       0.02136
  31     11.80        2.5057        0.0001        6.5135        6.5136       4.007889       0.02265
  30     15.07        2.5057        0.0001        6.5041        6.5042       3.998507       0.02422
  29     18.79        2.5057        0.0001        6.4925        6.4926       3.986973       0.02615
  28     23.16        2.5057        0.0001        6.4779        6.4780       3.972355       0.02827
  27     28.12        2.5057        0.0002        6.4599        6.4601       3.954344       0.03062
  26     33.73        2.5057        0.0002        6.4384        6.4386       3.932866       0.03229
  25     40.54        2.5058        0.0003        6.4112        6.4115       3.905675       0.03373
  24     48.69        2.5059        0.0003        6.3775        6.3778       3.871945       0.03491
  23     57.69        2.5060        0.0004        6.3404        6.3407       3.834734       0.03488
  22     68.43        2.5062        0.0004        6.2971        6.2976       3.791381       0.03408
  21     81.20        2.5064        0.0005        6.2483        6.2488       3.742341       0.03240
  20     96.49        2.5068        0.0006        6.1948        6.1954       3.688662       0.02963
  19     114.6        2.5072        0.0007        6.1381        6.1388       3.631602       0.02664
  18     136.5        2.5079        0.0008        6.0790        6.0798       3.571910       0.02295
  17     162.9        2.5089        0.0010        6.0160        6.0170       3.508139       0.02038
  16     196.4        2.5104        0.0012        5.9399        5.9410       3.430642       0.01951
  15     218.7        2.5116        0.0013        5.8896        5.8909       3.379317       0.01949
  14     243.0        2.5132        0.0014        5.8322        5.8336       3.320402       0.02043
  13     269.0        2.5155        0.0016        5.7624        5.7640       3.248476       0.02333
  12     297.5        2.5187        0.0017        5.6767        5.6784       3.159707       0.02633
  11     328.5        2.5232        0.0019        5.5726        5.5745       3.051295       0.02948
  10     361.9        2.5292        0.0020        5.4473        5.4494       2.920194       0.03317
   9     398.1        2.5372        0.0022        5.2995        5.3017       2.764468       0.03628
   8     437.6        2.5480        0.0024        5.1275        5.1298       2.581810       0.03905
   7     480.5        2.5628        0.0025        4.9290        4.9315       2.368709       0.04185
   6     533.0        2.5862        0.0027        4.6794        4.6821       2.095903       0.04389
   5     589.8        2.6190        0.0029        4.4188        4.4216       1.802670       0.04353
   4     651.6        2.6657        0.0030        4.1521        4.1551       1.489448       0.04283
   3     718.7        2.7296        0.0032        3.8929        3.8961       1.166562       0.04058
   2     792.3        2.8155        0.0033        3.6469        3.6502       0.834735       0.03806
   1     891.5        0.1981        0.8813        0.0001        0.8814       0.683301       0.01289
   0    1013.0        0.2084        0.8311        0.0001        0.8312       0.622833       0.00420



 Wavenumbers:  5150. -  6150. cm-1, ATM      1
 LEVEL PRESSURE   UPWARD FLUX   DIFDOWN FLUX  DIRDOWN FLUX  DOWNWARD FLUX   NET FLUX    HEATING RATE
          mb          W/m2          W/m2          W/m2        W/m2          W/m2       degree/day
  51    .06700        6.1947        0.0000       16.4735       16.4735      10.278853       0.00000
  50    .07753        6.1947        0.0000       16.4735       16.4735      10.278818       0.02764
  49    .09103        6.1947        0.0000       16.4734       16.4734      10.278773       0.02813
  48    0.1069        6.1947        0.0000       16.4734       16.4734      10.278719       0.02862
  47    0.1255        6.1947        0.0000       16.4733       16.4733      10.278655       0.02907
  46    0.1487        6.1947        0.0000       16.4732       16.4732      10.278571       0.03062
  45    0.1794        6.1947        0.0000       16.4731       16.4731      10.278452       0.03272
  44    0.2165        6.1947        0.0000       16.4730       16.4730      10.278306       0.03334
  43    0.2613        6.1947        0.0000       16.4728       16.4728      10.278126       0.03379
  42    0.3336        6.1947        0.0000       16.4725       16.4725      10.277820       0.03567
  41    0.4307        6.1946        0.0000       16.4720       16.4720      10.277401       0.03648
  40    0.5894        6.1946        0.0000       16.4713       16.4713      10.276699       0.03731
  39     1.339        6.1946        0.0000       16.4679       16.4679      10.273288       0.03841
  38     1.782        6.1946        0.0000       16.4659       16.4659      10.271286       0.03811
  37     2.292        6.1946        0.0001       16.4635       16.4636      10.268991       0.03801
  36     2.964        6.1946        0.0001       16.4605       16.4606      10.266017       0.03734
  35     3.853        6.1946        0.0001       16.4567       16.4568      10.262156       0.03664
  34     5.035        6.1946        0.0001       16.4516       16.4517      10.257149       0.03577
  33     6.613        6.1946        0.0002       16.4451       16.4453      10.250672       0.03462
  32     8.786        6.1946        0.0003       16.4367       16.4369      10.242337       0.03237
  31     11.80        6.1946        0.0003       16.4254       16.4257      10.231150       0.03132
  30     15.07        6.1945        0.0004       16.4141       16.4146      10.220020       0.02874
  29     18.79        6.1945        0.0005       16.4024       16.4030      10.208447       0.02624
  28     23.16        6.1945        0.0007       16.3900       16.3906      10.196120       0.02384
  27     28.12        6.1945        0.0008       16.3771       16.3779      10.183377       0.02166
  26     33.73        6.1945        0.0010       16.3641       16.3651      10.170552       0.01928
  25     40.54        6.1946        0.0012       16.3502       16.3513      10.156777       0.01709
  24     48.69        6.1946        0.0014       16.3354       16.3368      10.142122       0.01516
  23     57.69        6.1947        0.0017       16.3211       16.3227      10.128005       0.01323
  22     68.43        6.1949        0.0020       16.3062       16.3082      10.113343       0.01153
  21     81.20        6.1950        0.0023       16.2903       16.2926      10.097606       0.01040
  20     96.49        6.1953        0.0028       16.2726       16.2754      10.080109       0.00966
  19     114.6        6.1956        0.0033       16.2521       16.2554      10.059776       0.00949
  18     136.5        6.1960        0.0039       16.2245       16.2284      10.032477       0.01050
  17     162.9        6.1965        0.0046       16.1747       16.1794       9.982898       0.01585
  16     196.4        6.1972        0.0056       16.0518       16.0574       9.860195       0.03089
  15     218.7        6.1977        0.0061       15.8984       15.9045       9.706779       0.05825
  14     243.0        6.1984        0.0068       15.6153       15.6220       9.423561       0.09823
  13     269.0        6.1994        0.0073       15.1390       15.1463       8.946865       0.15464
  12     297.5        6.2009        0.0079       14.5779       14.5858       8.384846       0.16669
  11     328.5        6.2031        0.0084       13.8780       13.8864       7.683295       0.19075
  10     361.9        6.2064        0.0089       13.0814       13.0903       6.883902       0.20225
   9     398.1        6.2113        0.0093       12.2728       12.2822       6.070939       0.18940
   8     437.6        6.2184        0.0098       11.4776       11.4873       5.268939       0.17147
   7     480.5        6.2294        0.0101       10.7300       10.7401       4.510709       0.14891
   6     533.0        6.2491        0.0106       10.0326       10.0432       3.794094       0.11528
   5     589.8        6.2806        0.0112        9.5050        9.5162       3.235601       0.08290
   4     651.6        6.3315        0.0119        9.0814        9.0933       2.761763       0.06480
   3     718.7        6.4098        0.0127        8.7024        8.7151       2.305359       0.05736
   2     792.3        6.5256        0.0136        8.3379        8.3515       1.825861       0.05499
   1     891.5        0.4965        2.1014        0.0003        2.1016       1.605148       0.01878
   0    1013.0        0.5091        2.0304        0.0003        2.0306       1.521532       0.00581



 Wavenumbers:  6150. -  7700. cm-1, ATM      1
 LEVEL PRESSURE   UPWARD FLUX   DIFDOWN FLUX  DIRDOWN FLUX  DOWNWARD FLUX   NET FLUX    HEATING RATE
          mb          W/m2          W/m2          W/m2        W/m2          W/m2       degree/day
  51    .06700        9.6570        0.0000       30.4684       30.4684      20.811433       0.00000
  50    .07753        9.6569        0.0000       30.4683       30.4683      20.811382       0.04144
  49    .09103        9.6569        0.0000       30.4683       30.4683      20.811315       0.04174
  48    0.1069        9.6569        0.0000       30.4682       30.4682      20.811236       0.04202
  47    0.1255        9.6569        0.0000       30.4681       30.4681      20.811143       0.04227
  46    0.1487        9.6569        0.0000       30.4680       30.4680      20.811022       0.04411
  45    0.1794        9.6569        0.0000       30.4678       30.4678      20.810852       0.04669
  44    0.2165        9.6569        0.0000       30.4676       30.4676      20.810644       0.04715
  43    0.2613        9.6569        0.0000       30.4673       30.4673      20.810393       0.04744
  42    0.3336        9.6569        0.0000       30.4669       30.4669      20.809966       0.04974
  41    0.4307        9.6569        0.0000       30.4663       30.4663      20.809385       0.05052
  40    0.5894        9.6569        0.0001       30.4653       30.4653      20.808417       0.05146
  39     1.339        9.6568        0.0002       30.4604       30.4606      20.803734       0.05273
  38     1.782        9.6568        0.0002       30.4576       30.4578      20.800984       0.05235
  37     2.292        9.6567        0.0003       30.4543       30.4546      20.797825       0.05231
  36     2.964        9.6567        0.0003       30.4501       30.4504      20.793718       0.05156
  35     3.853        9.6566        0.0005       30.4445       30.4450      20.788361       0.05084
  34     5.035        9.6565        0.0006       30.4373       30.4379      20.781361       0.05000
  33     6.613        9.6564        0.0008       30.4278       30.4286      20.772213       0.04890
  32     8.786        9.6562        0.0010       30.4154       30.4164      20.760260       0.04642
  31     11.80        9.6559        0.0014       30.3984       30.3998      20.743875       0.04588
  30     15.07        9.6556        0.0018       30.3810       30.3828      20.727161       0.04315
  29     18.79        9.6553        0.0022       30.3623       30.3645      20.709259       0.04059
  28     23.16        9.6549        0.0028       30.3417       30.3445      20.689575       0.03806
  27     28.12        9.6544        0.0033       30.3196       30.3229      20.668474       0.03587
  26     33.73        9.6539        0.0040       30.2965       30.3005      20.646553       0.03296
  25     40.54        9.6533        0.0048       30.2708       30.2756      20.622214       0.03020
  24     48.69        9.6526        0.0058       30.2423       30.2481      20.595433       0.02771
  23     57.69        9.6518        0.0068       30.2139       30.2207      20.568863       0.02491
  22     68.43        9.6509        0.0081       30.1834       30.1915      20.540582       0.02223
  21     81.20        9.6498        0.0096       30.1500       30.1596      20.509845       0.02031
  20     96.49        9.6484        0.0114       30.1126       30.1240      20.475615       0.01889
  19     114.6        9.6468        0.0135       30.0695       30.0830      20.436212       0.01840
  18     136.5        9.6450        0.0161       30.0139       30.0300      20.385029       0.01968
  17     162.9        9.6428        0.0191       29.9225       29.9416      20.298792       0.02756
  16     196.4        9.6400        0.0229       29.7333       29.7563      20.116269       0.04594
  15     218.7        9.6383        0.0254       29.5259       29.5513      19.912994       0.07718
  14     243.0        9.6366        0.0280       29.1375       29.1655      19.528888       0.13322
  13     269.0        9.6353        0.0305       28.3800       28.4105      18.775255       0.24447
  12     297.5        9.6347        0.0329       27.3895       27.4225      17.787746       0.29288
  11     328.5        9.6356        0.0352       26.2257       26.2609      16.625363       0.31605
  10     361.9        9.6388        0.0374       24.8453       24.8827      15.243949       0.34951
   9     398.1        9.6455        0.0393       23.3471       23.3863      13.740818       0.35020
   8     437.6        9.6581        0.0410       21.7966       21.8376      12.179459       0.33383
   7     480.5        9.6810        0.0424       20.1977       20.2401      10.559061       0.31824
   6     533.0        9.7260        0.0439       18.4969       18.5408       8.814830       0.28059
   5     589.8        9.8013        0.0454       16.9754       17.0208       7.219521       0.23680
   4     651.6        9.9261        0.0469       15.6022       15.6491       5.723012       0.20465
   3     718.7       10.1196        0.0487       14.4232       14.4719       4.352304       0.17226
   2     792.3       10.4079        0.0507       13.4386       13.4893       3.081411       0.14576
   1     891.5        0.7448        3.2773        0.0004        3.2778       2.532937       0.04667
   0    1013.0        0.7774        3.1006        0.0004        3.1010       2.323555       0.01454



 Wavenumbers:  7700. -  8050. cm-1, ATM      1
 LEVEL PRESSURE   UPWARD FLUX   DIFDOWN FLUX  DIRDOWN FLUX  DOWNWARD FLUX   NET FLUX    HEATING RATE
          mb          W/m2          W/m2          W/m2        W/m2          W/m2       degree/day
  51    .06700        4.6028        0.0000        7.2006        7.2006       2.597823       0.00000
  50    .07753        4.6028        0.0000        7.2006        7.2006       2.597802       0.01666
  49    .09103        4.6028        0.0000        7.2005        7.2005       2.597776       0.01633
  48    0.1069        4.6028        0.0000        7.2005        7.2005       2.597746       0.01599
  47    0.1255        4.6028        0.0000        7.2005        7.2005       2.597711       0.01565
  46    0.1487        4.6028        0.0000        7.2004        7.2005       2.597668       0.01587
  45    0.1794        4.6028        0.0000        7.2004        7.2004       2.597608       0.01634
  44    0.2165        4.6028        0.0000        7.2003        7.2003       2.597538       0.01602
  43    0.2613        4.6028        0.0000        7.2003        7.2003       2.597455       0.01572
  42    0.3336        4.6028        0.0000        7.2001        7.2001       2.597317       0.01609
  41    0.4307        4.6029        0.0000        7.2000        7.2000       2.597134       0.01591
  40    0.5894        4.6029        0.0000        7.1997        7.1997       2.596835       0.01589
  39     1.339        4.6031        0.0001        7.1984        7.1985       2.595421       0.01591
  38     1.782        4.6032        0.0001        7.1977        7.1978       2.594591       0.01580
  37     2.292        4.6033        0.0001        7.1968        7.1969       2.593630       0.01591
  36     2.964        4.6035        0.0002        7.1957        7.1959       2.592369       0.01583
  35     3.853        4.6037        0.0002        7.1942        7.1944       2.590704       0.01580
  34     5.035        4.6040        0.0003        7.1922        7.1925       2.588493       0.01579
  33     6.613        4.6044        0.0003        7.1896        7.1899       2.585543       0.01578
  32     8.786        4.6049        0.0005        7.1860        7.1865       2.581571       0.01542
  31     11.80        4.6057        0.0006        7.1810        7.1816       2.575900       0.01588
  30     15.07        4.6065        0.0008        7.1755        7.1763       2.569825       0.01568
  29     18.79        4.6074        0.0010        7.1694        7.1704       2.562981       0.01552
  28     23.16        4.6085        0.0012        7.1623        7.1635       2.555012       0.01541
  27     28.12        4.6098        0.0015        7.1542        7.1557       2.545933       0.01543
  26     33.73        4.6112        0.0017        7.1452        7.1470       2.535816       0.01521
  25     40.54        4.6129        0.0021        7.1344        7.1365       2.523656       0.01509
  24     48.69        4.6149        0.0025        7.1215        7.1240       2.509086       0.01508
  23     57.69        4.6172        0.0030        7.1074        7.1104       2.493195       0.01489
  22     68.43        4.6200        0.0035        7.0909        7.0944       2.474424       0.01476
  21     81.20        4.6232        0.0042        7.0713        7.0755       2.452275       0.01464
  20     96.49        4.6272        0.0049        7.0484        7.0534       2.426182       0.01440
  19     114.6        4.6319        0.0059        7.0217        7.0275       2.395609       0.01428
  18     136.5        4.6376        0.0069        6.9906        6.9975       2.359918       0.01372
  17     162.9        4.6445        0.0082        6.9544        6.9626       2.318142       0.01335
  16     196.4        4.6536        0.0099        6.9087        6.9186       2.265071       0.01336
  15     218.7        4.6596        0.0110        6.8794        6.8904       2.230783       0.01302
  14     243.0        4.6663        0.0122        6.8481        6.8603       2.193957       0.01277
  13     269.0        4.6737        0.0134        6.8147        6.8282       2.154426       0.01282
  12     297.5        4.6820        0.0148        6.7791        6.7939       2.111946       0.01260
  11     328.5        4.6911        0.0163        6.7409        6.7573       2.066135       0.01246
  10     361.9        4.7014        0.0179        6.7002        6.7181       2.016660       0.01252
   9     398.1        4.7130        0.0196        6.6563        6.6759       1.962896       0.01253
   8     437.6        4.7261        0.0215        6.6089        6.6303       1.904165       0.01256
   7     480.5        4.7413        0.0234        6.5570        6.5804       1.839104       0.01278
   6     533.0        4.7616        0.0258        6.4915        6.5173       1.755684       0.01342
   5     589.8        4.7858        0.0284        6.4182        6.4466       1.660820       0.01408
   4     651.6        4.8149        0.0311        6.3359        6.3670       1.552113       0.01487
   3     718.7        4.8496        0.0340        6.2441        6.2781       1.428560       0.01553
   2     792.3        4.8904        0.0371        6.1437        6.1808       1.290426       0.01584
   1     891.5        0.3906        1.6101        0.0002        1.6103       1.219680       0.00602
   0    1013.0        0.3968        1.5827        0.0002        1.5829       1.186041       0.00234



 Wavenumbers:  8050. - 12850. cm-1, ATM      1
 LEVEL PRESSURE   UPWARD FLUX   DIFDOWN FLUX  DIRDOWN FLUX  DOWNWARD FLUX   NET FLUX    HEATING RATE
          mb          W/m2          W/m2          W/m2        W/m2          W/m2       degree/day
  51    .06700       59.7262        0.0000      100.8135      100.8135      41.087338       0.00000
  50    .07753       59.7262        0.0000      100.8135      100.8135      41.087338       0.00000
  49    .09103       59.7261        0.0001      100.8134      100.8135      41.087338       0.00000
  48    0.1069       59.7261        0.0001      100.8134      100.8135      41.087338      -0.00000
  47    0.1255       59.7261        0.0001      100.8133      100.8134      41.087338       0.00000
  46    0.1487       59.7261        0.0002      100.8132      100.8134      41.087338      -0.00000
  45    0.1794       59.7260        0.0003      100.8131      100.8134      41.087338       0.00000
  44    0.2165       59.7260        0.0004      100.8129      100.8133      41.087338       0.00000
  43    0.2613       59.7259        0.0005      100.8127      100.8132      41.087338       0.00000
  42    0.3336       59.7258        0.0007      100.8125      100.8131      41.087338       0.00000
  41    0.4307       59.7257        0.0009      100.8121      100.8130      41.087338       0.00000
  40    0.5894       59.7254        0.0013      100.8115      100.8128      41.087338      -0.00000
  39     1.339       59.7244        0.0032      100.8085      100.8117      41.087338      -0.00000
  38     1.782       59.7237        0.0043      100.8068      100.8111      41.087338       0.00000
  37     2.292       59.7230        0.0056      100.8047      100.8103      41.087338       0.00000
  36     2.964       59.7221        0.0073      100.8021      100.8094      41.087338      -0.00000
  35     3.853       59.7208        0.0095      100.7986      100.8081      41.087338      -0.00000
  34     5.035       59.7191        0.0125      100.7940      100.8065      41.087338       0.00000
  33     6.613       59.7169        0.0164      100.7878      100.8042      41.087338       0.00000
  32     8.786       59.7138        0.0218      100.7794      100.8012      41.087338       0.00000
  31     11.80       59.7095        0.0294      100.7674      100.7969      41.087338      -0.00000
  30     15.07       59.7049        0.0376      100.7546      100.7922      41.087338       0.00000
  29     18.79       59.6996        0.0469      100.7400      100.7869      41.087338      -0.00000
  28     23.16       59.6934        0.0578      100.7230      100.7808      41.087338      -0.00000
  27     28.12       59.6864        0.0702      100.7035      100.7737      41.087338       0.00000
  26     33.73       59.6785        0.0842      100.6817      100.7658      41.087338       0.00000
  25     40.54       59.6690        0.1010      100.6552      100.7563      41.087338       0.00000
  24     48.69       59.6574        0.1214      100.6234      100.7448      41.087338      -0.00000
  23     57.69       59.6447        0.1438      100.5883      100.7321      41.087338       0.00000
  22     68.43       59.6296        0.1705      100.5464      100.7169      41.087338       0.00000
  21     81.20       59.6115        0.2024      100.4965      100.6989      41.087338      -0.00000
  20     96.49       59.5900        0.2404      100.4370      100.6773      41.087338       0.00000
  19     114.6       59.5645        0.2856      100.3585      100.6441      41.079544       0.00364
  18     136.5       59.5343        0.3393      100.2634      100.6026      41.068336       0.00431
  17     162.9       59.4984        0.4033      100.1407      100.5440      41.045636       0.00726
  16     196.4       59.4518        0.4865       99.9505      100.4370      40.985182       0.01522
  15     218.7       59.4213        0.5412       99.7889      100.3301      40.908772       0.02901
  14     243.0       59.3887        0.6005       99.5472      100.1477      40.759041       0.05193
  13     269.0       59.3550        0.6645       99.1452       99.8098      40.454783       0.09870
  12     297.5       59.3217        0.7333       98.5975       99.3308      40.009039       0.13220
  11     328.5       59.2912        0.8070       97.8659       98.6728      39.381598       0.17060
  10     361.9       59.2672        0.8854       96.8848       97.7701      38.502920       0.22231
   9     398.1       59.2546        0.9683       95.6330       96.6013      37.346674       0.26938
   8     437.6       59.2624        1.0553       94.0655       95.1208      35.858393       0.31820
   7     480.5       59.3084        1.1455       92.0807       93.2262      33.917808       0.38112
   6     533.0       59.4298        1.2524       89.4449       90.6972      31.267428       0.42636
   5     589.8       59.6596        1.3631       86.5544       87.9175      28.257888       0.44671
   4     651.6       60.0606        1.4771       83.4174       84.8945      24.833970       0.46823
   3     718.7       60.6858        1.5953       80.2037       81.7990      21.113218       0.46760
   2     792.3       61.6005        1.7184       77.0811       78.7995      17.199039       0.44891
   1     891.5        4.7490       20.0819        0.0026       20.0844      15.335421       0.15858
   0    1013.0        4.8664       19.4083        0.0024       19.4107      14.544333       0.05493



 Wavenumbers: 12850. - 16000. cm-1, ATM      1
 LEVEL PRESSURE   UPWARD FLUX   DIFDOWN FLUX  DIRDOWN FLUX  DOWNWARD FLUX   NET FLUX    HEATING RATE
          mb          W/m2          W/m2          W/m2        W/m2          W/m2       degree/day
  51    .06700       44.9985        0.0000       63.1686       63.1686      18.170054       0.00000
  50    .07753       44.9985        0.0001       63.1677       63.1678      18.169272       0.62686
  49    .09103       44.9985        0.0001       63.1666       63.1668      18.168297       0.60954
  48    0.1069       44.9985        0.0002       63.1654       63.1656      18.167186       0.59147
  47    0.1255       44.9984        0.0003       63.1640       63.1643      18.165921       0.57337
  46    0.1487       44.9984        0.0004       63.1623       63.1627      18.164342       0.57550
  45    0.1794       44.9984        0.0006       63.1600       63.1606      18.162223       0.58180
  44    0.2165       44.9983        0.0008       63.1573       63.1581      18.159769       0.55818
  43    0.2613       44.9983        0.0011       63.1542       63.1553      18.156935       0.53427
  42    0.3336       44.9983        0.0015       63.1493       63.1508      18.152410       0.52750
  41    0.4307       44.9984        0.0020       63.1431       63.1451      18.146738       0.49314
  40    0.5894       44.9986        0.0029       63.1338       63.1367      18.138117       0.45850
  39     1.339       45.0011        0.0069       63.0956       63.1025      18.101437       0.41294
  38     1.782       45.0038        0.0093       63.0740       63.0834      18.079568       0.41635
  37     2.292       45.0081        0.0121       63.0477       63.0598      18.051672       0.46203
  36     2.964       45.0156        0.0158       63.0095       63.0253      18.009739       0.52638
  35     3.853       45.0279        0.0206       62.9533       62.9738      17.945950       0.60537
  34     5.035       45.0467        0.0270       62.8725       62.8995      17.852737       0.66587
  33     6.613       45.0732        0.0355       62.7621       62.7975      17.724382       0.68619
  32     8.786       45.1075        0.0469       62.6182       62.6652      17.557724       0.64724
  31     11.80       45.1517        0.0633       62.4284       62.4916      17.339993       0.60958
  30     15.07       45.1934        0.0808       62.2426       62.3234      17.129983       0.54221
  29     18.79       45.2355        0.1006       62.0493       62.1499      16.914327       0.48896
  28     23.16       45.2788        0.1236       61.8424       61.9660      16.687210       0.43917
  27     28.12       45.3215        0.1499       61.6278       61.7777      16.456212       0.39268
  26     33.73       45.3594        0.1792       61.4177       61.5969      16.237528       0.32880
  25     40.54       45.3938        0.2146       61.1983       61.4129      16.019157       0.27091
  24     48.69       45.4242        0.2573       60.9680       61.2252      15.801032       0.22573
  23     57.69       45.4470        0.3040       60.7478       61.0518      15.604874       0.18387
  22     68.43       45.4625        0.3597       60.5202       60.8799      15.417399       0.14738
  21     81.20       45.4651        0.4260       60.2938       60.7198      15.254690       0.10752
  20     96.49       45.4537        0.5050       60.0643       60.5693      15.115611       0.07676
  19     114.6       45.4396        0.5994       59.8078       60.4072      14.967532       0.06914
  18     136.5       45.4166        0.7111       59.5157       60.2268      14.810157       0.06051
  17     162.9       45.3835        0.8438       59.1770       60.0208      14.637361       0.05523
  16     196.4       45.3281        1.0155       58.7604       59.7759      14.447854       0.04770
  15     218.7       45.2873        1.1280       58.4948       59.6228      14.335477       0.04267
  14     243.0       45.2412        1.2501       58.2089       59.4590      14.217740       0.04084
  13     269.0       45.1899        1.3821       57.9006       59.2827      14.092845       0.04052
  12     297.5       45.1335        1.5245       57.5668       59.0913      13.957821       0.04005
  11     328.5       45.0737        1.6780       57.2005       58.8785      13.804871       0.04159
  10     361.9       45.0115        1.8429       56.7963       58.6392      13.627679       0.04483
   9     398.1       44.9485        2.0197       56.3475       58.3672      13.418693       0.04869
   8     437.6       44.8876        2.2088       55.8422       58.0510      13.163358       0.05459
   7     480.5       44.8344        2.4102       55.2625       57.6728      12.838369       0.06383
   6     533.0       44.7891        2.6562       54.4972       57.1534      12.364247       0.07627
   5     589.8       44.7660        2.9180       53.6307       56.5487      11.782658       0.08633
   4     651.6       44.7774        3.1949       52.6606       55.8555      11.078080       0.09635
   3     718.7       44.8311        3.4873       51.6100       55.0973      10.266152       0.10204
   2     792.3       44.9378        3.7950       50.5019       54.2968       9.359018       0.10404
   1     891.5       10.6279       19.4649        0.0017       19.4667       8.838789       0.04427
   0    1013.0       10.7127       19.2071        0.0016       19.2087       8.495968       0.02380



 Wavenumbers: 16000. - 22650. cm-1, ATM      1
 LEVEL PRESSURE   UPWARD FLUX   DIFDOWN FLUX  DIRDOWN FLUX  DOWNWARD FLUX   NET FLUX    HEATING RATE
          mb          W/m2          W/m2          W/m2        W/m2          W/m2       degree/day
  51    .06700       80.3905        0.0000      100.7153      100.7153      20.324816       0.00000
  50    .07753       80.3904        0.0003      100.7147      100.7151      20.324696       0.09578
  49    .09103       80.3902        0.0007      100.7140      100.7147      20.324523       0.10864
  48    0.1069       80.3901        0.0012      100.7131      100.7144      20.324290       0.12388
  47    0.1255       80.3899        0.0018      100.7121      100.7139      20.323978       0.14121
  46    0.1487       80.3897        0.0025      100.7108      100.7132      20.323519       0.16733
  45    0.1794       80.3895        0.0034      100.7089      100.7123      20.322802       0.19701
  44    0.2165       80.3893        0.0045      100.7066      100.7111      20.321828       0.22142
  43    0.2613       80.3890        0.0059      100.7037      100.7095      20.320508       0.24893
  42    0.3336       80.3888        0.0081      100.6987      100.7068      20.317997       0.29273
  41    0.4307       80.3885        0.0110      100.6918      100.7028      20.314212       0.32905
  40    0.5894       80.3885        0.0157      100.6797      100.6955      20.306995       0.38381
  39     1.339       80.3941        0.0383      100.6095      100.6478      20.253683       0.60020
  38     1.782       80.4017        0.0515      100.5585      100.6100      20.208281       0.86439
  37     2.292       80.4145        0.0668      100.4903      100.5571      20.142580       1.08817
  36     2.964       80.4375        0.0869      100.3868      100.4737      20.036192       1.33549
  35     3.853       80.4765        0.1134      100.2306      100.3440      19.867498       1.60094
  34     5.035       80.5369        0.1486      100.0045      100.1530      19.616079       1.79603
  33     6.613       80.6221        0.1954       99.6939       99.8893      19.267194       1.86514
  32     8.786       80.7324        0.2584       99.2881       99.5465      18.814106       1.75963
  31     11.80       80.8734        0.3483       98.7496       99.0979      18.224465       1.65081
  30     15.07       81.0053        0.4444       98.2198       98.6642      17.658888       1.46021
  29     18.79       81.1368        0.5526       97.6651       98.2177      17.080909       1.31046
  28     23.16       81.2702        0.6785       97.0671       97.7457      16.475460       1.17074
  27     28.12       81.3992        0.8220       96.4406       97.2626      15.863407       1.04045
  26     33.73       81.5096        0.9821       95.8179       96.7999      15.290357       0.86160
  25     40.54       81.6038        1.1748       95.1548       96.3296      14.725809       0.70039
  24     48.69       81.6794        1.4062       94.4420       95.8482      14.168778       0.57644
  23     57.69       81.7259        1.6595       93.7416       95.4011      13.675180       0.46267
  22     68.43       81.7419        1.9599       92.9954       94.9552      13.213354       0.36306
  21     81.20       81.7069        2.3164       92.2231       94.5395      12.832579       0.25161
  20     96.49       81.6156        2.7393       91.4110       94.1503      12.534734       0.16439
  19     114.6       81.4824        3.2381       90.5070       93.7451      12.262691       0.12703
  18     136.5       81.3087        3.8245       89.4803       93.3047      11.996028       0.10254
  17     162.9       81.0881        4.5158       88.3022       92.8180      11.729975       0.08504
  16     196.4       80.7712        5.4023       86.8606       92.2629      11.491755       0.05996
  15     218.7       80.5526        5.9783       85.9492       91.9275      11.374863       0.04438
  14     243.0       80.3111        6.5988       84.9789       91.5777      11.266618       0.03754
  13     269.0       80.0455        7.2648       83.9493       91.2141      11.168531       0.03182
  12     297.5       79.7554        7.9772       82.8589       90.8361      11.080715       0.02605
  11     328.5       79.4423        8.7385       81.6982       90.4367      10.994415       0.02346
  10     361.9       79.1063        9.5484       80.4669       90.0153      10.909067       0.02159
   9     398.1       78.7467       10.4089       79.1611       89.5701      10.823399       0.01996
   8     437.6       78.3642       11.3205       77.7777       89.0982      10.733972       0.01912
   7     480.5       77.9595       12.2833       76.3136       88.5970      10.637463       0.01895
   6     533.0       77.4697       13.4486       74.5359       87.9845      10.514802       0.01973
   5     589.8       76.9536       14.6805       72.6469       87.3274      10.373803       0.02093
   4     651.6       76.4141       15.9769       70.6456       86.6225      10.208403       0.02262
   3     718.7       75.8519       17.3359       68.5367       85.8726      10.020661       0.02359
   2     792.3       75.2700       18.7521       66.3287       85.0808       9.810741       0.02408
   1     891.5       34.7470       44.4042        0.0022       44.4064       9.659459       0.01287
   0    1013.0       34.6951       44.2123        0.0021       44.2144       9.519311       0.00973



 Wavenumbers: 22650. - 29000. cm-1, ATM      1
 LEVEL PRESSURE   UPWARD FLUX   DIFDOWN FLUX  DIRDOWN FLUX  DOWNWARD FLUX   NET FLUX    HEATING RATE
          mb          W/m2          W/m2          W/m2        W/m2          W/m2       degree/day
  51    .06700       34.2004        0.0000       38.0063       38.0063       3.805863       0.00000
  50    .07753       34.2003        0.0004       38.0057       38.0061       3.805863       0.00000
  49    .09103       34.2000        0.0009       38.0050       38.0059       3.805863       0.00000
  48    0.1069       34.1998        0.0014       38.0042       38.0057       3.805863       0.00000
  47    0.1255       34.1995        0.0021       38.0033       38.0054       3.805863       0.00000
  46    0.1487       34.1992        0.0029       38.0022       38.0050       3.805863       0.00000
  45    0.1794       34.1987        0.0040       38.0006       38.0046       3.805863      -0.00000
  44    0.2165       34.1981        0.0053       37.9987       38.0040       3.805863       0.00000
  43    0.2613       34.1975        0.0068       37.9965       38.0033       3.805863       0.00000
  42    0.3336       34.1964        0.0094       37.9928       38.0022       3.805863       0.00000
  41    0.4307       34.1949        0.0128       37.9880       38.0007       3.805863       0.00000
  40    0.5894       34.1925        0.0183       37.9800       37.9983       3.805863       0.00000
  39     1.339       34.1811        0.0445       37.9425       37.9870       3.805863      -0.00000
  38     1.782       34.1744        0.0599       37.9204       37.9803       3.805863       0.00000
  37     2.292       34.1667        0.0777       37.8949       37.9726       3.805863       0.00000
  36     2.964       34.1566        0.1010       37.8614       37.9624       3.805863       0.00000
  35     3.853       34.1432        0.1318       37.8172       37.9491       3.805863       0.00000
  34     5.035       34.1254        0.1727       37.7586       37.9313       3.805863      -0.00000
  33     6.613       34.1018        0.2273       37.6803       37.9076       3.805863       0.00000
  32     8.786       34.0699        0.3007       37.5750       37.8757       3.805863       0.00000
  31     11.80       34.0244        0.4054       37.4249       37.8302       3.805863       0.00000
  30     15.07       33.9757        0.5174       37.2642       37.7815       3.805863       0.00000
  29     18.79       33.9209        0.6434       37.0833       37.7267       3.805863      -0.00000
  28     23.16       33.8571        0.7899       36.8730       37.6629       3.805863      -0.00000
  27     28.12       33.7845        0.9566       36.6338       37.5904       3.805863       0.00000
  26     33.73       33.7037        1.1419       36.3677       37.5096       3.805863       0.00000
  25     40.54       33.6068        1.3641       36.0486       37.4126       3.805863      -0.00000
  24     48.69       33.4908        1.6295       35.6672       37.2967       3.805863       0.00000
  23     57.69       33.3647        1.9178       35.2527       37.1705       3.805863      -0.00000
  22     68.43       33.2161        2.2570       34.7649       37.0219       3.805863       0.00000
  21     81.20       33.0414        2.6550       34.1922       36.8472       3.805863      -0.00000
  20     96.49       32.8365        3.1206       33.5217       36.6424       3.805863       0.00000
  19     114.6       32.5979        3.6614       32.7424       36.4038       3.805863       0.00000
  18     136.5       32.3215        4.2858       31.8416       36.1274       3.805863       0.00000
  17     162.9       32.0012        5.0063       30.8008       35.8071       3.805863       0.00000
  16     196.4       31.5997        5.9049       29.5007       35.4055       3.805863      -0.00000
  15     218.7       31.3442        6.4734       28.6767       35.1501       3.805863       0.00000
  14     243.0       31.0737        7.0728       27.8068       34.8796       3.805863       0.00000
  13     269.0       30.7887        7.7013       26.8933       34.5946       3.805863      -0.00000
  12     297.5       30.4899        8.3565       25.9393       34.2958       3.805863      -0.00000
  11     328.5       30.1772        9.0379       24.9451       33.9830       3.805863       0.00000
  10     361.9       29.8519        9.7417       23.9160       33.6577       3.805863       0.00000
   9     398.1       29.5144       10.4661       22.8541       33.3203       3.805863       0.00000
   8     437.6       29.1660       11.2074       21.7645       32.9718       3.805863      -0.00000
   7     480.5       28.8078       11.9615       20.6521       32.6137       3.805863       0.00000
   6     533.0       28.3873       12.8362       19.3569       32.1931       3.805863      -0.00000
   5     589.8       27.9575       13.7166       18.0467       31.7634       3.805863      -0.00000
   4     651.6       27.5210       14.5953       16.7316       31.3269       3.805863       0.00000
   3     718.7       27.0803       15.4647       15.4214       30.8861       3.805863       0.00000
   2     792.3       26.6381       16.3164       14.1276       30.4440       3.805863      -0.00000
   1     891.5       14.0018       17.8070        0.0004       17.8074       3.805610       0.00002
   0    1013.0       13.8703       17.6755        0.0004       17.6759       3.805610       0.00000



 Wavenumbers: 29000. - 38000. cm-1, ATM      1
 LEVEL PRESSURE   UPWARD FLUX   DIFDOWN FLUX  DIRDOWN FLUX  DOWNWARD FLUX   NET FLUX    HEATING RATE
          mb          W/m2          W/m2          W/m2        W/m2          W/m2       degree/day
  51    .06700        4.9362        0.0000       13.4026       13.4026       8.466355       0.00000
  50    .07753        4.9360        0.0003       13.3983       13.3986       8.462557       3.04444
  49    .09103        4.9358        0.0007       13.3921       13.3928       8.457037       3.44973
  48    0.1069        4.9355        0.0011       13.3840       13.3851       8.449660       3.92683
  47    0.1255        4.9351        0.0016       13.3733       13.3749       8.439815       4.46325
  46    0.1487        4.9347        0.0022       13.3579       13.3600       8.425373       5.26447
  45    0.1794        4.9341        0.0030       13.3340       13.3371       8.402973       6.14938
  44    0.2165        4.9334        0.0040       13.3024       13.3064       8.372953       6.82889
  43    0.2613        4.9327        0.0052       13.2604       13.2656       8.332898       7.55025
  42    0.3336        4.9314        0.0070       13.1833       13.1903       8.258890       8.62860
  41    0.4307        4.9299        0.0095       13.0729       13.0824       8.152516       9.24900
  40    0.5894        4.9275        0.0134       12.8796       12.8930       7.965468       9.94694
  39     1.339        4.9191        0.0297       11.9165       11.9462       7.027098      10.56435
  38     1.782        4.9158        0.0380       11.4399       11.4779       6.562090       8.85300
  37     2.292        4.9134        0.0469       10.9796       11.0265       6.113119       7.43613
  36     2.964        4.9120        0.0578       10.4786       10.5365       5.624424       6.13459
  35     3.853        4.9128        0.0713        9.9429       10.0142       5.101463       4.96299
  34     5.035        4.9163        0.0882        9.4007        9.4889       4.572573       3.77817
  33     6.613        4.9228        0.1095        8.8752        8.9848       4.061959       2.72975
  32     8.786        4.9318        0.1371        8.3786        8.5157       3.583930       1.85649
  31     11.80        4.9428        0.1750        7.8897        8.0646       3.121880       1.29359
  30     15.07        4.9523        0.2140        7.5108        7.7248       2.772574       0.90184
  29     18.79        4.9611        0.2566        7.1776        7.4342       2.473081       0.67904
  28     23.16        4.9693        0.3045        6.8664        7.1709       2.201663       0.52483
  27     28.12        4.9759        0.3575        6.5780        6.9355       1.959560       0.41156
  26     33.73        4.9787        0.4152        6.3195        6.7347       1.755990       0.30607
  25     40.54        4.9764        0.4833        6.0663        6.5496       1.573220       0.22675
  24     48.69        4.9684        0.5631        5.8128        6.3760       1.407556       0.17144
  23     57.69        4.9548        0.6483        5.5777        6.2260       1.271269       0.12775
  22     68.43        4.9331        0.7469        5.3379        6.0848       1.151664       0.09403
  21     81.20        4.8993        0.8613        5.0965        5.9578       1.058516       0.06155
  20     96.49        4.8520        0.9935        4.8476        5.8411       0.989114       0.03831
  19     114.6        4.7944        1.1432        4.5799        5.7231       0.928668       0.02822
  18     136.5        4.7277        1.3106        4.2891        5.5996       0.871976       0.02180
  17     162.9        4.6514        1.4961        3.9732        5.4693       0.817890       0.01729
  16     196.4        4.5548        1.7184        3.6080        5.3264       0.771617       0.01165
  15     218.7        4.4939        1.8537        3.3898        5.2435       0.749569       0.00837
  14     243.0        4.4306        1.9916        3.1686        5.1602       0.729557       0.00694
  13     269.0        4.3653        2.1311        2.9461        5.0771       0.711895       0.00573
  12     297.5        4.2982        2.2708        2.7239        4.9948       0.696602       0.00454
  11     328.5        4.2302        2.4095        2.5029        4.9124       0.682227       0.00391
  10     361.9        4.1618        2.5460        2.2846        4.8306       0.668791       0.00340
   9     398.1        4.0934        2.6789        2.0708        4.7497       0.656289       0.00291
   8     437.6        4.0254        2.8073        1.8626        4.6698       0.644453       0.00253
   7     480.5        3.9583        2.9296        1.6621        4.5917       0.633414       0.00217
   6     533.0        3.8830        3.0610        1.4437        4.5046       0.621599       0.00190
   5     589.8        3.8101        3.1815        1.2390        4.4204       0.610377       0.00167
   4     651.6        3.7399        3.2895        1.0500        4.3395       0.599593       0.00147
   3     718.7        3.6729        3.3843        0.8778        4.2621       0.589212       0.00130
   2     792.3        3.6093        3.4648        0.7237        4.1886       0.579214       0.00115
   1     891.5        2.0853        2.6552        0.0000        2.6553       0.569919       0.00079
   0    1013.0        2.0485        2.6106        0.0000        2.6106       0.562062       0.00055



 Wavenumbers: 38000. - 50000. cm-1, ATM      1
 LEVEL PRESSURE   UPWARD FLUX   DIFDOWN FLUX  DIRDOWN FLUX  DOWNWARD FLUX   NET FLUX    HEATING RATE
          mb          W/m2          W/m2          W/m2        W/m2          W/m2       degree/day
  51    .06700        0.0051        0.0000        0.8267        0.8267       0.821528       0.00000
  50    .07753        0.0051        0.0001        0.8242        0.8243       0.819196       1.86936
  49    .09103        0.0050        0.0002        0.8207        0.8209       0.815872       2.07705
  48    0.1069        0.0049        0.0002        0.8162        0.8164       0.811514       2.31984
  47    0.1255        0.0048        0.0004        0.8103        0.8106       0.805801       2.59006
  46    0.1487        0.0047        0.0005        0.8018        0.8023       0.797567       3.00143
  45    0.1794        0.0045        0.0007        0.7889        0.7896       0.785013       3.44648
  44    0.2165        0.0044        0.0009        0.7720        0.7729       0.768507       3.75474
  43    0.2613        0.0042        0.0011        0.7500        0.7511       0.746955       4.06246
  42    0.3336        0.0039        0.0015        0.7106        0.7121       0.708267       4.51071
  41    0.4307        0.0035        0.0019        0.6566        0.6584       0.654972       4.63387
  40    0.5894        0.0029        0.0024        0.5680        0.5704       0.567464       4.65357
  39     1.339        0.0015        0.0030        0.2422        0.2452       0.243720       3.64476
  38     1.782        0.0010        0.0026        0.1493        0.1519       0.150889       1.76735
  37     2.292        0.0007        0.0022        0.0924        0.0946       0.093932       0.94336
  36     2.964        0.0005        0.0018        0.0539        0.0557       0.055224       0.48589
  35     3.853        0.0003        0.0013        0.0295        0.0308       0.030502       0.23462
  34     5.035        0.0002        0.0010        0.0154        0.0164       0.016181       0.10230
  33     6.613        0.0001        0.0007        0.0073        0.0080       0.007912       0.04420
  32     8.786        0.0000        0.0004        0.0030        0.0034       0.003390       0.01756
  31     11.80        0.0000        0.0003        0.0010        0.0012       0.001199       0.00613
  30     15.07        0.0000        0.0001        0.0003        0.0005       0.000463       0.00190
  29     18.79        0.0000        0.0001        0.0001        0.0002       0.000182       0.00064
  28     23.16        0.0000        0.0000        0.0000        0.0001       0.000071       0.00022
  27     28.12        0.0000        0.0000        0.0000        0.0000       0.000028       0.00007
  26     33.73        0.0000        0.0000        0.0000        0.0000       0.000011       0.00002
  25     40.54        0.0000        0.0000        0.0000        0.0000       0.000005       0.00001
  24     48.69        0.0000        0.0000        0.0000        0.0000       0.000002       0.00000
  23     57.69        0.0000        0.0000        0.0000        0.0000       0.000001       0.00000
  22     68.43        0.0000        0.0000        0.0000        0.0000       0.000000       0.00000
  21     81.20        0.0000        0.0000        0.0000        0.0000       0.000000       0.00000
  20     96.49        0.0000        0.0000        0.0000        0.0000       0.000000       0.00000
  19     114.6        0.0000        0.0000        0.0000        0.0000       0.000000       0.00000
  18     136.5        0.0000        0.0000        0.0000        0.0000       0.000000       0.00000
  17     162.9        0.0000        0.0000        0.0000        0.0000       0.000000       0.00000
  16     196.4        0.0000        0.0000        0.0000        0.0000       0.000000       0.00000
  15     218.7        0.0000        0.0000        0.0000        0.0000       0.000000       0.00000
  14     243.0        0.0000        0.0000        0.0000        0.0000       0.000000       0.00000
  13     269.0        0.0000        0.0000        0.0000        0.0000       0.000000       0.00000
  12     297.5        0.0000        0.0000        0.0000        0.0000       0.000000       0.00000
  11     328.5        0.0000        0.0000        0.0000        0.0000       0.000000       0.00000
  10     361.9        0.0000        0.0000        0.0000        0.0000       0.000000       0.00000
   9     398.1        0.0000        0.0000        0.0000        0.0000       0.000000       0.00000
   8     437.6        0.0000        0.0000        0.0000        0.0000       0.000000       0.00000
   7     480.5        0.0000        0.0000        0.0000        0.0000       0.000000       0.00000
   6     533.0        0.0000        0.0000        0.0000        0.0000       0.000000       0.00000
   5     589.8        0.0000        0.0000        0.0000        0.0000       0.000000       0.00000
   4     651.6        0.0000        0.0000        0.0000        0.0000       0.000000       0.00000
   3     718.7        0.0000        0.0000        0.0000        0.0000       0.000000       0.00000
   2     792.3        0.0000        0.0000        0.0000        0.0000       0.000000       0.00000
   1     891.5        0.0000        0.0000        0.0000        0.0000       0.000000       0.00000
   0    1013.0        0.0000        0.0000        0.0000        0.0000       0.000000       0.00000



 Wavenumbers:   820. -  2600. cm-1, ATM      1
 LEVEL PRESSURE   UPWARD FLUX   DIFDOWN FLUX  DIRDOWN FLUX  DOWNWARD FLUX   NET FLUX    HEATING RATE
          mb          W/m2          W/m2          W/m2        W/m2          W/m2       degree/day
  51    .06700        0.7481        0.0000        3.8670        3.8670       3.118956       0.00000
  50    .07753        0.7481        0.0000        3.8643        3.8643       3.116239       2.17771
  49    .09103        0.7481        0.0000        3.8635        3.8635       3.115428       0.50639
  48    0.1069        0.7481        0.0000        3.8626        3.8626       3.114538       0.47416
  47    0.1255        0.7481        0.0000        3.8616        3.8616       3.113577       0.43561
  46    0.1487        0.7481        0.0000        3.8605        3.8605       3.112467       0.40439
  45    0.1794        0.7481        0.0000        3.8592        3.8592       3.111132       0.36649
  44    0.2165        0.7481        0.0000        3.8578        3.8578       3.109754       0.31348
  43    0.2613        0.7481        0.0000        3.8564        3.8564       3.108294       0.27524
  42    0.3336        0.7481        0.0000        3.8541        3.8541       3.106063       0.26014
  41    0.4307        0.7481        0.0000        3.8512        3.8512       3.103180       0.25065
  40    0.5894        0.7481        0.0000        3.8465        3.8465       3.098454       0.25136
  39     1.339        0.7481        0.0000        3.8251        3.8251       3.077077       0.24067
  38     1.782        0.7481        0.0000        3.8133        3.8133       3.065263       0.22492
  37     2.292        0.7481        0.0000        3.8003        3.8003       3.052200       0.21635
  36     2.964        0.7481        0.0000        3.7841        3.7841       3.036070       0.20249
  35     3.853        0.7481        0.0000        3.7642        3.7642       3.016153       0.18901
  34     5.035        0.7481        0.0000        3.7395        3.7395       2.991459       0.17640
  33     6.613        0.7481        0.0000        3.7090        3.7090       2.960919       0.16327
  32     8.786        0.7481        0.0000        3.6726        3.6726       2.924521       0.14136
  31     11.80        0.7481        0.0000        3.6320        3.6320       2.883918       0.11367
  30     15.07        0.7481        0.0000        3.6016        3.6016       2.853525       0.07847
  29     18.79        0.7481        0.0000        3.5777        3.5777       2.829617       0.05421
  28     23.16        0.7481        0.0000        3.5564        3.5564       2.808252       0.04131
  27     28.12        0.7482        0.0000        3.5348        3.5348       2.786692       0.03665
  26     33.73        0.7482        0.0000        3.5118        3.5118       2.763642       0.03466
  25     40.54        0.7482        0.0000        3.4849        3.4849       2.736735       0.03338
  24     48.69        0.7482        0.0000        3.4537        3.4537       2.705458       0.03237
  23     57.69        0.7483        0.0000        3.4210        3.4210       2.672758       0.03065
  22     68.43        0.7483        0.0000        3.3844        3.3844       2.636139       0.02879
  21     81.20        0.7483        0.0000        3.3441        3.3441       2.595801       0.02665
  20     96.49        0.7484        0.0000        3.2998        3.2998       2.551388       0.02451
  19     114.6        0.7485        0.0000        3.2506        3.2507       2.502181       0.02298
  18     136.5        0.7486        0.0000        3.1936        3.1936       2.445046       0.02197
  17     162.9        0.7487        0.0000        3.1181        3.1181       2.369398       0.02418
  16     196.4        0.7491        0.0000        3.0090        3.0090       2.259930       0.02755
  15     218.7        0.7493        0.0000        2.9420        2.9420       2.192718       0.02552
  14     243.0        0.7496        0.0000        2.8605        2.8605       2.110851       0.02839
  13     269.0        0.7502        0.0000        2.7419        2.7420       1.991759       0.03863
  12     297.5        0.7512        0.0000        2.5729        2.5729       1.821710       0.05043
  11     328.5        0.7527        0.0000        2.3602        2.3602       1.607499       0.05824
  10     361.9        0.7550        0.0000        2.1524        2.1524       1.397410       0.05315
   9     398.1        0.7583        0.0000        1.9974        1.9974       1.239115       0.03688
   8     437.6        0.7629        0.0000        1.8835        1.8835       1.120624       0.02533
   7     480.5        0.7694        0.0000        1.7734        1.7734       1.004009       0.02290
   6     533.0        0.7801        0.0000        1.6397        1.6398       0.859620       0.02323
   5     589.8        0.7955        0.0000        1.5068        1.5069       0.711372       0.02200
   4     651.6        0.8182        0.0000        1.3807        1.3807       0.562584       0.02035
   3     718.7        0.8484        0.0000        1.2680        1.2681       0.419622       0.01797
   2     792.3        0.8864        0.0000        1.1659        1.1660       0.279563       0.01606
   1     891.5        0.0550        0.2677        0.0000        0.2677       0.212785       0.00568
   0    1013.0        0.0606        0.2416        0.0000        0.2416       0.181055       0.00220

  Modules and versions used in this calculation:

       rrtmg_sw.1col.f90:  $Revision$                    rrtmg_sw_init.f90:  $Revision$        
     rrtmgsw_cldprop.f90:  $Revision$                  rrtmgsw_cldprmc.f90:  NOT USED          
     rrtmg_sw_reftra.f90:  $Revision$                  rrtmg_sw_spcvrt.f90:  NOT USED          
     rrtmg_sw_spcvmc.f90:  NOT USED                    rrtmgsw_setcoef.f90:  NOT USED          
     rrtmg_sw_taumol.f90:  $Revision$                  rrtmg_sw_vrtqdr.f90:  NOT USED          
                rrtatm.f:  NOT USED                             util_xxx.f:  NOT USED          
                 extra.f:  NOT USED                       rrtmg_sw_k_g.f90:  $Revision$        

