

 Wavenumbers:   820. - 50000. cm-1, ATM      1
 LEVEL PRESSURE   UPWARD FLUX   DIFDOWN FLUX  DIRDOWN FLUX  DOWNWARD FLUX   NET FLUX    HEATING RATE
          mb          W/m2          W/m2          W/m2        W/m2          W/m2       degree/day
  51    .06700      236.3986        0.0000      397.8738      397.8738     161.475175       0.00000
  50    .07753      236.3980        0.0012      397.8577      397.8589     161.460887      11.45237
  49    .09103      236.3972        0.0026      397.8418      397.8445     161.447202       8.55314
  48    0.1069      236.3964        0.0043      397.8230      397.8273     161.430860       8.69917
  47    0.1255      236.3955        0.0062      397.7997      397.8059     161.410425       9.26437
  46    0.1487      236.3943        0.0086      397.7676      397.7763     161.381978      10.36903
  45    0.1794      236.3928        0.0119      397.7205      397.7325     161.339704      11.60536
  44    0.2165      236.3910        0.0158      397.6602      397.6761     161.285079      12.42605
  43    0.2613      236.3890        0.0204      397.5829      397.6034     161.214316      13.33871
  42    0.3336      236.3860        0.0280      397.4449      397.4729     161.086940      14.85073
  41    0.4307      236.3821        0.0379      397.2524      397.2903     160.908167      15.54389
  40    0.5894      236.3765        0.0539      396.9253      396.9792     160.602635      16.24783
  39     1.339      236.3612        0.1251      395.4254      395.5505     159.189277      15.91184
  38     1.782      236.3596        0.1651      394.7288      394.8938     158.534202      12.47157
  37     2.292      236.3643        0.2105      394.0572      394.2677     157.903324      10.44899
  36     2.964      236.3802        0.2695      393.3007      393.5702     157.189963       8.95483
  35     3.853      236.4146        0.3466      392.4318      392.7784     156.363762       7.84080
  34     5.035      236.4737        0.4481      391.4441      391.8921     155.418425       6.75310
  33     6.613      236.5600        0.5824      390.3268      390.9092     154.349232       5.71590
  32     8.786      236.6709        0.7622      389.0624      389.8246     153.153630       4.64329
  31     11.80      236.8072        1.0172      387.5500      388.5672     151.760014       3.90169
  30     15.07      236.9271        1.2888      386.1556      387.4444     150.517289       3.20847
  29     18.79      237.0391        1.5932      384.7502      386.3434     149.304226       2.75039
  28     23.16      237.1429        1.9458      383.2686      385.2144     148.071502       2.38369
  27     28.12      237.2300        2.3457      381.7329      384.0786     146.848638       2.07879
  26     33.73      237.2810        2.7900      380.1982      382.9882     145.707127       1.71629
  25     40.54      237.2890        3.3228      378.5384      381.8611     144.572101       1.40813
  24     48.69      237.2473        3.9593      376.7214      380.6808     143.433442       1.17833
  23     57.69      237.1523        4.6519      374.8959      379.5478     142.395511       0.97290
  22     68.43      236.9864        5.4683      372.8999      378.3683     141.381873       0.79686
  21     81.20      236.7159        6.4305      370.7496      377.1801     140.464258       0.60635
  20     96.49      236.3280        7.5624      368.4056      375.9680     139.639960       0.45495
  19     114.6      235.8469        8.8843      365.7513      374.6356     138.788703       0.39748
  18     136.5      235.2632       10.4193      362.7231      373.1424     137.879209       0.34972
  17     162.9      234.5621       12.2035      359.1748      371.3782     136.816162       0.33979
  16     196.4      233.6284       14.4525      354.5718      369.0243     135.395912       0.35749
  15     218.7      233.0125       15.8906      351.4437      367.3343     134.321808       0.40780
  14     243.0      232.3491       17.4201      347.7111      365.1312     132.782172       0.53400
  13     269.0      231.6399       19.0390      342.9441      361.9831     130.343185       0.79120
  12     297.5      230.8882       20.7450      337.4137      358.1587     127.270511       0.91132
  11     328.5      230.1010       22.5398      331.1302      353.6700     123.568964       1.00644
  10     361.9      229.2865       24.4177      324.1219      348.5396     119.253056       1.09197
   9     398.1      228.4527       26.3780      316.6066      342.9846     114.531890       1.09993
   8     437.6      227.6169       28.4161      308.5895      337.0056     109.388681       1.09965
   7     480.5      226.8103       30.5259      299.9349      330.4608     103.650467       1.12696
   6     533.0      225.9616       33.0236      289.7021      322.7258      96.764180       1.10778
   5     589.8      225.2516       35.6000      279.3388      314.9388      89.687158       1.05046
   4     651.6      224.7867       38.2426      268.7786      307.0212      82.234507       1.01917
   3     718.7      224.6543       40.9423      258.2837      299.2260      74.571639       0.96301
   2     792.3      224.9675       43.6848      248.0774      291.7622      66.794768       0.89192
   1     891.5       85.2216      146.0671        1.3925      147.4596      62.238047       0.38776
   0    1013.0       85.3808      143.6151        1.3095      144.9245      59.543754       0.18708



 Wavenumbers:  2600. -  3250. cm-1, ATM      1
 LEVEL PRESSURE   UPWARD FLUX   DIFDOWN FLUX  DIRDOWN FLUX  DOWNWARD FLUX   NET FLUX    HEATING RATE
          mb          W/m2          W/m2          W/m2        W/m2          W/m2       degree/day
  51    .06700        0.8716        0.0000        3.5066        3.5066       2.635023       0.00000
  50    .07753        0.8716        0.0000        3.5066        3.5066       2.635015       0.00640
  49    .09103        0.8716        0.0000        3.5066        3.5066       2.635005       0.00627
  48    0.1069        0.8716        0.0000        3.5066        3.5066       2.634994       0.00613
  47    0.1255        0.8716        0.0000        3.5066        3.5066       2.634980       0.00599
  46    0.1487        0.8716        0.0000        3.5066        3.5066       2.634964       0.00607
  45    0.1794        0.8716        0.0000        3.5065        3.5065       2.634941       0.00624
  44    0.2165        0.8716        0.0000        3.5065        3.5065       2.634914       0.00611
  43    0.2613        0.8716        0.0000        3.5065        3.5065       2.634882       0.00598
  42    0.3336        0.8716        0.0000        3.5064        3.5064       2.634830       0.00615
  41    0.4307        0.8716        0.0000        3.5064        3.5064       2.634759       0.00618
  40    0.5894        0.8716        0.0000        3.5062        3.5062       2.634639       0.00633
  39     1.339        0.8716        0.0000        3.5055        3.5055       2.633941       0.00787
  38     1.782        0.8716        0.0000        3.5050        3.5050       2.633410       0.01011
  37     2.292        0.8716        0.0000        3.5043        3.5043       2.632717       0.01147
  36     2.964        0.8716        0.0000        3.5033        3.5033       2.631726       0.01245
  35     3.853        0.8716        0.0000        3.5019        3.5019       2.630349       0.01307
  34     5.035        0.8716        0.0000        3.5001        3.5001       2.628488       0.01329
  33     6.613        0.8716        0.0000        3.4977        3.4977       2.626078       0.01288
  32     8.786        0.8716        0.0000        3.4947        3.4947       2.623107       0.01154
  31     11.80        0.8716        0.0000        3.4911        3.4911       2.619471       0.01018
  30     15.07        0.8716        0.0000        3.4878        3.4878       2.616249       0.00832
  29     18.79        0.8716        0.0000        3.4848        3.4848       2.613185       0.00695
  28     23.16        0.8716        0.0000        3.4816        3.4816       2.609963       0.00623
  27     28.12        0.8716        0.0000        3.4779        3.4779       2.606343       0.00615
  26     33.73        0.8716        0.0000        3.4735        3.4735       2.601873       0.00672
  25     40.54        0.8716        0.0000        3.4671        3.4672       2.595541       0.00785
  24     48.69        0.8716        0.0000        3.4582        3.4583       2.586638       0.00921
  23     57.69        0.8716        0.0000        3.4472        3.4472       2.575579       0.01037
  22     68.43        0.8716        0.0000        3.4329        3.4329       2.561302       0.01122
  21     81.20        0.8717        0.0000        3.4152        3.4152       2.543549       0.01173
  20     96.49        0.8717        0.0000        3.3940        3.3941       2.522370       0.01169
  19     114.6        0.8718        0.0000        3.3692        3.3692       2.497432       0.01164
  18     136.5        0.8719        0.0001        3.3419        3.3420       2.470144       0.01049
  17     162.9        0.8720        0.0001        3.3129        3.3129       2.440962       0.00933
  16     196.4        0.8722        0.0001        3.2793        3.2794       2.407194       0.00850
  15     218.7        0.8725        0.0001        3.2578        3.2578       2.385388       0.00828
  14     243.0        0.8728        0.0001        3.2320        3.2321       2.359217       0.00908
  13     269.0        0.8735        0.0001        3.1968        3.1969       2.323483       0.01159
  12     297.5        0.8744        0.0001        3.1489        3.1491       2.274653       0.01448
  11     328.5        0.8758        0.0001        3.0821        3.0822       2.206333       0.01858
  10     361.9        0.8780        0.0001        2.9902        2.9904       2.112388       0.02377
   9     398.1        0.8811        0.0001        2.8715        2.8716       1.990568       0.02838
   8     437.6        0.8855        0.0002        2.7276        2.7278       1.842298       0.03170
   7     480.5        0.8922        0.0002        2.5595        2.5597       1.667499       0.03433
   6     533.0        0.9035        0.0002        2.3617        2.3619       1.458452       0.03363
   5     589.8        0.9200        0.0002        2.1649        2.1651       1.245053       0.03168
   4     651.6        0.9447        0.0002        1.9608        1.9609       1.016201       0.03130
   3     718.7        0.9801        0.0002        1.7593        1.7595       0.779443       0.02975
   2     792.3        1.0294        0.0002        1.5761        1.5762       0.546842       0.02668
   1     891.5        0.1101        0.5243        0.0081        0.5324       0.422287       0.01060
   0    1013.0        0.1205        0.4723        0.0069        0.4792       0.358657       0.00442



 Wavenumbers:  3250. -  4000. cm-1, ATM      1
 LEVEL PRESSURE   UPWARD FLUX   DIFDOWN FLUX  DIRDOWN FLUX  DOWNWARD FLUX   NET FLUX    HEATING RATE
          mb          W/m2          W/m2          W/m2        W/m2          W/m2       degree/day
  51    .06700        0.0063        0.0000        5.9117        5.9117       5.905339       0.00000
  50    .07753        0.0063        0.0000        5.9075        5.9075       5.901150       3.35808
  49    .09103        0.0063        0.0000        5.9050        5.9050       5.898707       1.52677
  48    0.1069        0.0063        0.0000        5.9032        5.9032       5.896840       0.99346
  47    0.1255        0.0063        0.0000        5.9014        5.9014       5.895082       0.79708
  46    0.1487        0.0063        0.0000        5.8995        5.8995       5.893194       0.68848
  45    0.1794        0.0063        0.0000        5.8974        5.8974       5.891045       0.58983
  44    0.2165        0.0063        0.0000        5.8952        5.8952       5.888928       0.48155
  43    0.2613        0.0063        0.0000        5.8931        5.8931       5.886769       0.40696
  42    0.3336        0.0063        0.0000        5.8899        5.8899       5.883611       0.36820
  41    0.4307        0.0063        0.0000        5.8861        5.8861       5.879774       0.33365
  40    0.5894        0.0063        0.0000        5.8803        5.8803       5.873971       0.30857
  39     1.339        0.0063        0.0000        5.8597        5.8597       5.853374       0.23189
  38     1.782        0.0063        0.0000        5.8513        5.8513       5.844949       0.16039
  37     2.292        0.0063        0.0000        5.8431        5.8431       5.836778       0.13533
  36     2.964        0.0063        0.0000        5.8334        5.8334       5.827139       0.12100
  35     3.853        0.0063        0.0000        5.8213        5.8213       5.814963       0.11555
  34     5.035        0.0063        0.0000        5.8052        5.8052       5.798868       0.11498
  33     6.613        0.0063        0.0000        5.7833        5.7834       5.777046       0.11666
  32     8.786        0.0063        0.0000        5.7531        5.7531       5.746845       0.11729
  31     11.80        0.0063        0.0000        5.7090        5.7090       5.702676       0.12366
  30     15.07        0.0063        0.0000        5.6615        5.6615       5.655212       0.12254
  29     18.79        0.0063        0.0000        5.6093        5.6094       5.603076       0.11821
  28     23.16        0.0063        0.0000        5.5524        5.5524       5.546150       0.11008
  27     28.12        0.0063        0.0000        5.4935        5.4935       5.487271       0.10009
  26     33.73        0.0063        0.0000        5.4348        5.4349       5.428582       0.08824
  25     40.54        0.0063        0.0001        5.3707        5.3708       5.364521       0.07948
  24     48.69        0.0063        0.0001        5.2985        5.2985       5.292288       0.07475
  23     57.69        0.0062        0.0001        5.2215        5.2216       5.215349       0.07212
  22     68.43        0.0062        0.0001        5.1318        5.1319       5.125689       0.07048
  21     81.20        0.0062        0.0001        5.0284        5.0285       5.022259       0.06834
  20     96.49        0.0062        0.0001        4.9122        4.9123       4.906125       0.06410
  19     114.6        0.0062        0.0001        4.7780        4.7782       4.772014       0.06262
  18     136.5        0.0061        0.0002        4.6285        4.6287       4.622536       0.05748
  17     162.9        0.0061        0.0002        4.4406        4.4407       4.434623       0.06006
  16     196.4        0.0061        0.0002        4.1548        4.1550       4.148948       0.07191
  15     218.7        0.0061        0.0002        3.9564        3.9566       3.950566       0.07532
  14     243.0        0.0060        0.0002        3.7055        3.7058       3.699729       0.08700
  13     269.0        0.0060        0.0002        3.3399        3.3401       3.334082       0.11861
  12     297.5        0.0060        0.0002        2.8954        2.8956       2.889576       0.13184
  11     328.5        0.0060        0.0002        2.4388        2.4390       2.433001       0.12414
  10     361.9        0.0061        0.0002        2.0269        2.0271       2.020999       0.10424
   9     398.1        0.0062        0.0002        1.6753        1.6755       1.669301       0.08194
   8     437.6        0.0064        0.0002        1.3592        1.3594       1.352992       0.06763
   7     480.5        0.0067        0.0002        1.0616        1.0618       1.055063       0.05851
   6     533.0        0.0074        0.0001        0.7543        0.7544       0.747015       0.04956
   5     589.8        0.0087        0.0001        0.4951        0.4952       0.486507       0.03867
   4     651.6        0.0113        0.0001        0.2943        0.2943       0.283047       0.02782
   3     718.7        0.0163        0.0001        0.1528        0.1529       0.136508       0.01842
   2     792.3        0.0267        0.0000        0.0658        0.0658       0.039137       0.01117
   1     891.5        0.0001        0.0072        0.0001        0.0073       0.007230       0.00272
   0    1013.0        0.0004        0.0017        0.0000        0.0017       0.001294       0.00041



 Wavenumbers:  4000. -  4650. cm-1, ATM      1
 LEVEL PRESSURE   UPWARD FLUX   DIFDOWN FLUX  DIRDOWN FLUX  DOWNWARD FLUX   NET FLUX    HEATING RATE
          mb          W/m2          W/m2          W/m2        W/m2          W/m2       degree/day
  51    .06700        3.1403        0.0000        6.9421        6.9421       3.801726       0.00000
  50    .07753        3.1403        0.0000        6.9421        6.9421       3.801725       0.00079
  49    .09103        3.1403        0.0000        6.9421        6.9421       3.801724       0.00078
  48    0.1069        3.1403        0.0000        6.9421        6.9421       3.801722       0.00076
  47    0.1255        3.1403        0.0000        6.9421        6.9421       3.801721       0.00074
  46    0.1487        3.1403        0.0000        6.9421        6.9421       3.801719       0.00075
  45    0.1794        3.1403        0.0000        6.9421        6.9421       3.801716       0.00077
  44    0.2165        3.1403        0.0000        6.9421        6.9421       3.801713       0.00076
  43    0.2613        3.1403        0.0000        6.9420        6.9420       3.801709       0.00074
  42    0.3336        3.1403        0.0000        6.9420        6.9420       3.801702       0.00076
  41    0.4307        3.1403        0.0000        6.9420        6.9420       3.801693       0.00077
  40    0.5894        3.1403        0.0000        6.9420        6.9420       3.801678       0.00079
  39     1.339        3.1403        0.0000        6.9419        6.9419       3.801590       0.00100
  38     1.782        3.1403        0.0000        6.9418        6.9419       3.801520       0.00132
  37     2.292        3.1403        0.0000        6.9418        6.9418       3.801427       0.00155
  36     2.964        3.1403        0.0000        6.9416        6.9416       3.801287       0.00175
  35     3.853        3.1403        0.0000        6.9414        6.9414       3.801081       0.00196
  34     5.035        3.1403        0.0000        6.9411        6.9411       3.800776       0.00218
  33     6.613        3.1403        0.0000        6.9406        6.9407       3.800328       0.00240
  32     8.786        3.1403        0.0000        6.9399        6.9400       3.799667       0.00257
  31     11.80        3.1403        0.0000        6.9389        6.9389       3.798632       0.00290
  30     15.07        3.1403        0.0001        6.9377        6.9377       3.797420       0.00313
  29     18.79        3.1403        0.0001        6.9362        6.9363       3.795959       0.00331
  28     23.16        3.1403        0.0001        6.9343        6.9344       3.794152       0.00349
  27     28.12        3.1403        0.0001        6.9321        6.9323       3.791974       0.00370
  26     33.73        3.1403        0.0001        6.9294        6.9296       3.789300       0.00402
  25     40.54        3.1403        0.0002        6.9258        6.9260       3.785693       0.00448
  24     48.69        3.1403        0.0002        6.9210        6.9212       3.780915       0.00494
  23     57.69        3.1403        0.0002        6.9154        6.9156       3.775291       0.00527
  22     68.43        3.1403        0.0003        6.9083        6.9086       3.768294       0.00550
  21     81.20        3.1404        0.0003        6.8998        6.9001       3.759731       0.00566
  20     96.49        3.1405        0.0004        6.8894        6.8899       3.749376       0.00571
  19     114.6        3.1406        0.0005        6.8765        6.8770       3.736394       0.00606
  18     136.5        3.1408        0.0006        6.8610        6.8615       3.720708       0.00603
  17     162.9        3.1412        0.0007        6.8417        6.8424       3.701148       0.00625
  16     196.4        3.1419        0.0008        6.8147        6.8155       3.673633       0.00693
  15     218.7        3.1424        0.0009        6.7948        6.7958       3.653313       0.00771
  14     243.0        3.1433        0.0010        6.7698        6.7708       3.627481       0.00896
  13     269.0        3.1447        0.0011        6.7349        6.7360       3.591254       0.01175
  12     297.5        3.1468        0.0012        6.6869        6.6881       3.541255       0.01483
  11     328.5        3.1498        0.0013        6.6194        6.6207       3.470878       0.01914
  10     361.9        3.1538        0.0015        6.5295        6.5309       3.377106       0.02373
   9     398.1        3.1591        0.0016        6.4202        6.4218       3.262720       0.02665
   8     437.6        3.1661        0.0017        6.2962        6.2979       3.131749       0.02800
   7     480.5        3.1760        0.0019        6.1555        6.1574       2.981376       0.02953
   6     533.0        3.1921        0.0020        5.9675        5.9696       2.777455       0.03280
   5     589.8        3.2159        0.0022        5.7368        5.7389       2.523080       0.03776
   4     651.6        3.2513        0.0023        5.4662        5.4686       2.217277       0.04182
   3     718.7        3.3018        0.0025        5.1912        5.1937       1.891885       0.04089
   2     792.3        3.3714        0.0026        4.9395        4.9421       1.570762       0.03683
   1     891.5        0.4187        1.7843        0.0275        1.8117       1.393034       0.01512
   0    1013.0        0.4352        1.7050        0.0255        1.7305       1.295303       0.00679



 Wavenumbers:  4650. -  5150. cm-1, ATM      1
 LEVEL PRESSURE   UPWARD FLUX   DIFDOWN FLUX  DIRDOWN FLUX  DOWNWARD FLUX   NET FLUX    HEATING RATE
          mb          W/m2          W/m2          W/m2        W/m2          W/m2       degree/day
  51    .06700        2.1948        0.0000        6.5710        6.5710       4.376178       0.00000
  50    .07753        2.1948        0.0000        6.5708        6.5708       4.375942       0.18887
  49    .09103        2.1948        0.0000        6.5705        6.5705       4.375648       0.18362
  48    0.1069        2.1948        0.0000        6.5701        6.5701       4.375314       0.17806
  47    0.1255        2.1948        0.0000        6.5697        6.5697       4.374933       0.17238
  46    0.1487        2.1948        0.0000        6.5693        6.5693       4.374460       0.17268
  45    0.1794        2.1948        0.0000        6.5686        6.5686       4.373823       0.17473
  44    0.2165        2.1948        0.0000        6.5679        6.5679       4.373085       0.16788
  43    0.2613        2.1948        0.0000        6.5670        6.5670       4.372232       0.16078
  42    0.3336        2.1948        0.0000        6.5657        6.5657       4.370869       0.15894
  41    0.4307        2.1948        0.0000        6.5640        6.5640       4.369147       0.14971
  40    0.5894        2.1948        0.0000        6.5613        6.5613       4.366531       0.13913
  39     1.339        2.1948        0.0000        6.5516        6.5516       4.356753       0.11008
  38     1.782        2.1948        0.0000        6.5473        6.5473       4.352537       0.08027
  37     2.292        2.1948        0.0000        6.5434        6.5435       4.348650       0.06438
  36     2.964        2.1948        0.0000        6.5395        6.5395       4.344695       0.04965
  35     3.853        2.1948        0.0000        6.5355        6.5356       4.340751       0.03743
  34     5.035        2.1948        0.0000        6.5315        6.5315       4.336747       0.02860
  33     6.613        2.1948        0.0000        6.5271        6.5271       4.332351       0.02350
  32     8.786        2.1948        0.0001        6.5216        6.5216       4.326852       0.02136
  31     11.80        2.1948        0.0001        6.5135        6.5136       4.318765       0.02264
  30     15.07        2.1948        0.0001        6.5041        6.5042       4.309386       0.02422
  29     18.79        2.1948        0.0001        6.4925        6.4926       4.297855       0.02614
  28     23.16        2.1948        0.0001        6.4779        6.4780       4.283242       0.02826
  27     28.12        2.1948        0.0002        6.4599        6.4601       4.265238       0.03061
  26     33.73        2.1948        0.0002        6.4384        6.4386       4.243769       0.03228
  25     40.54        2.1949        0.0003        6.4112        6.4115       4.216590       0.03372
  24     48.69        2.1950        0.0003        6.3775        6.3778       4.182878       0.03489
  23     57.69        2.1950        0.0004        6.3404        6.3407       4.145691       0.03486
  22     68.43        2.1952        0.0004        6.2971        6.2975       4.102369       0.03406
  21     81.20        2.1954        0.0005        6.2483        6.2487       4.053373       0.03238
  20     96.49        2.1957        0.0006        6.1948        6.1954       3.999753       0.02959
  19     114.6        2.1961        0.0007        6.1381        6.1388       3.942776       0.02660
  18     136.5        2.1966        0.0008        6.0790        6.0798       3.883198       0.02291
  17     162.9        2.1974        0.0010        6.0160        6.0170       3.819585       0.02033
  16     196.4        2.1987        0.0011        5.9399        5.9410       3.742331       0.01945
  15     218.7        2.1997        0.0013        5.8896        5.8909       3.691197       0.01941
  14     243.0        2.2011        0.0014        5.8322        5.8336       3.632530       0.02035
  13     269.0        2.2030        0.0015        5.7624        5.7639       3.560951       0.02322
  12     297.5        2.2057        0.0017        5.6767        5.6784       3.472670       0.02618
  11     328.5        2.2095        0.0018        5.5726        5.5744       3.364916       0.02930
  10     361.9        2.2146        0.0020        5.4473        5.4493       3.234702       0.03295
   9     398.1        2.2215        0.0021        5.2995        5.3016       3.080161       0.03600
   8     437.6        2.2307        0.0023        5.1275        5.1298       2.899092       0.03871
   7     480.5        2.2433        0.0025        4.9290        4.9314       2.688163       0.04143
   6     533.0        2.2632        0.0026        4.6794        4.6820       2.418801       0.04333
   5     589.8        2.2912        0.0028        4.4188        4.4216       2.130408       0.04281
   4     651.6        2.3309        0.0029        4.1521        4.1550       1.824104       0.04189
   3     718.7        2.3853        0.0031        3.8929        3.8960       1.510756       0.03938
   2     792.3        2.4582        0.0033        3.6469        3.6501       1.191892       0.03657
   1     891.5        0.2937        1.2878        0.0198        1.3077       1.013933       0.01514
   0    1013.0        0.3094        1.2123        0.0180        1.2303       0.920859       0.00646



 Wavenumbers:  5150. -  6150. cm-1, ATM      1
 LEVEL PRESSURE   UPWARD FLUX   DIFDOWN FLUX  DIRDOWN FLUX  DOWNWARD FLUX   NET FLUX    HEATING RATE
          mb          W/m2          W/m2          W/m2        W/m2          W/m2       degree/day
  51    .06700        5.4504        0.0000       16.4735       16.4735      11.023147       0.00000
  50    .07753        5.4504        0.0000       16.4735       16.4735      11.023112       0.02763
  49    .09103        5.4504        0.0000       16.4734       16.4734      11.023067       0.02813
  48    0.1069        5.4504        0.0000       16.4734       16.4734      11.023014       0.02861
  47    0.1255        5.4504        0.0000       16.4733       16.4733      11.022949       0.02906
  46    0.1487        5.4504        0.0000       16.4732       16.4732      11.022865       0.03062
  45    0.1794        5.4504        0.0000       16.4731       16.4731      11.022746       0.03271
  44    0.2165        5.4504        0.0000       16.4730       16.4730      11.022600       0.03333
  43    0.2613        5.4504        0.0000       16.4728       16.4728      11.022421       0.03378
  42    0.3336        5.4504        0.0000       16.4725       16.4725      11.022115       0.03566
  41    0.4307        5.4504        0.0000       16.4720       16.4720      11.021695       0.03648
  40    0.5894        5.4504        0.0000       16.4713       16.4713      11.020994       0.03731
  39     1.339        5.4503        0.0000       16.4679       16.4679      11.017582       0.03840
  38     1.782        5.4503        0.0000       16.4659       16.4659      11.015581       0.03810
  37     2.292        5.4503        0.0001       16.4635       16.4636      11.013287       0.03800
  36     2.964        5.4503        0.0001       16.4605       16.4606      11.010313       0.03733
  35     3.853        5.4503        0.0001       16.4567       16.4568      11.006454       0.03662
  34     5.035        5.4503        0.0001       16.4516       16.4517      11.001448       0.03576
  33     6.613        5.4503        0.0002       16.4451       16.4453      10.994975       0.03461
  32     8.786        5.4503        0.0002       16.4367       16.4369      10.986643       0.03236
  31     11.80        5.4502        0.0003       16.4254       16.4257      10.975462       0.03130
  30     15.07        5.4502        0.0004       16.4141       16.4146      10.964339       0.02872
  29     18.79        5.4502        0.0005       16.4024       16.4030      10.952775       0.02622
  28     23.16        5.4502        0.0007       16.3900       16.3906      10.940460       0.02381
  27     28.12        5.4502        0.0008       16.3771       16.3779      10.927730       0.02164
  26     33.73        5.4501        0.0010       16.3641       16.3651      10.914921       0.01926
  25     40.54        5.4502        0.0011       16.3502       16.3513      10.901169       0.01706
  24     48.69        5.4502        0.0014       16.3354       16.3367      10.886546       0.01513
  23     57.69        5.4502        0.0016       16.3211       16.3227      10.872466       0.01320
  22     68.43        5.4503        0.0019       16.3062       16.3082      10.857850       0.01149
  21     81.20        5.4504        0.0023       16.2903       16.2926      10.842172       0.01036
  20     96.49        5.4506        0.0027       16.2726       16.2753      10.824748       0.00962
  19     114.6        5.4508        0.0032       16.2521       16.2553      10.804503       0.00945
  18     136.5        5.4511        0.0038       16.2245       16.2284      10.777314       0.01046
  17     162.9        5.4514        0.0045       16.1747       16.1793      10.727871       0.01580
  16     196.4        5.4519        0.0055       16.0518       16.0573      10.605356       0.03084
  15     218.7        5.4523        0.0060       15.8984       15.9044      10.452072       0.05820
  14     243.0        5.4529        0.0066       15.6153       15.6219      10.169010       0.09818
  13     269.0        5.4537        0.0072       15.1390       15.1462       9.692519       0.15457
  12     297.5        5.4548        0.0077       14.5779       14.5856       9.130776       0.16661
  11     328.5        5.4567        0.0083       13.8780       13.8863       8.429612       0.19064
  10     361.9        5.4594        0.0087       13.0814       13.0902       7.630772       0.20211
   9     398.1        5.4634        0.0091       12.2728       12.2820       6.818595       0.18922
   8     437.6        5.4694        0.0095       11.4776       11.4871       6.017744       0.17123
   7     480.5        5.4786        0.0099       10.7300       10.7399       5.261273       0.14857
   6     533.0        5.4952        0.0104       10.0326       10.0430       4.547808       0.11477
   5     589.8        5.5216        0.0109        9.5050        9.5159       3.994360       0.08215
   4     651.6        5.5642        0.0116        9.0814        9.0930       3.528728       0.06368
   3     718.7        5.6297        0.0123        8.7024        8.7148       3.085071       0.05576
   2     792.3        5.7265        0.0132        8.3379        8.3511       2.624680       0.05280
   1     891.5        0.7312        3.0493        0.0467        3.0961       2.364864       0.02211
   0    1013.0        0.7506        2.9404        0.0442        2.9846       2.233987       0.00909



 Wavenumbers:  6150. -  7700. cm-1, ATM      1
 LEVEL PRESSURE   UPWARD FLUX   DIFDOWN FLUX  DIRDOWN FLUX  DOWNWARD FLUX   NET FLUX    HEATING RATE
          mb          W/m2          W/m2          W/m2        W/m2          W/m2       degree/day
  51    .06700        8.4704        0.0000       30.4684       30.4684      21.997995       0.00000
  50    .07753        8.4704        0.0000       30.4683       30.4683      21.997944       0.04144
  49    .09103        8.4704        0.0000       30.4683       30.4683      21.997877       0.04174
  48    0.1069        8.4704        0.0000       30.4682       30.4682      21.997798       0.04202
  47    0.1255        8.4704        0.0000       30.4681       30.4681      21.997705       0.04227
  46    0.1487        8.4704        0.0000       30.4680       30.4680      21.997584       0.04411
  45    0.1794        8.4704        0.0000       30.4678       30.4678      21.997414       0.04669
  44    0.2165        8.4704        0.0000       30.4676       30.4676      21.997206       0.04715
  43    0.2613        8.4704        0.0000       30.4673       30.4673      21.996955       0.04744
  42    0.3336        8.4704        0.0000       30.4669       30.4669      21.996528       0.04974
  41    0.4307        8.4704        0.0000       30.4663       30.4663      21.995947       0.05052
  40    0.5894        8.4703        0.0001       30.4653       30.4653      21.994979       0.05146
  39     1.339        8.4703        0.0002       30.4604       30.4606      21.990296       0.05273
  38     1.782        8.4702        0.0002       30.4576       30.4578      21.987546       0.05235
  37     2.292        8.4702        0.0003       30.4543       30.4546      21.984387       0.05231
  36     2.964        8.4701        0.0003       30.4501       30.4504      21.980280       0.05156
  35     3.853        8.4700        0.0004       30.4445       30.4450      21.974923       0.05084
  34     5.035        8.4699        0.0006       30.4373       30.4379      21.967923       0.05000
  33     6.613        8.4698        0.0008       30.4278       30.4286      21.958775       0.04890
  32     8.786        8.4696        0.0010       30.4154       30.4164      21.946823       0.04642
  31     11.80        8.4693        0.0014       30.3984       30.3998      21.930437       0.04587
  30     15.07        8.4690        0.0018       30.3810       30.3827      21.913723       0.04315
  29     18.79        8.4687        0.0022       30.3623       30.3645      21.895822       0.04059
  28     23.16        8.4683        0.0027       30.3417       30.3444      21.876138       0.03806
  27     28.12        8.4678        0.0033       30.3196       30.3229      21.855037       0.03587
  26     33.73        8.4673        0.0039       30.2965       30.3004      21.833117       0.03296
  25     40.54        8.4667        0.0047       30.2708       30.2755      21.808777       0.03020
  24     48.69        8.4660        0.0057       30.2423       30.2480      21.781998       0.02771
  23     57.69        8.4652        0.0067       30.2139       30.2206      21.755428       0.02491
  22     68.43        8.4642        0.0080       30.1834       30.1913      21.727149       0.02223
  21     81.20        8.4631        0.0095       30.1500       30.1595      21.696413       0.02031
  20     96.49        8.4617        0.0112       30.1126       30.1239      21.662186       0.01889
  19     114.6        8.4601        0.0133       30.0695       30.0828      21.622786       0.01840
  18     136.5        8.4581        0.0158       30.0139       30.0298      21.571609       0.01968
  17     162.9        8.4559        0.0188       29.9225       29.9413      21.485383       0.02756
  16     196.4        8.4530        0.0226       29.7333       29.7559      21.302886       0.04594
  15     218.7        8.4513        0.0250       29.5259       29.5509      21.099638       0.07717
  14     243.0        8.4495        0.0276       29.1375       29.1651      20.715585       0.13320
  13     269.0        8.4480        0.0301       28.3800       28.4101      19.962075       0.24444
  12     297.5        8.4471        0.0324       27.3895       27.4219      18.974816       0.29281
  11     328.5        8.4474        0.0346       26.2257       26.2603      17.812907       0.31592
  10     361.9        8.4497        0.0367       24.8453       24.8821      16.432330       0.34930
   9     398.1        8.4550        0.0386       23.3471       23.3856      14.930594       0.34987
   8     437.6        8.4653        0.0402       21.7966       21.8368      13.371539       0.33334
   7     480.5        8.4842        0.0415       20.1977       20.2393      11.755050       0.31747
   6     533.0        8.5216        0.0429       18.4969       18.5399      10.018234       0.27940
   5     589.8        8.5846        0.0444       16.9754       17.0197       8.435149       0.23498
   4     651.6        8.6891        0.0458       15.6022       15.6480       6.958846       0.20189
   3     718.7        8.8509        0.0474       14.4232       14.4706       5.619722       0.16829
   2     792.3        9.0911        0.0493       13.4386       13.4879       4.396826       0.14025
   1     891.5        1.1009        4.7793        0.0732        4.8525       3.751557       0.05491
   0    1013.0        1.1509        4.5097        0.0668        4.5765       3.425515       0.02264



 Wavenumbers:  7700. -  8050. cm-1, ATM      1
 LEVEL PRESSURE   UPWARD FLUX   DIFDOWN FLUX  DIRDOWN FLUX  DOWNWARD FLUX   NET FLUX    HEATING RATE
          mb          W/m2          W/m2          W/m2        W/m2          W/m2       degree/day
  51    .06700        4.0580        0.0000        7.2006        7.2006       3.142599       0.00000
  50    .07753        4.0580        0.0000        7.2006        7.2006       3.142579       0.01637
  49    .09103        4.0580        0.0000        7.2005        7.2005       3.142553       0.01604
  48    0.1069        4.0580        0.0000        7.2005        7.2005       3.142524       0.01570
  47    0.1255        4.0580        0.0000        7.2005        7.2005       3.142490       0.01537
  46    0.1487        4.0580        0.0000        7.2004        7.2005       3.142447       0.01559
  45    0.1794        4.0580        0.0000        7.2004        7.2004       3.142388       0.01604
  44    0.2165        4.0580        0.0000        7.2003        7.2003       3.142319       0.01574
  43    0.2613        4.0580        0.0000        7.2003        7.2003       3.142237       0.01544
  42    0.3336        4.0580        0.0000        7.2001        7.2001       3.142102       0.01580
  41    0.4307        4.0581        0.0000        7.2000        7.2000       3.141922       0.01563
  40    0.5894        4.0581        0.0000        7.1997        7.1997       3.141629       0.01561
  39     1.339        4.0583        0.0001        7.1984        7.1985       3.140240       0.01563
  38     1.782        4.0584        0.0001        7.1977        7.1978       3.139425       0.01552
  37     2.292        4.0585        0.0001        7.1968        7.1969       3.138481       0.01563
  36     2.964        4.0586        0.0001        7.1957        7.1958       3.137243       0.01555
  35     3.853        4.0588        0.0002        7.1942        7.1944       3.135607       0.01552
  34     5.035        4.0590        0.0003        7.1922        7.1925       3.133436       0.01551
  33     6.613        4.0594        0.0003        7.1896        7.1899       3.130538       0.01549
  32     8.786        4.0598        0.0004        7.1860        7.1865       3.126638       0.01515
  31     11.80        4.0605        0.0006        7.1810        7.1816       3.121069       0.01559
  30     15.07        4.0612        0.0008        7.1755        7.1763       3.115105       0.01540
  29     18.79        4.0620        0.0009        7.1694        7.1704       3.108386       0.01523
  28     23.16        4.0629        0.0012        7.1623        7.1635       3.100563       0.01513
  27     28.12        4.0640        0.0014        7.1542        7.1557       3.091652       0.01515
  26     33.73        4.0652        0.0017        7.1452        7.1469       3.081724       0.01493
  25     40.54        4.0667        0.0020        7.1344        7.1365       3.069793       0.01480
  24     48.69        4.0685        0.0024        7.1215        7.1240       3.055500       0.01479
  23     57.69        4.0704        0.0029        7.1074        7.1103       3.039916       0.01461
  22     68.43        4.0728        0.0034        7.0909        7.0943       3.021511       0.01447
  21     81.20        4.0756        0.0041        7.0713        7.0754       2.999803       0.01434
  20     96.49        4.0790        0.0048        7.0484        7.0532       2.974240       0.01411
  19     114.6        4.0831        0.0057        7.0217        7.0274       2.944301       0.01398
  18     136.5        4.0880        0.0068        6.9906        6.9973       2.909372       0.01343
  17     162.9        4.0939        0.0080        6.9544        6.9624       2.868514       0.01306
  16     196.4        4.1017        0.0096        6.9087        6.9184       2.816656       0.01305
  15     218.7        4.1069        0.0107        6.8794        6.8901       2.783176       0.01271
  14     243.0        4.1127        0.0118        6.8481        6.8600       2.747243       0.01246
  13     269.0        4.1191        0.0131        6.8147        6.8278       2.708698       0.01250
  12     297.5        4.1262        0.0144        6.7791        6.7935       2.667309       0.01228
  11     328.5        4.1341        0.0159        6.7409        6.7568       2.622712       0.01213
  10     361.9        4.1430        0.0174        6.7002        6.7176       2.574596       0.01217
   9     398.1        4.1530        0.0191        6.6563        6.6754       2.522357       0.01217
   8     437.6        4.1644        0.0209        6.6089        6.6297       2.465352       0.01219
   7     480.5        4.1775        0.0228        6.5570        6.5798       2.402271       0.01239
   6     533.0        4.1951        0.0251        6.4915        6.5166       2.321490       0.01300
   5     589.8        4.2161        0.0276        6.4182        6.4458       2.229757       0.01362
   4     651.6        4.2413        0.0302        6.3359        6.3661       2.124798       0.01435
   3     718.7        4.2715        0.0330        6.2441        6.2772       2.005706       0.01497
   2     792.3        4.3069        0.0360        6.1437        6.1797       1.872803       0.01524
   1     891.5        0.5756        2.3303        0.0355        2.3658       1.790270       0.00702
   0    1013.0        0.5847        2.2905        0.0345        2.3249       1.740209       0.00348



 Wavenumbers:  8050. - 12850. cm-1, ATM      1
 LEVEL PRESSURE   UPWARD FLUX   DIFDOWN FLUX  DIRDOWN FLUX  DOWNWARD FLUX   NET FLUX    HEATING RATE
          mb          W/m2          W/m2          W/m2        W/m2          W/m2       degree/day
  51    .06700       52.6116        0.0000      100.8135      100.8135      48.201948       0.00000
  50    .07753       52.6116        0.0000      100.8135      100.8135      48.201948       0.00000
  49    .09103       52.6115        0.0001      100.8134      100.8135      48.201948      -0.00000
  48    0.1069       52.6115        0.0001      100.8134      100.8135      48.201948      -0.00000
  47    0.1255       52.6115        0.0001      100.8133      100.8134      48.201948       0.00000
  46    0.1487       52.6114        0.0002      100.8132      100.8134      48.201948      -0.00000
  45    0.1794       52.6114        0.0003      100.8131      100.8133      48.201948       0.00000
  44    0.2165       52.6113        0.0004      100.8129      100.8133      48.201948      -0.00000
  43    0.2613       52.6113        0.0005      100.8127      100.8132      48.201948       0.00000
  42    0.3336       52.6112        0.0007      100.8125      100.8131      48.201948      -0.00000
  41    0.4307       52.6110        0.0009      100.8121      100.8130      48.201948       0.00000
  40    0.5894       52.6108        0.0013      100.8115      100.8127      48.201948      -0.00000
  39     1.339       52.6097        0.0031      100.8085      100.8116      48.201948       0.00000
  38     1.782       52.6090        0.0042      100.8068      100.8110      48.201948      -0.00000
  37     2.292       52.6083        0.0055      100.8047      100.8102      48.201948       0.00000
  36     2.964       52.6073        0.0071      100.8021      100.8092      48.201948       0.00000
  35     3.853       52.6059        0.0093      100.7986      100.8079      48.201948      -0.00000
  34     5.035       52.6042        0.0122      100.7940      100.8061      48.201948       0.00000
  33     6.613       52.6018        0.0160      100.7878      100.8038      48.201948       0.00000
  32     8.786       52.5987        0.0212      100.7794      100.8006      48.201948       0.00000
  31     11.80       52.5941        0.0287      100.7674      100.7961      48.201948      -0.00000
  30     15.07       52.5893        0.0367      100.7546      100.7912      48.201948       0.00000
  29     18.79       52.5838        0.0457      100.7400      100.7857      48.201948      -0.00000
  28     23.16       52.5773        0.0563      100.7230      100.7793      48.201948       0.00000
  27     28.12       52.5700        0.0684      100.7035      100.7719      48.201948       0.00000
  26     33.73       52.5617        0.0820      100.6817      100.7637      48.201948      -0.00000
  25     40.54       52.5517        0.0984      100.6552      100.7537      48.201948       0.00000
  24     48.69       52.5397        0.1183      100.6234      100.7416      48.201948      -0.00000
  23     57.69       52.5264        0.1401      100.5883      100.7284      48.201948       0.00000
  22     68.43       52.5106        0.1661      100.5464      100.7126      48.201948       0.00000
  21     81.20       52.4917        0.1971      100.4965      100.6937      48.201948       0.00000
  20     96.49       52.4692        0.2342      100.4370      100.6711      48.201948      -0.00000
  19     114.6       52.4425        0.2782      100.3585      100.6367      48.194175       0.00363
  18     136.5       52.4109        0.3305      100.2634      100.5939      48.182995       0.00430
  17     162.9       52.3732        0.3929      100.1407      100.5336      48.160343       0.00724
  16     196.4       52.3245        0.4739       99.9505      100.4244      48.099976       0.01520
  15     218.7       52.2925        0.5272       99.7889      100.3161      48.023641       0.02898
  14     243.0       52.2581        0.5850       99.5472      100.1322      47.874065       0.05188
  13     269.0       52.2223        0.6473       99.1452       99.7926      47.570214       0.09857
  12     297.5       52.1864        0.7142       98.5975       99.3117      47.125348       0.13194
  11     328.5       52.1522        0.7859       97.8659       98.6518      46.499624       0.17013
  10     361.9       52.1229        0.8622       96.8848       97.7470      45.624041       0.22153
   9     398.1       52.1028        0.9428       95.6330       96.5758      44.473006       0.26817
   8     437.6       52.0994        1.0273       94.0655       95.0928      42.993387       0.31635
   7     480.5       52.1280        1.1148       92.0807       93.1956      41.067548       0.37823
   6     533.0       52.2185        1.2184       89.4449       90.6633      38.444790       0.42192
   5     589.8       52.4003        1.3256       86.5544       87.8800      35.479718       0.44011
   4     651.6       52.7264        1.4359       83.4174       84.8533      32.126888       0.45851
   3     718.7       53.2410        1.5501       80.2037       81.7538      28.512797       0.45419
   2     792.3       53.9974        1.6688       77.0811       78.7499      24.752502       0.43126
   1     891.5        6.9951       29.1303        0.4330       29.5633      22.568226       0.18587
   0    1013.0        7.1736       28.1185        0.4074       28.5259      21.352349       0.08442



 Wavenumbers: 12850. - 16000. cm-1, ATM      1
 LEVEL PRESSURE   UPWARD FLUX   DIFDOWN FLUX  DIRDOWN FLUX  DOWNWARD FLUX   NET FLUX    HEATING RATE
          mb          W/m2          W/m2          W/m2        W/m2          W/m2       degree/day
  51    .06700       42.0414        0.0000       63.1686       63.1686      21.127190       0.00000
  50    .07753       42.0414        0.0001       63.1677       63.1678      21.126409       0.62628
  49    .09103       42.0413        0.0001       63.1666       63.1668      21.125435       0.60888
  48    0.1069       42.0413        0.0002       63.1654       63.1656      21.124325       0.59071
  47    0.1255       42.0413        0.0003       63.1640       63.1643      21.123062       0.57251
  46    0.1487       42.0412        0.0004       63.1623       63.1627      21.121486       0.57447
  45    0.1794       42.0412        0.0006       63.1600       63.1606      21.119371       0.58059
  44    0.2165       42.0412        0.0008       63.1573       63.1581      21.116924       0.55683
  43    0.2613       42.0412        0.0010       63.1542       63.1553      21.114097       0.53275
  42    0.3336       42.0411        0.0014       63.1493       63.1507      21.109588       0.52571
  41    0.4307       42.0412        0.0020       63.1431       63.1451      21.103940       0.49113
  40    0.5894       42.0413        0.0028       63.1338       63.1366      21.095362       0.45614
  39     1.339       42.0434        0.0068       63.0956       63.1024      21.059010       0.40926
  38     1.782       42.0458        0.0092       63.0740       63.0832      21.037420       0.41104
  37     2.292       42.0497        0.0119       63.0477       63.0596      21.009927       0.45535
  36     2.964       42.0564        0.0155       63.0095       63.0250      20.968649       0.51816
  35     3.853       42.0676        0.0203       62.9533       62.9735      20.905899       0.59551
  34     5.035       42.0848        0.0265       62.8725       62.8990      20.814238       0.65479
  33     6.613       42.1089        0.0349       62.7621       62.7970      20.688044       0.67463
  32     8.786       42.1402        0.0462       62.6182       62.6644      20.524206       0.63629
  31     11.80       42.1805        0.0623       62.4284       62.4907      20.310169       0.59924
  30     15.07       42.2184        0.0795       62.2426       62.3221      20.103727       0.53299
  29     18.79       42.2565        0.0990       62.0493       62.1483      19.891746       0.48063
  28     23.16       42.2956        0.1216       61.8424       61.9641      19.668509       0.43167
  27     28.12       42.3338        0.1475       61.6278       61.7753      19.441466       0.38596
  26     33.73       42.3675        0.1764       61.4177       61.5940      19.226519       0.32318
  25     40.54       42.3976        0.2112       61.1983       61.4095      19.011864       0.26630
  24     48.69       42.4237        0.2531       60.9680       61.2211      18.797443       0.22189
  23     57.69       42.4424        0.2992       60.7478       61.0470      18.604604       0.18076
  22     68.43       42.4538        0.3539       60.5202       60.8741      18.420269       0.14491
  21     81.20       42.4528        0.4191       60.2938       60.7130      18.260184       0.10578
  20     96.49       42.4379        0.4968       60.0643       60.5611      18.123200       0.07561
  19     114.6       42.4200        0.5896       59.8078       60.3974      17.977383       0.06809
  18     136.5       42.3929        0.6994       59.5157       60.2152      17.822276       0.05964
  17     162.9       42.3551        0.8299       59.1770       60.0069      17.651807       0.05449
  16     196.4       42.2946        0.9987       58.7604       59.7591      17.464516       0.04714
  15     218.7       42.2507        1.1092       58.4948       59.6040      17.353316       0.04222
  14     243.0       42.2014        1.2292       58.2089       59.4381      17.236755       0.04043
  13     269.0       42.1465        1.3590       57.9006       59.2595      17.113063       0.04012
  12     297.5       42.0863        1.4989       57.5668       59.0657      16.979327       0.03966
  11     328.5       42.0223        1.6497       57.2005       58.8502      16.827906       0.04117
  10     361.9       41.9553        1.8116       56.7963       58.6079      16.652613       0.04435
   9     398.1       41.8867        1.9853       56.3475       58.3328      16.446069       0.04812
   8     437.6       41.8191        2.1709       55.8422       58.0131      16.194031       0.05389
   7     480.5       41.7575        2.3687       55.2625       57.6313      15.873760       0.06290
   6     533.0       41.6999        2.6101       54.4972       57.1073      15.407434       0.07502
   5     589.8       41.6609        2.8670       53.6307       56.4977      14.836828       0.08470
   4     651.6       41.6514        3.1386       52.6606       55.7992      14.147759       0.09423
   3     718.7       41.6784        3.4252       51.6100       55.0353      13.356903       0.09939
   2     792.3       41.7509        3.7268       50.5019       54.2286      12.477765       0.10083
   1     891.5       14.2562       25.8334        0.2900       26.1233      11.867134       0.05196
   0    1013.0       14.3742       25.4819        0.2794       25.7613      11.387117       0.03333



 Wavenumbers: 16000. - 22650. cm-1, ATM      1
 LEVEL PRESSURE   UPWARD FLUX   DIFDOWN FLUX  DIRDOWN FLUX  DOWNWARD FLUX   NET FLUX    HEATING RATE
          mb          W/m2          W/m2          W/m2        W/m2          W/m2       degree/day
  51    .06700       78.5600        0.0000      100.7153      100.7153      22.155311       0.00000
  50    .07753       78.5599        0.0003      100.7147      100.7151      22.155192       0.09509
  49    .09103       78.5597        0.0007      100.7140      100.7147      22.155020       0.10785
  48    0.1069       78.5596        0.0012      100.7131      100.7144      22.154789       0.12299
  47    0.1255       78.5594        0.0018      100.7121      100.7139      22.154480       0.14019
  46    0.1487       78.5592        0.0025      100.7108      100.7132      22.154024       0.16612
  45    0.1794       78.5590        0.0034      100.7089      100.7123      22.153311       0.19560
  44    0.2165       78.5587        0.0045      100.7066      100.7111      22.152345       0.21983
  43    0.2613       78.5585        0.0058      100.7037      100.7095      22.151034       0.24713
  42    0.3336       78.5582        0.0080      100.6987      100.7067      22.148541       0.29062
  41    0.4307       78.5579        0.0109      100.6918      100.7027      22.144784       0.32668
  40    0.5894       78.5578        0.0157      100.6797      100.6954      22.137619       0.38104
  39     1.339       78.5629        0.0381      100.6095      100.6476      22.084690       0.59588
  38     1.782       78.5700        0.0512      100.5585      100.6097      22.039615       0.85816
  37     2.292       78.5823        0.0664      100.4903      100.5567      21.974388       1.08032
  36     2.964       78.6044        0.0864      100.3868      100.4732      21.868769       1.32585
  35     3.853       78.6420        0.1127      100.2306      100.3433      21.701294       1.58936
  34     5.035       78.7004        0.1477      100.0045      100.1521      21.451700       1.78300
  33     6.613       78.7828        0.1943       99.6939       99.8881      21.105355       1.85156
  32     8.786       78.8893        0.2569       99.2881       99.5449      20.655584       1.74675
  31     11.80       79.0255        0.3462       98.7496       99.0958      20.070290       1.63864
  30     15.07       79.1526        0.4417       98.2198       98.6615      19.508914       1.44936
  29     18.79       79.2791        0.5493       97.6651       98.2144      18.935262       1.30065
  28     23.16       79.4072        0.6744       97.0671       97.7416      18.334383       1.16191
  27     28.12       79.5306        0.8170       96.4406       97.2576      17.726989       1.03253
  26     33.73       79.6356        0.9761       95.8179       96.7940      17.158340       0.85498
  25     40.54       79.7242        1.1676       95.1548       96.3224      16.598165       0.69496
  24     48.69       79.7941        1.3976       94.4420       95.8395      16.045486       0.57194
  23     57.69       79.8350        1.6492       93.7416       95.3908      15.555780       0.45903
  22     68.43       79.8454        1.9477       92.9954       94.9430      15.097627       0.36017
  21     81.20       79.8051        2.3019       92.2231       94.5250      14.719907       0.24959
  20     96.49       79.7086        2.7221       91.4110       94.1330      14.424472       0.16306
  19     114.6       79.5699        3.2175       90.5070       93.7246      14.154632       0.12600
  18     136.5       79.3901        3.8000       89.4803       93.2802      13.890149       0.10170
  17     162.9       79.1626        4.4867       88.3022       92.7889      13.626294       0.08434
  16     196.4       78.8376        5.3670       86.8606       92.2277      13.390066       0.05946
  15     218.7       78.6140        5.9390       85.9492       91.8882      13.274162       0.04400
  14     243.0       78.3672        6.5551       84.9789       91.5340      13.166842       0.03722
  13     269.0       78.0960        7.2163       83.9493       91.1656      13.069604       0.03154
  12     297.5       77.7999        7.9235       82.8589       90.7825      12.982562       0.02582
  11     328.5       77.4804        8.6792       81.6982       90.3774      12.897040       0.02325
  10     361.9       77.1375        9.4830       80.4669       89.9499      12.812484       0.02139
   9     398.1       76.7705       10.3370       79.1611       89.4981      12.727641       0.01977
   8     437.6       76.3800       11.2414       77.7777       89.0191      12.639111       0.01893
   7     480.5       75.9666       12.1965       76.3136       88.5102      12.543625       0.01875
   6     533.0       75.4658       13.3523       74.5359       87.8882      12.422346       0.01951
   5     589.8       74.9377       14.5738       72.6469       87.2207      12.283039       0.02068
   4     651.6       74.3848       15.8590       70.6456       86.5045      12.119764       0.02233
   3     718.7       73.8078       17.2057       68.5367       85.7424      11.934595       0.02327
   2     792.3       73.2097       18.6087       66.3287       84.9374      11.727715       0.02373
   1     891.5       41.5779       52.7570        0.3750       53.1320      11.554008       0.01478
   0    1013.0       41.5130       52.5386        0.3550       52.8936      11.380617       0.01204



 Wavenumbers: 22650. - 29000. cm-1, ATM      1
 LEVEL PRESSURE   UPWARD FLUX   DIFDOWN FLUX  DIRDOWN FLUX  DOWNWARD FLUX   NET FLUX    HEATING RATE
          mb          W/m2          W/m2          W/m2        W/m2          W/m2       degree/day
  51    .06700       33.4917        0.0000       38.0063       38.0063       4.514566       0.00000
  50    .07753       33.4916        0.0004       38.0057       38.0061       4.514566       0.00000
  49    .09103       33.4913        0.0009       38.0050       38.0059       4.514566       0.00000
  48    0.1069       33.4911        0.0014       38.0042       38.0057       4.514566       0.00000
  47    0.1255       33.4908        0.0021       38.0033       38.0054       4.514566      -0.00000
  46    0.1487       33.4905        0.0029       38.0022       38.0050       4.514566       0.00000
  45    0.1794       33.4900        0.0039       38.0006       38.0045       4.514566      -0.00000
  44    0.2165       33.4894        0.0052       37.9987       38.0040       4.514566       0.00000
  43    0.2613       33.4887        0.0068       37.9965       38.0033       4.514566       0.00000
  42    0.3336       33.4876        0.0093       37.9928       38.0022       4.514566       0.00000
  41    0.4307       33.4861        0.0127       37.9880       38.0007       4.514566       0.00000
  40    0.5894       33.4837        0.0182       37.9800       37.9982       4.514566      -0.00000
  39     1.339       33.4722        0.0442       37.9425       37.9867       4.514566       0.00000
  38     1.782       33.4654        0.0595       37.9204       37.9800       4.514566      -0.00000
  37     2.292       33.4576        0.0772       37.8949       37.9721       4.514566       0.00000
  36     2.964       33.4473        0.1004       37.8614       37.9619       4.514566       0.00000
  35     3.853       33.4337        0.1311       37.8172       37.9483       4.514566       0.00000
  34     5.035       33.4157        0.1717       37.7586       37.9303       4.514566       0.00000
  33     6.613       33.3917        0.2260       37.6803       37.9063       4.514566      -0.00000
  32     8.786       33.3594        0.2989       37.5750       37.8740       4.514566       0.00000
  31     11.80       33.3133        0.4030       37.4249       37.8279       4.514566       0.00000
  30     15.07       33.2639        0.5143       37.2642       37.7785       4.514566       0.00000
  29     18.79       33.2084        0.6396       37.0833       37.7229       4.514566      -0.00000
  28     23.16       33.1437        0.7853       36.8730       37.6583       4.514566       0.00000
  27     28.12       33.0701        0.9509       36.6338       37.5847       4.514566       0.00000
  26     33.73       32.9882        1.1351       36.3677       37.5028       4.514566      -0.00000
  25     40.54       32.8899        1.3559       36.0486       37.4045       4.514566       0.00000
  24     48.69       32.7723        1.6196       35.6672       37.2869       4.514566       0.00000
  23     57.69       32.6443        1.9062       35.2527       37.1589       4.514566      -0.00000
  22     68.43       32.4936        2.2432       34.7649       37.0081       4.514566       0.00000
  21     81.20       32.3163        2.6386       34.1922       36.8309       4.514566       0.00000
  20     96.49       32.1084        3.1012       33.5217       36.6229       4.514566       0.00000
  19     114.6       31.8661        3.6383       32.7424       36.3807       4.514566      -0.00000
  18     136.5       31.5853        4.2583       31.8416       36.0999       4.514566       0.00000
  17     162.9       31.2598        4.9736       30.8008       35.7744       4.514566       0.00000
  16     196.4       30.8515        5.8654       29.5007       35.3660       4.514566       0.00000
  15     218.7       30.5916        6.4294       28.6767       35.1061       4.514566       0.00000
  14     243.0       30.3162        7.0240       27.8068       34.8308       4.514566      -0.00000
  13     269.0       30.0259        7.6471       26.8933       34.5405       4.514566       0.00000
  12     297.5       29.7213        8.2966       25.9393       34.2359       4.514566      -0.00000
  11     328.5       29.4023        8.9718       24.9451       33.9169       4.514566       0.00000
  10     361.9       29.0703        9.6688       23.9160       33.5848       4.514566       0.00000
   9     398.1       28.7255       10.3859       22.8541       33.2401       4.514566       0.00000
   8     437.6       28.3692       11.1193       21.7645       32.8837       4.514566      -0.00000
   7     480.5       28.0025       11.8649       20.6521       32.5171       4.514566      -0.00000
   6     533.0       27.5714       12.7291       19.3569       32.0860       4.514566       0.00000
   5     589.8       27.1302       13.5980       18.0467       31.6448       4.514566       0.00000
   4     651.6       26.6812       14.4642       16.7316       31.1958       4.514566      -0.00000
   3     718.7       26.2269       15.3201       15.4214       30.7415       4.514566       0.00000
   2     792.3       25.7702       16.1571       14.1276       30.2847       4.514566       0.00000
   1     891.5       16.6186       21.0588        0.0742       21.1330       4.514427       0.00001
   0    1013.0       16.4599       20.9100        0.0643       20.9743       4.514427      -0.00000



 Wavenumbers: 29000. - 38000. cm-1, ATM      1
 LEVEL PRESSURE   UPWARD FLUX   DIFDOWN FLUX  DIRDOWN FLUX  DOWNWARD FLUX   NET FLUX    HEATING RATE
          mb          W/m2          W/m2          W/m2        W/m2          W/m2       degree/day
  51    .06700        4.8467        0.0000       13.4026       13.4026       8.555944       0.00000
  50    .07753        4.8464        0.0003       13.3983       13.3986       8.552146       3.04435
  49    .09103        4.8462        0.0007       13.3921       13.3928       8.546627       3.44963
  48    0.1069        4.8459        0.0011       13.3840       13.3851       8.539250       3.92672
  47    0.1255        4.8455        0.0016       13.3733       13.3749       8.529405       4.46312
  46    0.1487        4.8451        0.0022       13.3579       13.3600       8.514963       5.26431
  45    0.1794        4.8445        0.0030       13.3340       13.3371       8.492564       6.14918
  44    0.2165        4.8438        0.0040       13.3024       13.3064       8.462545       6.82867
  43    0.2613        4.8431        0.0051       13.2604       13.2656       8.422491       7.55000
  42    0.3336        4.8418        0.0070       13.1833       13.1903       8.348486       8.62829
  41    0.4307        4.8403        0.0095       13.0729       13.0824       8.242116       9.24865
  40    0.5894        4.8379        0.0134       12.8796       12.8930       8.055076       9.94653
  39     1.339        4.8294        0.0296       11.9165       11.9461       7.116766      10.56367
  38     1.782        4.8260        0.0379       11.4399       11.4778       6.651809       8.85203
  37     2.292        4.8235        0.0468       10.9796       11.0264       6.202909       7.43494
  36     2.964        4.8220        0.0577       10.4786       10.5363       5.714329       6.13316
  35     3.853        4.8225        0.0711        9.9429       10.0140       5.191546       4.96130
  34     5.035        4.8257        0.0879        9.4007        9.4886       4.662920       3.77629
  33     6.613        4.8318        0.1092        8.8752        8.9844       4.152669       2.72780
  32     8.786        4.8401        0.1367        8.3786        8.5153       3.675112       1.85466
  31     11.80        4.8503        0.1744        7.8897        8.0640       3.213682       1.29186
  30     15.07        4.8591        0.2132        7.5108        7.7240       2.864979       0.90028
  29     18.79        4.8671        0.2556        7.1776        7.4332       2.566113       0.67762
  28     23.16        4.8743        0.3033        6.8664        7.1697       2.295369       0.52353
  27     28.12        4.8801        0.3560        6.5780        6.9340       2.053967       0.41037
  26     33.73        4.8819        0.4135        6.3195        6.7329       1.851072       0.30506
  25     40.54        4.8785        0.4812        6.0663        6.5475       1.668989       0.22589
  24     48.69        4.8694        0.5606        5.8128        6.3734       1.504026       0.17071
  23     57.69        4.8546        0.6453        5.5777        6.2230       1.368382       0.12715
  22     68.43        4.8317        0.7433        5.3379        6.0811       1.249399       0.09354
  21     81.20        4.7967        0.8570        5.0965        5.9534       1.156783       0.06120
  20     96.49        4.7481        0.9882        4.8476        5.8359       1.087812       0.03807
  19     114.6        4.6891        1.1370        4.5799        5.7168       1.027772       0.02803
  18     136.5        4.6206        1.3031        4.2891        5.5921       0.971496       0.02164
  17     162.9        4.5425        1.4872        3.9732        5.4603       0.917844       0.01715
  16     196.4        4.4435        1.7075        3.6080        5.3155       0.871980       0.01154
  15     218.7        4.3811        1.8415        3.3898        5.2313       0.850146       0.00829
  14     243.0        4.3162        1.9780        3.1686        5.1466       0.830339       0.00687
  13     269.0        4.2491        2.1159        2.9461        5.0620       0.812870       0.00567
  12     297.5        4.1802        2.2540        2.7239        4.9779       0.797756       0.00448
  11     328.5        4.1102        2.3909        2.5029        4.8937       0.783561       0.00386
  10     361.9        4.0396        2.5253        2.2846        4.8099       0.770305       0.00335
   9     398.1        3.9689        2.6561        2.0708        4.7269       0.757982       0.00287
   8     437.6        3.8984        2.7822        1.8626        4.6448       0.746328       0.00249
   7     480.5        3.8287        2.9020        1.6621        4.5641       0.735472       0.00213
   6     533.0        3.7501        3.0303        1.4437        4.4739       0.723868       0.00187
   5     589.8        3.6735        3.1474        1.2390        4.3863       0.712864       0.00163
   4     651.6        3.5994        3.2517        1.0500        4.3017       0.702308       0.00144
   3     718.7        3.5282        3.3425        0.8778        4.2203       0.692165       0.00127
   2     792.3        3.4600        3.4187        0.7237        4.1424       0.682416       0.00112
   1     891.5        2.4611        3.1304        0.0033        3.1337       0.672545       0.00084
   0    1013.0        2.4175        3.0783        0.0024        3.0807       0.663229       0.00065



 Wavenumbers: 38000. - 50000. cm-1, ATM      1
 LEVEL PRESSURE   UPWARD FLUX   DIFDOWN FLUX  DIRDOWN FLUX  DOWNWARD FLUX   NET FLUX    HEATING RATE
          mb          W/m2          W/m2          W/m2        W/m2          W/m2       degree/day
  51    .06700        0.0051        0.0000        0.8267        0.8267       0.821528       0.00000
  50    .07753        0.0051        0.0001        0.8242        0.8243       0.819196       1.86936
  49    .09103        0.0050        0.0002        0.8207        0.8209       0.815872       2.07705
  48    0.1069        0.0049        0.0002        0.8162        0.8164       0.811514       2.31984
  47    0.1255        0.0048        0.0004        0.8103        0.8106       0.805801       2.59006
  46    0.1487        0.0047        0.0005        0.8018        0.8023       0.797567       3.00143
  45    0.1794        0.0045        0.0007        0.7889        0.7896       0.785013       3.44648
  44    0.2165        0.0044        0.0009        0.7720        0.7729       0.768507       3.75474
  43    0.2613        0.0042        0.0011        0.7500        0.7511       0.746955       4.06246
  42    0.3336        0.0039        0.0015        0.7106        0.7121       0.708267       4.51071
  41    0.4307        0.0035        0.0019        0.6566        0.6584       0.654972       4.63387
  40    0.5894        0.0029        0.0024        0.5680        0.5704       0.567464       4.65357
  39     1.339        0.0015        0.0030        0.2422        0.2452       0.243720       3.64476
  38     1.782        0.0010        0.0026        0.1493        0.1519       0.150889       1.76735
  37     2.292        0.0007        0.0022        0.0924        0.0946       0.093932       0.94336
  36     2.964        0.0005        0.0018        0.0539        0.0557       0.055224       0.48589
  35     3.853        0.0003        0.0013        0.0295        0.0308       0.030502       0.23462
  34     5.035        0.0002        0.0010        0.0154        0.0164       0.016181       0.10230
  33     6.613        0.0001        0.0007        0.0073        0.0080       0.007912       0.04420
  32     8.786        0.0000        0.0004        0.0030        0.0034       0.003390       0.01756
  31     11.80        0.0000        0.0003        0.0010        0.0012       0.001199       0.00613
  30     15.07        0.0000        0.0001        0.0003        0.0005       0.000463       0.00190
  29     18.79        0.0000        0.0001        0.0001        0.0002       0.000182       0.00064
  28     23.16        0.0000        0.0000        0.0000        0.0001       0.000071       0.00022
  27     28.12        0.0000        0.0000        0.0000        0.0000       0.000028       0.00007
  26     33.73        0.0000        0.0000        0.0000        0.0000       0.000011       0.00002
  25     40.54        0.0000        0.0000        0.0000        0.0000       0.000005       0.00001
  24     48.69        0.0000        0.0000        0.0000        0.0000       0.000002       0.00000
  23     57.69        0.0000        0.0000        0.0000        0.0000       0.000001       0.00000
  22     68.43        0.0000        0.0000        0.0000        0.0000       0.000000       0.00000
  21     81.20        0.0000        0.0000        0.0000        0.0000       0.000000       0.00000
  20     96.49        0.0000        0.0000        0.0000        0.0000       0.000000       0.00000
  19     114.6        0.0000        0.0000        0.0000        0.0000       0.000000       0.00000
  18     136.5        0.0000        0.0000        0.0000        0.0000       0.000000       0.00000
  17     162.9        0.0000        0.0000        0.0000        0.0000       0.000000       0.00000
  16     196.4        0.0000        0.0000        0.0000        0.0000       0.000000       0.00000
  15     218.7        0.0000        0.0000        0.0000        0.0000       0.000000       0.00000
  14     243.0        0.0000        0.0000        0.0000        0.0000       0.000000       0.00000
  13     269.0        0.0000        0.0000        0.0000        0.0000       0.000000       0.00000
  12     297.5        0.0000        0.0000        0.0000        0.0000       0.000000       0.00000
  11     328.5        0.0000        0.0000        0.0000        0.0000       0.000000       0.00000
  10     361.9        0.0000        0.0000        0.0000        0.0000       0.000000       0.00000
   9     398.1        0.0000        0.0000        0.0000        0.0000       0.000000       0.00000
   8     437.6        0.0000        0.0000        0.0000        0.0000       0.000000       0.00000
   7     480.5        0.0000        0.0000        0.0000        0.0000       0.000000       0.00000
   6     533.0        0.0000        0.0000        0.0000        0.0000       0.000000       0.00000
   5     589.8        0.0000        0.0000        0.0000        0.0000       0.000000       0.00000
   4     651.6        0.0000        0.0000        0.0000        0.0000       0.000000       0.00000
   3     718.7        0.0000        0.0000        0.0000        0.0000       0.000000       0.00000
   2     792.3        0.0000        0.0000        0.0000        0.0000       0.000000       0.00000
   1     891.5        0.0000        0.0000        0.0000        0.0000       0.000000       0.00000
   0    1013.0        0.0000        0.0000        0.0000        0.0000       0.000000       0.00000



 Wavenumbers:   820. -  2600. cm-1, ATM      1
 LEVEL PRESSURE   UPWARD FLUX   DIFDOWN FLUX  DIRDOWN FLUX  DOWNWARD FLUX   NET FLUX    HEATING RATE
          mb          W/m2          W/m2          W/m2        W/m2          W/m2       degree/day
  51    .06700        0.6503        0.0000        3.8670        3.8670       3.216680       0.00000
  50    .07753        0.6503        0.0000        3.8643        3.8643       3.213963       2.17771
  49    .09103        0.6503        0.0000        3.8635        3.8635       3.213153       0.50639
  48    0.1069        0.6503        0.0000        3.8626        3.8626       3.212262       0.47416
  47    0.1255        0.6503        0.0000        3.8616        3.8616       3.211301       0.43560
  46    0.1487        0.6503        0.0000        3.8605        3.8605       3.210192       0.40438
  45    0.1794        0.6503        0.0000        3.8592        3.8592       3.208857       0.36649
  44    0.2165        0.6503        0.0000        3.8578        3.8578       3.207479       0.31347
  43    0.2613        0.6503        0.0000        3.8564        3.8564       3.206019       0.27523
  42    0.3336        0.6503        0.0000        3.8541        3.8541       3.203788       0.26014
  41    0.4307        0.6503        0.0000        3.8512        3.8512       3.200905       0.25064
  40    0.5894        0.6503        0.0000        3.8465        3.8465       3.196178       0.25135
  39     1.339        0.6503        0.0000        3.8251        3.8251       3.174802       0.24066
  38     1.782        0.6503        0.0000        3.8133        3.8133       3.162988       0.22491
  37     2.292        0.6503        0.0000        3.8003        3.8003       3.149926       0.21634
  36     2.964        0.6503        0.0000        3.7841        3.7841       3.133796       0.20248
  35     3.853        0.6503        0.0000        3.7642        3.7642       3.113879       0.18901
  34     5.035        0.6504        0.0000        3.7395        3.7395       3.089186       0.17640
  33     6.613        0.6504        0.0000        3.7090        3.7090       3.058647       0.16326
  32     8.786        0.6504        0.0000        3.6726        3.6726       3.022249       0.14135
  31     11.80        0.6504        0.0000        3.6320        3.6320       2.981648       0.11367
  30     15.07        0.6504        0.0000        3.6016        3.6016       2.951257       0.07846
  29     18.79        0.6504        0.0000        3.5777        3.5777       2.927351       0.05420
  28     23.16        0.6504        0.0000        3.5564        3.5564       2.905988       0.04131
  27     28.12        0.6504        0.0000        3.5348        3.5348       2.884430       0.03665
  26     33.73        0.6504        0.0000        3.5118        3.5118       2.861384       0.03465
  25     40.54        0.6505        0.0000        3.4849        3.4849       2.834480       0.03338
  24     48.69        0.6505        0.0000        3.4537        3.4537       2.803208       0.03236
  23     57.69        0.6505        0.0000        3.4210        3.4210       2.770512       0.03065
  22     68.43        0.6505        0.0000        3.3844        3.3844       2.733900       0.02878
  21     81.20        0.6506        0.0000        3.3441        3.3441       2.693569       0.02665
  20     96.49        0.6506        0.0000        3.2998        3.2998       2.649164       0.02451
  19     114.6        0.6507        0.0000        3.2506        3.2507       2.599967       0.02297
  18     136.5        0.6508        0.0000        3.1936        3.1936       2.542847       0.02196
  17     162.9        0.6509        0.0000        3.1181        3.1181       2.467224       0.02417
  16     196.4        0.6512        0.0000        3.0090        3.0090       2.357803       0.02754
  15     218.7        0.6514        0.0000        2.9420        2.9420       2.290627       0.02550
  14     243.0        0.6517        0.0000        2.8605        2.8605       2.208811       0.02838
  13     269.0        0.6522        0.0000        2.7419        2.7420       2.089805       0.03861
  12     297.5        0.6530        0.0000        2.5729        2.5729       1.919898       0.05039
  11     328.5        0.6543        0.0000        2.3602        2.3602       1.705907       0.05818
  10     361.9        0.6563        0.0000        2.1524        2.1524       1.496154       0.05307
   9     398.1        0.6591        0.0000        1.9974        1.9974       1.338330       0.03677
   8     437.6        0.6630        0.0000        1.8835        1.8835       1.220492       0.02519
   7     480.5        0.6686        0.0000        1.7734        1.7734       1.104803       0.02272
   6     533.0        0.6778        0.0000        1.6397        1.6398       0.961922       0.02298
   5     589.8        0.6910        0.0000        1.5068        1.5069       0.815830       0.02168
   4     651.6        0.7105        0.0000        1.3807        1.3807       0.670221       0.01991
   3     718.7        0.7365        0.0000        1.2680        1.2681       0.531523       0.01743
   2     792.3        0.7691        0.0000        1.1659        1.1660       0.396862       0.01544
   1     891.5        0.0823        0.3947        0.0061        0.4008       0.318534       0.00667
   0    1013.0        0.0908        0.3558        0.0052        0.3610       0.270189       0.00336

  Modules and versions used in this calculation:

       rrtmg_sw.1col.f90:  $Revision$                    rrtmg_sw_init.f90:  $Revision$        
     rrtmgsw_cldprop.f90:  $Revision$                  rrtmgsw_cldprmc.f90:  NOT USED          
     rrtmg_sw_reftra.f90:  $Revision$                  rrtmg_sw_spcvrt.f90:  NOT USED          
     rrtmg_sw_spcvmc.f90:  NOT USED                    rrtmgsw_setcoef.f90:  NOT USED          
     rrtmg_sw_taumol.f90:  $Revision$                  rrtmg_sw_vrtqdr.f90:  NOT USED          
                rrtatm.f:  NOT USED                             util_xxx.f:  NOT USED          
                 extra.f:  NOT USED                       rrtmg_sw_k_g.f90:  $Revision$        

