

 Wavenumbers:   820. - 50000. cm-1, ATM      1
 LEVEL PRESSURE   UPWARD FLUX   DIFDOWN FLUX  DIRDOWN FLUX  DOWNWARD FLUX   NET FLUX    HEATING RATE
          mb          W/m2          W/m2          W/m2        W/m2          W/m2       degree/day
  51    .06700      172.8095        0.0000      397.8738      397.8738     225.064242       0.00000
  50    .07753      172.8089        0.0012      397.8577      397.8589     225.049960      11.44719
  49    .09103      172.8081        0.0026      397.8418      397.8444     225.036285       8.54753
  48    0.1069      172.8073        0.0043      397.8230      397.8272     225.019954       8.69304
  47    0.1255      172.8063        0.0062      397.7997      397.8058     224.999533       9.25764
  46    0.1487      172.8051        0.0086      397.7676      397.7762     224.971108      10.36132
  45    0.1794      172.8035        0.0119      397.7205      397.7324     224.928866      11.59652
  44    0.2165      172.8017        0.0158      397.6602      397.6760     224.874284      12.41635
  43    0.2613      172.7996        0.0203      397.5829      397.6032     224.803577      13.32804
  42    0.3336      172.7964        0.0278      397.4449      397.4727     224.676307      14.83842
  41    0.4307      172.7924        0.0377      397.2524      397.2901     224.497691      15.53027
  40    0.5894      172.7864        0.0535      396.9253      396.9788     224.192452      16.23221
  39     1.339      172.7685        0.1243      395.4254      395.5496     222.781185      15.88830
  38     1.782      172.7649        0.1639      394.7288      394.8927     222.127855      12.43835
  37     2.292      172.7667        0.2091      394.0572      394.2662     221.499479      10.40755
  36     2.964      172.7782        0.2676      393.3007      393.5683     220.790146       8.90427
  35     3.853      172.8056        0.3441      392.4318      392.7760     219.970309       7.78041
  34     5.035      172.8545        0.4448      391.4441      391.8889     219.034454       6.68536
  33     6.613      172.9265        0.5782      390.3268      390.9050     217.978461       5.64534
  32     8.786      173.0188        0.7566      389.0624      389.8190     216.800106       4.57631
  31     11.80      173.1305        1.0096      387.5500      388.5596     215.429145       3.83826
  30     15.07      173.2263        1.2791      386.1556      387.4347     214.208392       3.15175
  29     18.79      173.3132        1.5811      384.7502      386.3313     213.018032       2.69891
  28     23.16      173.3901        1.9309      383.2686      385.1995     211.809381       2.33714
  27     28.12      173.4493        2.3276      381.7329      384.0605     210.611189       2.03685
  26     33.73      173.4732        2.7683      380.1982      382.9664     209.493191       1.68094
  25     40.54      173.4532        3.2966      378.5384      381.8350     208.381836       1.37876
  24     48.69      173.3822        3.9279      376.7214      380.6494     207.267121       1.15355
  23     57.69      173.2595        4.6147      374.8959      379.5106     206.251058       0.95241
  22     68.43      173.0654        5.4241      372.8999      378.3241     205.258671       0.78015
  21     81.20      172.7678        6.3780      370.7496      377.1276     204.359784       0.59397
  20     96.49      172.3537        7.4999      368.4056      375.9054     203.551724       0.44599
  19     114.6      171.8437        8.8098      365.7513      374.5611     202.717414       0.38956
  18     136.5      171.2277       10.3306      362.7231      373.0537     201.825988       0.34277
  17     162.9      170.4896       12.0977      359.1748      371.2725     200.782854       0.33343
  16     196.4      169.5115       14.3245      354.5718      368.8964     199.384854       0.35189
  15     218.7      168.8674       15.7481      351.4437      367.1918     198.324427       0.40260
  14     243.0      168.1726       17.2616      347.7111      364.9728     196.800174       0.52866
  13     269.0      167.4271       18.8631      342.9441      361.8073     194.380182       0.78503
  12     297.5      166.6318       20.5504      337.4137      357.9641     191.332309       0.90397
  11     328.5      165.7898       22.3247      331.1302      353.4550     187.665152       0.99709
  10     361.9      164.9046       24.1806      324.1219      348.3025     183.397929       1.07965
   9     398.1      163.9775       26.1171      316.6066      342.7237     178.746156       1.08376
   8     437.6      163.0146       28.1295      308.5895      336.7190     173.704443       1.07795
   7     480.5      162.0248       30.2118      299.9349      330.1467     168.121874       1.09640
   6     533.0      160.8695       32.6756      289.7021      322.3777     161.508239       1.06392
   5     589.8      159.7049       35.2154      279.3388      314.5542     154.849210       0.98842
   4     651.6      158.5557       37.8188      268.7786      306.5974     148.041674       0.93095
   3     718.7      157.4356       40.4763      258.2837      298.7600     141.324402       0.84417
   2     792.3      156.3615       43.1736      248.0774      291.2510     134.889511       0.73801
   1     891.5      155.1446       46.5870      235.5216      282.1086     126.964032       0.67442
   0    1013.0      154.1663       50.3632      221.4731      271.8363     117.670035       0.64533



 Wavenumbers:  2600. -  3250. cm-1, ATM      1
 LEVEL PRESSURE   UPWARD FLUX   DIFDOWN FLUX  DIRDOWN FLUX  DOWNWARD FLUX   NET FLUX    HEATING RATE
          mb          W/m2          W/m2          W/m2        W/m2          W/m2       degree/day
  51    .06700        0.2322        0.0000        3.5066        3.5066       3.274421       0.00000
  50    .07753        0.2322        0.0000        3.5066        3.5066       3.274413       0.00640
  49    .09103        0.2322        0.0000        3.5066        3.5066       3.274403       0.00627
  48    0.1069        0.2322        0.0000        3.5066        3.5066       3.274391       0.00613
  47    0.1255        0.2322        0.0000        3.5066        3.5066       3.274378       0.00599
  46    0.1487        0.2322        0.0000        3.5066        3.5066       3.274361       0.00607
  45    0.1794        0.2322        0.0000        3.5065        3.5065       3.274339       0.00624
  44    0.2165        0.2322        0.0000        3.5065        3.5065       3.274312       0.00611
  43    0.2613        0.2322        0.0000        3.5065        3.5065       3.274280       0.00598
  42    0.3336        0.2322        0.0000        3.5064        3.5064       3.274227       0.00615
  41    0.4307        0.2322        0.0000        3.5064        3.5064       3.274156       0.00618
  40    0.5894        0.2322        0.0000        3.5062        3.5062       3.274037       0.00633
  39     1.339        0.2322        0.0000        3.5055        3.5055       3.273338       0.00787
  38     1.782        0.2322        0.0000        3.5050        3.5050       3.272808       0.01011
  37     2.292        0.2322        0.0000        3.5043        3.5043       3.272115       0.01147
  36     2.964        0.2322        0.0000        3.5033        3.5033       3.271124       0.01245
  35     3.853        0.2322        0.0000        3.5019        3.5019       3.269747       0.01307
  34     5.035        0.2322        0.0000        3.5001        3.5001       3.267886       0.01329
  33     6.613        0.2322        0.0000        3.4977        3.4977       3.265476       0.01288
  32     8.786        0.2322        0.0000        3.4947        3.4947       3.262505       0.01154
  31     11.80        0.2322        0.0000        3.4911        3.4911       3.258870       0.01018
  30     15.07        0.2322        0.0000        3.4878        3.4878       3.255649       0.00832
  29     18.79        0.2322        0.0000        3.4848        3.4848       3.252586       0.00695
  28     23.16        0.2322        0.0000        3.4816        3.4816       3.249366       0.00623
  27     28.12        0.2322        0.0000        3.4779        3.4779       3.245748       0.00615
  26     33.73        0.2322        0.0000        3.4735        3.4735       3.241282       0.00671
  25     40.54        0.2322        0.0000        3.4671        3.4671       3.234956       0.00785
  24     48.69        0.2322        0.0000        3.4582        3.4583       3.226062       0.00920
  23     57.69        0.2322        0.0000        3.4472        3.4472       3.215015       0.01036
  22     68.43        0.2322        0.0000        3.4329        3.4329       3.200756       0.01121
  21     81.20        0.2322        0.0000        3.4152        3.4152       3.183029       0.01171
  20     96.49        0.2322        0.0000        3.3940        3.3941       3.161886       0.01167
  19     114.6        0.2322        0.0000        3.3692        3.3692       3.136998       0.01162
  18     136.5        0.2322        0.0001        3.3419        3.3420       3.109783       0.01046
  17     162.9        0.2322        0.0001        3.3129        3.3129       3.080712       0.00929
  16     196.4        0.2323        0.0001        3.2793        3.2794       3.047145       0.00845
  15     218.7        0.2323        0.0001        3.2578        3.2578       3.025533       0.00821
  14     243.0        0.2324        0.0001        3.2320        3.2320       2.999666       0.00897
  13     269.0        0.2325        0.0001        3.1968        3.1969       2.964426       0.01143
  12     297.5        0.2327        0.0001        3.1489        3.1490       2.916358       0.01426
  11     328.5        0.2330        0.0001        3.0821        3.0822       2.849195       0.01826
  10     361.9        0.2334        0.0001        2.9902        2.9904       2.756959       0.02334
   9     398.1        0.2340        0.0001        2.8715        2.8716       2.637621       0.02780
   8     437.6        0.2348        0.0001        2.7276        2.7278       2.492944       0.03093
   7     480.5        0.2361        0.0001        2.5595        2.5597       2.323572       0.03326
   6     533.0        0.2382        0.0001        2.3617        2.3619       2.123735       0.03215
   5     589.8        0.2411        0.0002        2.1649        2.1651       1.923956       0.02965
   4     651.6        0.2454        0.0002        1.9608        1.9609       1.715521       0.02850
   3     718.7        0.2512        0.0002        1.7593        1.7595       1.508259       0.02605
   2     792.3        0.2588        0.0002        1.5761        1.5762       1.317388       0.02189
   1     891.5        0.2719        0.0002        1.3714        1.3716       1.099695       0.01852
   0    1013.0        0.2955        0.0002        1.1584        1.1586       0.863044       0.01643



 Wavenumbers:  3250. -  4000. cm-1, ATM      1
 LEVEL PRESSURE   UPWARD FLUX   DIFDOWN FLUX  DIRDOWN FLUX  DOWNWARD FLUX   NET FLUX    HEATING RATE
          mb          W/m2          W/m2          W/m2        W/m2          W/m2       degree/day
  51    .06700        0.0004        0.0000        5.9117        5.9117       5.911217       0.00000
  50    .07753        0.0004        0.0000        5.9075        5.9075       5.907027       3.35808
  49    .09103        0.0004        0.0000        5.9050        5.9050       5.904584       1.52677
  48    0.1069        0.0004        0.0000        5.9032        5.9032       5.902718       0.99346
  47    0.1255        0.0004        0.0000        5.9014        5.9014       5.900960       0.79708
  46    0.1487        0.0004        0.0000        5.8995        5.8995       5.899071       0.68848
  45    0.1794        0.0004        0.0000        5.8974        5.8974       5.896922       0.58983
  44    0.2165        0.0004        0.0000        5.8952        5.8952       5.894805       0.48155
  43    0.2613        0.0004        0.0000        5.8931        5.8931       5.892646       0.40696
  42    0.3336        0.0004        0.0000        5.8899        5.8899       5.889488       0.36820
  41    0.4307        0.0004        0.0000        5.8861        5.8861       5.885651       0.33365
  40    0.5894        0.0004        0.0000        5.8803        5.8803       5.879849       0.30857
  39     1.339        0.0004        0.0000        5.8597        5.8597       5.859251       0.23189
  38     1.782        0.0004        0.0000        5.8513        5.8513       5.850827       0.16039
  37     2.292        0.0004        0.0000        5.8431        5.8431       5.842655       0.13533
  36     2.964        0.0004        0.0000        5.8334        5.8334       5.833016       0.12100
  35     3.853        0.0004        0.0000        5.8213        5.8213       5.820840       0.11555
  34     5.035        0.0004        0.0000        5.8052        5.8052       5.804745       0.11498
  33     6.613        0.0004        0.0000        5.7833        5.7834       5.782924       0.11666
  32     8.786        0.0004        0.0000        5.7531        5.7531       5.752722       0.11729
  31     11.80        0.0004        0.0000        5.7090        5.7090       5.708554       0.12366
  30     15.07        0.0004        0.0000        5.6615        5.6615       5.661089       0.12254
  29     18.79        0.0004        0.0000        5.6093        5.6094       5.608953       0.11821
  28     23.16        0.0004        0.0000        5.5524        5.5524       5.552027       0.11008
  27     28.12        0.0004        0.0000        5.4935        5.4935       5.493148       0.10009
  26     33.73        0.0004        0.0000        5.4348        5.4349       5.434460       0.08824
  25     40.54        0.0004        0.0001        5.3707        5.3708       5.370398       0.07948
  24     48.69        0.0004        0.0001        5.2985        5.2985       5.298165       0.07475
  23     57.69        0.0004        0.0001        5.2215        5.2216       5.221226       0.07212
  22     68.43        0.0003        0.0001        5.1318        5.1319       5.131566       0.07048
  21     81.20        0.0003        0.0001        5.0284        5.0285       5.028137       0.06834
  20     96.49        0.0003        0.0001        4.9122        4.9123       4.912002       0.06410
  19     114.6        0.0003        0.0001        4.7780        4.7782       4.777891       0.06262
  18     136.5        0.0003        0.0002        4.6285        4.6287       4.628413       0.05748
  17     162.9        0.0002        0.0002        4.4406        4.4407       4.440501       0.06006
  16     196.4        0.0002        0.0002        4.1548        4.1550       4.154827       0.07191
  15     218.7        0.0002        0.0002        3.9564        3.9566       3.956447       0.07532
  14     243.0        0.0002        0.0002        3.7055        3.7058       3.705612       0.08700
  13     269.0        0.0001        0.0002        3.3399        3.3401       3.339973       0.11861
  12     297.5        0.0001        0.0002        2.8954        2.8956       2.895484       0.13183
  11     328.5        0.0001        0.0002        2.4388        2.4390       2.438943       0.12413
  10     361.9        0.0001        0.0002        2.0269        2.0271       2.027004       0.10422
   9     398.1        0.0001        0.0002        1.6753        1.6755       1.675415       0.08191
   8     437.6        0.0001        0.0002        1.3592        1.3594       1.359297       0.06759
   7     480.5        0.0001        0.0002        1.0616        1.0618       1.061713       0.05844
   6     533.0        0.0001        0.0001        0.7543        0.7544       0.754378       0.04944
   5     589.8        0.0001        0.0001        0.4951        0.4952       0.495182       0.03847
   4     651.6        0.0001        0.0001        0.2943        0.2943       0.294279       0.02747
   3     718.7        0.0001        0.0001        0.1528        0.1529       0.152771       0.01778
   2     792.3        0.0001        0.0000        0.0658        0.0658       0.065712       0.00998
   1     891.5        0.0003        0.0000        0.0157        0.0157       0.015365       0.00428
   0    1013.0        0.0013        0.0000        0.0013        0.0013       0.000072       0.00106



 Wavenumbers:  4000. -  4650. cm-1, ATM      1
 LEVEL PRESSURE   UPWARD FLUX   DIFDOWN FLUX  DIRDOWN FLUX  DOWNWARD FLUX   NET FLUX    HEATING RATE
          mb          W/m2          W/m2          W/m2        W/m2          W/m2       degree/day
  51    .06700        0.6305        0.0000        6.9421        6.9421       6.311550       0.00000
  50    .07753        0.6305        0.0000        6.9421        6.9421       6.311549       0.00079
  49    .09103        0.6305        0.0000        6.9421        6.9421       6.311548       0.00078
  48    0.1069        0.6305        0.0000        6.9421        6.9421       6.311546       0.00076
  47    0.1255        0.6305        0.0000        6.9421        6.9421       6.311545       0.00074
  46    0.1487        0.6305        0.0000        6.9421        6.9421       6.311543       0.00075
  45    0.1794        0.6305        0.0000        6.9421        6.9421       6.311540       0.00077
  44    0.2165        0.6305        0.0000        6.9421        6.9421       6.311536       0.00076
  43    0.2613        0.6305        0.0000        6.9420        6.9420       6.311533       0.00074
  42    0.3336        0.6305        0.0000        6.9420        6.9420       6.311526       0.00076
  41    0.4307        0.6305        0.0000        6.9420        6.9420       6.311517       0.00077
  40    0.5894        0.6305        0.0000        6.9420        6.9420       6.311502       0.00079
  39     1.339        0.6305        0.0000        6.9419        6.9419       6.311414       0.00100
  38     1.782        0.6305        0.0000        6.9418        6.9419       6.311344       0.00132
  37     2.292        0.6305        0.0000        6.9418        6.9418       6.311251       0.00155
  36     2.964        0.6305        0.0000        6.9416        6.9416       6.311111       0.00175
  35     3.853        0.6305        0.0000        6.9414        6.9414       6.310905       0.00196
  34     5.035        0.6305        0.0000        6.9411        6.9411       6.310600       0.00218
  33     6.613        0.6305        0.0000        6.9406        6.9406       6.310153       0.00239
  32     8.786        0.6305        0.0000        6.9399        6.9400       6.309493       0.00256
  31     11.80        0.6305        0.0000        6.9389        6.9389       6.308459       0.00290
  30     15.07        0.6305        0.0001        6.9377        6.9377       6.307249       0.00312
  29     18.79        0.6305        0.0001        6.9362        6.9362       6.305792       0.00330
  28     23.16        0.6304        0.0001        6.9343        6.9344       6.303990       0.00348
  27     28.12        0.6304        0.0001        6.9321        6.9322       6.301818       0.00369
  26     33.73        0.6304        0.0001        6.9294        6.9296       6.299155       0.00400
  25     40.54        0.6304        0.0001        6.9258        6.9260       6.295564       0.00445
  24     48.69        0.6304        0.0002        6.9210        6.9212       6.290812       0.00492
  23     57.69        0.6303        0.0002        6.9154        6.9156       6.285225       0.00524
  22     68.43        0.6303        0.0002        6.9083        6.9086       6.278281       0.00546
  21     81.20        0.6303        0.0003        6.8998        6.9001       6.269794       0.00561
  20     96.49        0.6302        0.0004        6.8894        6.8898       6.259550       0.00565
  19     114.6        0.6302        0.0004        6.8765        6.8770       6.246737       0.00598
  18     136.5        0.6302        0.0005        6.8610        6.8615       6.231293       0.00594
  17     162.9        0.6302        0.0006        6.8417        6.8423       6.212106       0.00613
  16     196.4        0.6301        0.0007        6.8147        6.8154       6.185229       0.00677
  15     218.7        0.6302        0.0008        6.7948        6.7956       6.165461       0.00751
  14     243.0        0.6302        0.0009        6.7698        6.7707       6.140420       0.00868
  13     269.0        0.6304        0.0010        6.7349        6.7358       6.105443       0.01135
  12     297.5        0.6306        0.0011        6.6869        6.6879       6.057298       0.01428
  11     328.5        0.6310        0.0012        6.6194        6.6205       5.989537       0.01842
  10     361.9        0.6315        0.0013        6.5295        6.5307       5.899217       0.02285
   9     398.1        0.6322        0.0014        6.4202        6.4216       5.789383       0.02559
   8     437.6        0.6331        0.0015        6.2962        6.2977       5.664521       0.02670
   7     480.5        0.6344        0.0016        6.1555        6.1571       5.522671       0.02786
   6     533.0        0.6365        0.0017        5.9675        5.9693       5.332753       0.03055
   5     589.8        0.6396        0.0019        5.7368        5.7386       5.099059       0.03469
   4     651.6        0.6440        0.0020        5.4662        5.4682       4.824216       0.03759
   3     718.7        0.6501        0.0021        5.1912        5.1933       4.543200       0.03532
   2     792.3        0.6580        0.0022        4.9395        4.9417       4.283736       0.02976
   1     891.5        0.6715        0.0024        4.6486        4.6510       3.979524       0.02589
   0    1013.0        0.6957        0.0025        4.3179        4.3204       3.624655       0.02464



 Wavenumbers:  4650. -  5150. cm-1, ATM      1
 LEVEL PRESSURE   UPWARD FLUX   DIFDOWN FLUX  DIRDOWN FLUX  DOWNWARD FLUX   NET FLUX    HEATING RATE
          mb          W/m2          W/m2          W/m2        W/m2          W/m2       degree/day
  51    .06700        0.4415        0.0000        6.5710        6.5710       6.129511       0.00000
  50    .07753        0.4415        0.0000        6.5708        6.5708       6.129275       0.18887
  49    .09103        0.4415        0.0000        6.5705        6.5705       6.128981       0.18362
  48    0.1069        0.4415        0.0000        6.5701        6.5701       6.128647       0.17806
  47    0.1255        0.4415        0.0000        6.5697        6.5697       6.128267       0.17238
  46    0.1487        0.4415        0.0000        6.5693        6.5693       6.127793       0.17268
  45    0.1794        0.4415        0.0000        6.5686        6.5686       6.127156       0.17473
  44    0.2165        0.4415        0.0000        6.5679        6.5679       6.126418       0.16788
  43    0.2613        0.4415        0.0000        6.5670        6.5670       6.125565       0.16078
  42    0.3336        0.4415        0.0000        6.5657        6.5657       6.124202       0.15894
  41    0.4307        0.4415        0.0000        6.5640        6.5640       6.122480       0.14971
  40    0.5894        0.4415        0.0000        6.5613        6.5613       6.119864       0.13913
  39     1.339        0.4415        0.0000        6.5516        6.5516       6.110087       0.11008
  38     1.782        0.4415        0.0000        6.5473        6.5473       6.105871       0.08026
  37     2.292        0.4415        0.0000        6.5434        6.5435       6.101984       0.06438
  36     2.964        0.4415        0.0000        6.5395        6.5395       6.098030       0.04964
  35     3.853        0.4415        0.0000        6.5355        6.5356       6.094087       0.03742
  34     5.035        0.4415        0.0000        6.5315        6.5315       6.090085       0.02859
  33     6.613        0.4414        0.0000        6.5271        6.5271       6.085691       0.02349
  32     8.786        0.4414        0.0000        6.5216        6.5216       6.080197       0.02134
  31     11.80        0.4414        0.0001        6.5135        6.5135       6.072120       0.02261
  30     15.07        0.4414        0.0001        6.5041        6.5042       6.062753       0.02418
  29     18.79        0.4414        0.0001        6.4925        6.4926       6.051240       0.02610
  28     23.16        0.4414        0.0001        6.4779        6.4780       6.036652       0.02821
  27     28.12        0.4414        0.0002        6.4599        6.4600       6.018683       0.03055
  26     33.73        0.4413        0.0002        6.4384        6.4386       5.997259       0.03221
  25     40.54        0.4413        0.0002        6.4112        6.4114       5.970144       0.03364
  24     48.69        0.4413        0.0003        6.3775        6.3778       5.936523       0.03479
  23     57.69        0.4412        0.0003        6.3404        6.3407       5.899452       0.03475
  22     68.43        0.4412        0.0004        6.2971        6.2975       5.856291       0.03393
  21     81.20        0.4412        0.0004        6.2483        6.2487       5.807516       0.03223
  20     96.49        0.4411        0.0005        6.1948        6.1953       5.754201       0.02943
  19     114.6        0.4411        0.0006        6.1381        6.1388       5.697643       0.02641
  18     136.5        0.4411        0.0007        6.0790        6.0797       5.638641       0.02269
  17     162.9        0.4411        0.0009        6.0160        6.0169       5.575829       0.02008
  16     196.4        0.4411        0.0010        5.9399        5.9409       5.499813       0.01913
  15     218.7        0.4411        0.0011        5.8896        5.8908       5.449654       0.01904
  14     243.0        0.4412        0.0012        5.8322        5.8334       5.392253       0.01991
  13     269.0        0.4413        0.0014        5.7624        5.7638       5.322456       0.02264
  12     297.5        0.4415        0.0015        5.6767        5.6782       5.236679       0.02544
  11     328.5        0.4419        0.0016        5.5726        5.5742       5.132315       0.02838
  10     361.9        0.4424        0.0018        5.4473        5.4491       5.006661       0.03179
   9     398.1        0.4432        0.0019        5.2995        5.3014       4.858215       0.03458
   8     437.6        0.4442        0.0020        5.1275        5.1295       4.685308       0.03697
   7     480.5        0.4456        0.0022        4.9290        4.9311       4.485513       0.03924
   6     533.0        0.4479        0.0023        4.6794        4.6817       4.233768       0.04050
   5     589.8        0.4511        0.0024        4.4188        4.4212       3.970070       0.03914
   4     651.6        0.4557        0.0025        4.1521        4.1546       3.698926       0.03708
   3     718.7        0.4618        0.0027        3.8929        3.8956       3.433778       0.03332
   2     792.3        0.4698        0.0028        3.6469        3.6496       3.179876       0.02912
   1     891.5        0.4833        0.0029        3.3535        3.3564       2.873030       0.02611
   0    1013.0        0.5067        0.0030        3.0383        3.0414       2.534704       0.02349



 Wavenumbers:  5150. -  6150. cm-1, ATM      1
 LEVEL PRESSURE   UPWARD FLUX   DIFDOWN FLUX  DIRDOWN FLUX  DOWNWARD FLUX   NET FLUX    HEATING RATE
          mb          W/m2          W/m2          W/m2        W/m2          W/m2       degree/day
  51    .06700        1.2403        0.0000       16.4735       16.4735      15.233184       0.00000
  50    .07753        1.2403        0.0000       16.4735       16.4735      15.233150       0.02761
  49    .09103        1.2403        0.0000       16.4734       16.4734      15.233105       0.02810
  48    0.1069        1.2403        0.0000       16.4734       16.4734      15.233051       0.02859
  47    0.1255        1.2403        0.0000       16.4733       16.4733      15.232987       0.02904
  46    0.1487        1.2403        0.0000       16.4732       16.4732      15.232903       0.03059
  45    0.1794        1.2403        0.0000       16.4731       16.4731      15.232784       0.03269
  44    0.2165        1.2403        0.0000       16.4730       16.4730      15.232638       0.03331
  43    0.2613        1.2403        0.0000       16.4728       16.4728      15.232459       0.03376
  42    0.3336        1.2403        0.0000       16.4725       16.4725      15.232153       0.03564
  41    0.4307        1.2403        0.0000       16.4720       16.4720      15.231734       0.03645
  40    0.5894        1.2403        0.0000       16.4713       16.4713      15.231033       0.03728
  39     1.339        1.2403        0.0000       16.4679       16.4679      15.227624       0.03837
  38     1.782        1.2403        0.0000       16.4659       16.4659      15.225625       0.03806
  37     2.292        1.2403        0.0001       16.4635       16.4636      15.223334       0.03795
  36     2.964        1.2403        0.0001       16.4605       16.4606      15.220365       0.03727
  35     3.853        1.2402        0.0001       16.4567       16.4567      15.216512       0.03656
  34     5.035        1.2402        0.0001       16.4516       16.4517      15.211516       0.03569
  33     6.613        1.2402        0.0002       16.4451       16.4452      15.205056       0.03453
  32     8.786        1.2401        0.0002       16.4367       16.4369      15.196746       0.03227
  31     11.80        1.2401        0.0003       16.4254       16.4257      15.185598       0.03121
  30     15.07        1.2400        0.0004       16.4141       16.4145      15.174514       0.02862
  29     18.79        1.2399        0.0005       16.4024       16.4029      15.162997       0.02611
  28     23.16        1.2398        0.0006       16.3900       16.3906      15.150740       0.02370
  27     28.12        1.2397        0.0007       16.3771       16.3778      15.138082       0.02152
  26     33.73        1.2396        0.0009       16.3641       16.3650      15.125362       0.01912
  25     40.54        1.2395        0.0010       16.3502       16.3512      15.111732       0.01691
  24     48.69        1.2393        0.0012       16.3354       16.3366      15.097273       0.01496
  23     57.69        1.2392        0.0015       16.3211       16.3225      15.083390       0.01301
  22     68.43        1.2390        0.0017       16.3062       16.3080      15.069024       0.01129
  21     81.20        1.2387        0.0021       16.2903       16.2924      15.053659       0.01015
  20     96.49        1.2385        0.0024       16.2726       16.2751      15.036621       0.00940
  19     114.6        1.2381        0.0029       16.2521       16.2550      15.016850       0.00923
  18     136.5        1.2377        0.0034       16.2245       16.2280      14.990242       0.01023
  17     162.9        1.2373        0.0041       16.1747       16.1788      14.941523       0.01557
  16     196.4        1.2367        0.0049       16.0518       16.0568      14.820008       0.03059
  15     218.7        1.2364        0.0054       15.8984       15.9038      14.667421       0.05793
  14     243.0        1.2360        0.0060       15.6153       15.6212      14.385187       0.09789
  13     269.0        1.2357        0.0064       15.1390       15.1454      13.909761       0.15423
  12     297.5        1.2354        0.0069       14.5779       14.5848      13.349445       0.16618
  11     328.5        1.2351        0.0073       13.8780       13.8854      12.650259       0.19011
  10     361.9        1.2350        0.0077       13.0814       13.0892      11.854208       0.20141
   9     398.1        1.2349        0.0080       12.2728       12.2809      11.045954       0.18831
   8     437.6        1.2351        0.0083       11.4776       11.4859      10.250776       0.17001
   7     480.5        1.2356        0.0086       10.7300       10.7385       9.502914       0.14688
   6     533.0        1.2368        0.0089       10.0326       10.0415       8.804721       0.11232
   5     589.8        1.2388        0.0093        9.5050        9.5143       8.275544       0.07855
   4     651.6        1.2421        0.0098        9.0814        9.0912       7.849074       0.05832
   3     718.7        1.2471        0.0104        8.7024        8.7128       7.465761       0.04817
   2     792.3        1.2540        0.0110        8.3379        8.3490       7.095035       0.04252
   1     891.5        1.2669        0.0119        7.9064        7.9182       6.651365       0.03775
   0    1013.0        1.2938        0.0128        7.4741        7.4869       6.193087       0.03182



 Wavenumbers:  6150. -  7700. cm-1, ATM      1
 LEVEL PRESSURE   UPWARD FLUX   DIFDOWN FLUX  DIRDOWN FLUX  DOWNWARD FLUX   NET FLUX    HEATING RATE
          mb          W/m2          W/m2          W/m2        W/m2          W/m2       degree/day
  51    .06700        1.8785        0.0000       30.4684       30.4684      28.589904       0.00000
  50    .07753        1.8785        0.0000       30.4683       30.4683      28.589853       0.04144
  49    .09103        1.8785        0.0000       30.4683       30.4683      28.589786       0.04174
  48    0.1069        1.8785        0.0000       30.4682       30.4682      28.589707       0.04202
  47    0.1255        1.8785        0.0000       30.4681       30.4681      28.589614       0.04227
  46    0.1487        1.8785        0.0000       30.4680       30.4680      28.589493       0.04411
  45    0.1794        1.8785        0.0000       30.4678       30.4678      28.589323       0.04669
  44    0.2165        1.8785        0.0000       30.4676       30.4676      28.589115       0.04715
  43    0.2613        1.8785        0.0000       30.4673       30.4673      28.588864       0.04744
  42    0.3336        1.8785        0.0000       30.4669       30.4669      28.588437       0.04974
  41    0.4307        1.8784        0.0000       30.4663       30.4663      28.587856       0.05052
  40    0.5894        1.8784        0.0001       30.4653       30.4653      28.586888       0.05146
  39     1.339        1.8783        0.0001       30.4604       30.4606      28.582205       0.05273
  38     1.782        1.8783        0.0002       30.4576       30.4578      28.579455       0.05235
  37     2.292        1.8783        0.0002       30.4543       30.4545      28.576296       0.05231
  36     2.964        1.8782        0.0003       30.4501       30.4504      28.572189       0.05156
  35     3.853        1.8781        0.0004       30.4445       30.4449      28.566832       0.05084
  34     5.035        1.8780        0.0005       30.4373       30.4378      28.559832       0.05000
  33     6.613        1.8778        0.0007       30.4278       30.4285      28.550685       0.04890
  32     8.786        1.8776        0.0009       30.4154       30.4163      28.538732       0.04642
  31     11.80        1.8773        0.0013       30.3984       30.3996      28.522347       0.04587
  30     15.07        1.8770        0.0016       30.3810       30.3826      28.505633       0.04315
  29     18.79        1.8766        0.0020       30.3623       30.3643      28.487733       0.04059
  28     23.16        1.8761        0.0025       30.3417       30.3442      28.468050       0.03806
  27     28.12        1.8756        0.0030       30.3196       30.3226      28.446950       0.03587
  26     33.73        1.8751        0.0036       30.2965       30.3001      28.425032       0.03295
  25     40.54        1.8744        0.0043       30.2708       30.2751      28.400695       0.03019
  24     48.69        1.8736        0.0052       30.2423       30.2475      28.373919       0.02771
  23     57.69        1.8727        0.0062       30.2139       30.2200      28.347354       0.02490
  22     68.43        1.8716        0.0073       30.1834       30.1907      28.319080       0.02223
  21     81.20        1.8703        0.0087       30.1500       30.1587      28.288353       0.02030
  20     96.49        1.8688        0.0103       30.1126       30.1229      28.254137       0.01888
  19     114.6        1.8670        0.0122       30.0695       30.0817      28.214754       0.01839
  18     136.5        1.8648        0.0145       30.0139       30.0284      28.163604       0.01967
  17     162.9        1.8622        0.0172       29.9225       29.9397      28.077436       0.02754
  16     196.4        1.8589        0.0207       29.7333       29.7540      27.895067       0.04590
  15     218.7        1.8568        0.0229       29.5259       29.5487      27.691958       0.07711
  14     243.0        1.8545        0.0252       29.1375       29.1627      27.308167       0.13311
  13     269.0        1.8521        0.0274       28.3800       28.4074      26.555264       0.24424
  12     297.5        1.8498        0.0294       27.3895       27.4190      25.569231       0.29245
  11     328.5        1.8474        0.0314       26.2257       26.2571      24.409641       0.31529
  10     361.9        1.8453        0.0331       24.8453       24.8785      23.033155       0.34826
   9     398.1        1.8435        0.0346       23.3471       23.3817      21.538209       0.34829
   8     437.6        1.8422        0.0359       21.7966       21.8325      19.990334       0.33095
   7     480.5        1.8418        0.0368       20.1977       20.2345      18.392748       0.31376
   6     533.0        1.8430        0.0377       18.4969       18.5346      16.691670       0.27365
   5     589.8        1.8467        0.0386       16.9754       17.0140      15.167243       0.22628
   4     651.6        1.8545        0.0395       15.6022       15.6416      13.787168       0.18873
   3     718.7        1.8671        0.0405       14.4232       14.4637      12.596629       0.14962
   2     792.3        1.8853        0.0417       13.4386       13.4804      11.595043       0.11487
   1     891.5        1.9203        0.0435       12.3736       12.4171      10.496820       0.09345
   0    1013.0        1.9924        0.0454       11.2911       11.3365       9.344145       0.08004



 Wavenumbers:  7700. -  8050. cm-1, ATM      1
 LEVEL PRESSURE   UPWARD FLUX   DIFDOWN FLUX  DIRDOWN FLUX  DOWNWARD FLUX   NET FLUX    HEATING RATE
          mb          W/m2          W/m2          W/m2        W/m2          W/m2       degree/day
  51    .06700        1.0178        0.0000        7.2006        7.2006       6.182833       0.00000
  50    .07753        1.0178        0.0000        7.2006        7.2006       6.182815       0.01473
  49    .09103        1.0178        0.0000        7.2005        7.2005       6.182792       0.01444
  48    0.1069        1.0178        0.0000        7.2005        7.2005       6.182765       0.01413
  47    0.1255        1.0178        0.0000        7.2005        7.2005       6.182735       0.01383
  46    0.1487        1.0178        0.0000        7.2004        7.2005       6.182696       0.01403
  45    0.1794        1.0178        0.0000        7.2004        7.2004       6.182644       0.01444
  44    0.2165        1.0178        0.0000        7.2003        7.2003       6.182581       0.01416
  43    0.2613        1.0178        0.0000        7.2003        7.2003       6.182508       0.01390
  42    0.3336        1.0178        0.0000        7.2001        7.2001       6.182386       0.01422
  41    0.4307        1.0178        0.0000        7.2000        7.2000       6.182224       0.01406
  40    0.5894        1.0178        0.0000        7.1997        7.1997       6.181960       0.01405
  39     1.339        1.0178        0.0001        7.1984        7.1985       6.180710       0.01407
  38     1.782        1.0178        0.0001        7.1977        7.1978       6.179977       0.01397
  37     2.292        1.0178        0.0001        7.1968        7.1969       6.179128       0.01406
  36     2.964        1.0178        0.0001        7.1957        7.1958       6.178014       0.01399
  35     3.853        1.0178        0.0002        7.1942        7.1944       6.176543       0.01396
  34     5.035        1.0179        0.0002        7.1922        7.1924       6.174591       0.01395
  33     6.613        1.0179        0.0003        7.1896        7.1899       6.171985       0.01393
  32     8.786        1.0179        0.0004        7.1860        7.1864       6.168480       0.01361
  31     11.80        1.0180        0.0005        7.1810        7.1815       6.163477       0.01401
  30     15.07        1.0181        0.0006        7.1755        7.1762       6.158122       0.01383
  29     18.79        1.0182        0.0008        7.1694        7.1702       6.152093       0.01367
  28     23.16        1.0182        0.0010        7.1623        7.1633       6.145079       0.01356
  27     28.12        1.0184        0.0012        7.1542        7.1555       6.137096       0.01357
  26     33.73        1.0185        0.0014        7.1452        7.1467       6.128210       0.01336
  25     40.54        1.0186        0.0017        7.1344        7.1362       6.117543       0.01323
  24     48.69        1.0188        0.0021        7.1215        7.1236       6.104783       0.01321
  23     57.69        1.0190        0.0025        7.1074        7.1099       6.090890       0.01302
  22     68.43        1.0193        0.0029        7.0909        7.0938       6.074514       0.01287
  21     81.20        1.0196        0.0034        7.0713        7.0748       6.055239       0.01274
  20     96.49        1.0199        0.0041        7.0484        7.0525       6.032599       0.01250
  19     114.6        1.0204        0.0048        7.0217        7.0265       6.006165       0.01234
  18     136.5        1.0209        0.0057        6.9906        6.9963       5.975438       0.01182
  17     162.9        1.0215        0.0068        6.9544        6.9612       5.939651       0.01144
  16     196.4        1.0224        0.0082        6.9087        6.9169       5.894481       0.01137
  15     218.7        1.0230        0.0091        6.8794        6.8885       5.865465       0.01102
  14     243.0        1.0237        0.0100        6.8481        6.8581       5.834456       0.01076
  13     269.0        1.0244        0.0111        6.8147        6.8258       5.801348       0.01074
  12     297.5        1.0253        0.0122        6.7791        6.7913       5.765976       0.01049
  11     328.5        1.0263        0.0134        6.7409        6.7544       5.728076       0.01030
  10     361.9        1.0274        0.0147        6.7002        6.7149       5.687447       0.01028
   9     398.1        1.0288        0.0161        6.6563        6.6724       5.643623       0.01021
   8     437.6        1.0303        0.0176        6.6089        6.6265       5.596123       0.01016
   7     480.5        1.0322        0.0192        6.5570        6.5762       5.543953       0.01025
   6     533.0        1.0349        0.0211        6.4915        6.5126       5.477710       0.01066
   5     589.8        1.0382        0.0232        6.4182        6.4414       5.403214       0.01106
   4     651.6        1.0424        0.0254        6.3359        6.3613       5.318876       0.01153
   3     718.7        1.0475        0.0277        6.2441        6.2718       5.224303       0.01189
   2     792.3        1.0537        0.0301        6.1437        6.1739       5.120126       0.01195
   1     891.5        1.0633        0.0333        6.0042        6.0375       4.974207       0.01242
   0    1013.0        1.0774        0.0370        5.8249        5.8619       4.784584       0.01317



 Wavenumbers:  8050. - 12850. cm-1, ATM      1
 LEVEL PRESSURE   UPWARD FLUX   DIFDOWN FLUX  DIRDOWN FLUX  DOWNWARD FLUX   NET FLUX    HEATING RATE
          mb          W/m2          W/m2          W/m2        W/m2          W/m2       degree/day
  51    .06700       21.0867        0.0000      100.8135      100.8135      79.726866       0.00000
  50    .07753       21.0866        0.0000      100.8135      100.8135      79.726866       0.00000
  49    .09103       21.0866        0.0001      100.8134      100.8135      79.726866       0.00000
  48    0.1069       21.0866        0.0001      100.8134      100.8134      79.726866      -0.00000
  47    0.1255       21.0865        0.0001      100.8133      100.8134      79.726866       0.00000
  46    0.1487       21.0865        0.0002      100.8132      100.8134      79.726866      -0.00000
  45    0.1794       21.0864        0.0002      100.8131      100.8133      79.726866       0.00000
  44    0.2165       21.0864        0.0003      100.8129      100.8132      79.726866      -0.00000
  43    0.2613       21.0863        0.0004      100.8127      100.8132      79.726866       0.00000
  42    0.3336       21.0862        0.0006      100.8125      100.8130      79.726866      -0.00000
  41    0.4307       21.0860        0.0008      100.8121      100.8129      79.726866       0.00000
  40    0.5894       21.0857        0.0011      100.8115      100.8126      79.726866      -0.00000
  39     1.339       21.0844        0.0028      100.8085      100.8113      79.726866       0.00000
  38     1.782       21.0836        0.0037      100.8068      100.8105      79.726866      -0.00000
  37     2.292       21.0827        0.0048      100.8047      100.8096      79.726866       0.00000
  36     2.964       21.0815        0.0063      100.8021      100.8084      79.726866       0.00000
  35     3.853       21.0799        0.0082      100.7986      100.8068      79.726866      -0.00000
  34     5.035       21.0778        0.0107      100.7940      100.8047      79.726866      -0.00000
  33     6.613       21.0750        0.0141      100.7878      100.8019      79.726866       0.00000
  32     8.786       21.0713        0.0187      100.7794      100.7981      79.726866       0.00000
  31     11.80       21.0659        0.0253      100.7674      100.7927      79.726866       0.00000
  30     15.07       21.0601        0.0324      100.7546      100.7869      79.726866       0.00000
  29     18.79       21.0535        0.0404      100.7400      100.7804      79.726866       0.00000
  28     23.16       21.0459        0.0497      100.7230      100.7727      79.726866       0.00000
  27     28.12       21.0371        0.0604      100.7035      100.7639      79.726866      -0.00000
  26     33.73       21.0272        0.0724      100.6817      100.7541      79.726866       0.00000
  25     40.54       21.0153        0.0869      100.6552      100.7422      79.726866       0.00000
  24     48.69       21.0009        0.1045      100.6234      100.7278      79.726866      -0.00000
  23     57.69       20.9851        0.1237      100.5883      100.7120      79.726866       0.00000
  22     68.43       20.9663        0.1467      100.5464      100.6931      79.726866       0.00000
  21     81.20       20.9437        0.1741      100.4965      100.6706      79.726866      -0.00000
  20     96.49       20.9169        0.2068      100.4370      100.6437      79.726866      -0.00000
  19     114.6       20.8850        0.2457      100.3585      100.6041      79.719185       0.00359
  18     136.5       20.8470        0.2918      100.2634      100.5552      79.708130       0.00425
  17     162.9       20.8018        0.3469      100.1407      100.4875      79.685690       0.00717
  16     196.4       20.7431        0.4183       99.9505      100.3688      79.625717       0.01510
  15     218.7       20.7045        0.4653       99.7889      100.2542      79.549719       0.02885
  14     243.0       20.6626        0.5162       99.5472      100.0634      79.400829       0.05164
  13     269.0       20.6175        0.5711       99.1452       99.7163      79.098798       0.09798
  12     297.5       20.5695        0.6299       98.5975       99.2274      78.657849       0.13078
  11     328.5       20.5189        0.6929       97.8659       98.5587      78.039808       0.16804
  10     361.9       20.4663        0.7596       96.8848       97.6444      77.178071       0.21803
   9     398.1       20.4127        0.8300       95.6330       96.4630      76.050347       0.26273
   8     437.6       20.3595        0.9035       94.0655       94.9690      74.609470       0.30807
   7     480.5       20.3104        0.9792       92.0807       93.0600      72.749576       0.36528
   6     533.0       20.2629        1.0683       89.4449       90.5132      70.250220       0.40207
   5     589.8       20.2308        1.1599       86.5544       87.7143      67.483468       0.41068
   4     651.6       20.2242        1.2535       83.4174       84.6709      64.446727       0.41528
   3     718.7       20.2491        1.3499       80.2037       81.5536      61.304541       0.39489
   2     792.3       20.3108        1.4496       77.0811       78.5307      58.219878       0.35378
   1     891.5       20.4683        1.5779       73.2645       74.8424      54.374126       0.32726
   0    1013.0       20.8498        1.7197       68.9425       70.6622      49.812364       0.31675



 Wavenumbers: 12850. - 16000. cm-1, ATM      1
 LEVEL PRESSURE   UPWARD FLUX   DIFDOWN FLUX  DIRDOWN FLUX  DOWNWARD FLUX   NET FLUX    HEATING RATE
          mb          W/m2          W/m2          W/m2        W/m2          W/m2       degree/day
  51    .06700       31.7589        0.0000       63.1686       63.1686      31.409642       0.00000
  50    .07753       31.7589        0.0001       63.1677       63.1678      31.408864       0.62416
  49    .09103       31.7589        0.0001       63.1666       63.1668      31.407893       0.60648
  48    0.1069       31.7588        0.0002       63.1654       63.1656      31.406789       0.58797
  47    0.1255       31.7588        0.0003       63.1640       63.1643      31.405533       0.56939
  46    0.1487       31.7587        0.0004       63.1623       63.1627      31.403967       0.57077
  45    0.1794       31.7587        0.0006       63.1600       63.1605      31.401868       0.57623
  44    0.2165       31.7586        0.0008       63.1573       63.1581      31.399442       0.55193
  43    0.2613       31.7585        0.0010       63.1542       63.1552      31.396645       0.52724
  42    0.3336       31.7585        0.0014       63.1493       63.1507      31.392191       0.51923
  41    0.4307       31.7584        0.0019       63.1431       63.1450      31.386626       0.48384
  40    0.5894       31.7583        0.0027       63.1338       63.1365      31.378209       0.44764
  39     1.339       31.7590        0.0065       63.0956       63.1020      31.343038       0.39596
  38     1.782       31.7603        0.0087       63.0740       63.0827      31.322455       0.39187
  37     2.292       31.7625        0.0113       63.0477       63.0589      31.296420       0.43120
  36     2.964       31.7667        0.0147       63.0095       63.0242      31.257505       0.48851
  35     3.853       31.7739        0.0191       62.9533       62.9724      31.198506       0.55991
  34     5.035       31.7851        0.0251       62.8725       62.8976      31.112449       0.61475
  33     6.613       31.8010        0.0330       62.7621       62.7950      30.994059       0.63291
  32     8.786       31.8215        0.0436       62.6182       62.6619      30.840405       0.59674
  31     11.80       31.8475        0.0588       62.4284       62.4872      30.639706       0.56189
  30     15.07       31.8715        0.0751       62.2426       62.3177      30.446152       0.49972
  29     18.79       31.8953        0.0934       62.0493       62.1427      30.247440       0.45054
  28     23.16       31.9190        0.1148       61.8424       61.9572      30.038214       0.40458
  27     28.12       31.9415        0.1392       61.6278       61.7670      29.825455       0.36168
  26     33.73       31.9600        0.1664       61.4177       61.5840      29.624003       0.30289
  25     40.54       31.9747        0.1992       61.1983       61.3975      29.422771       0.24965
  24     48.69       31.9850        0.2387       60.9680       61.2067      29.221733       0.20804
  23     57.69       31.9890        0.2820       60.7478       61.0298      29.040887       0.16952
  22     68.43       31.9859        0.3336       60.5202       60.8538      28.867908       0.13598
  21     81.20       31.9715        0.3950       60.2938       60.6888      28.717325       0.09950
  20     96.49       31.9444        0.4681       60.0643       60.5323      28.587942       0.07141
  19     114.6       31.9131        0.5553       59.8078       60.3631      28.449975       0.06442
  18     136.5       31.8715        0.6586       59.5157       60.1743      28.302766       0.05661
  17     162.9       31.8177        0.7811       59.1770       59.9582      28.140432       0.05189
  16     196.4       31.7391        0.9396       58.7604       59.7001      27.960969       0.04517
  15     218.7       31.6843        1.0435       58.4948       59.5383      27.853978       0.04062
  14     243.0       31.6233        1.1560       58.2089       59.3650      27.741663       0.03895
  13     269.0       31.5560        1.2778       57.9006       59.1784      27.622387       0.03869
  12     297.5       31.4823        1.4090       57.5668       58.9758      27.493452       0.03824
  11     328.5       31.4030        1.5504       57.2005       58.7509      27.347817       0.03960
  10     361.9       31.3186        1.7021       56.7963       58.4984      27.179801       0.04251
   9     398.1       31.2295        1.8647       56.3475       58.2122      26.982714       0.04592
   8     437.6       31.1372        2.0385       55.8422       57.8807      26.743547       0.05114
   7     480.5       31.0443        2.2235       55.2625       57.4861      26.441782       0.05927
   6     533.0       30.9402        2.4492       54.4972       56.9464      26.006157       0.07008
   5     589.8       30.8409        2.6891       53.6307       56.3198      25.478901       0.07826
   4     651.6       30.7517        2.9423       52.6606       55.6029      24.851193       0.08584
   3     718.7       30.6753        3.2092       51.6100       54.8192      24.143919       0.08888
   2     792.3       30.6152        3.4895       50.5019       53.9913      23.376118       0.08806
   1     891.5       30.5780        3.8585       49.0197       52.8782      22.300142       0.09156
   0    1013.0       30.6224        4.2857       47.2289       51.5146      20.892256       0.09776



 Wavenumbers: 16000. - 22650. cm-1, ATM      1
 LEVEL PRESSURE   UPWARD FLUX   DIFDOWN FLUX  DIRDOWN FLUX  DOWNWARD FLUX   NET FLUX    HEATING RATE
          mb          W/m2          W/m2          W/m2        W/m2          W/m2       degree/day
  51    .06700       75.1520        0.0000      100.7153      100.7153      25.563327       0.00000
  50    .07753       75.1518        0.0003      100.7147      100.7151      25.563210       0.09368
  49    .09103       75.1517        0.0007      100.7140      100.7147      25.563040       0.10625
  48    0.1069       75.1515        0.0012      100.7131      100.7143      25.562813       0.12116
  47    0.1255       75.1513        0.0017      100.7121      100.7139      25.562508       0.13811
  46    0.1487       75.1511        0.0024      100.7108      100.7132      25.562059       0.16365
  45    0.1794       75.1509        0.0034      100.7089      100.7122      25.561357       0.19269
  44    0.2165       75.1506        0.0045      100.7066      100.7110      25.560405       0.21656
  43    0.2613       75.1503        0.0058      100.7037      100.7094      25.559114       0.24346
  42    0.3336       75.1500        0.0079      100.6987      100.7066      25.556658       0.28630
  41    0.4307       75.1496        0.0108      100.6918      100.7026      25.552957       0.32182
  40    0.5894       75.1493        0.0155      100.6797      100.6952      25.545898       0.37538
  39     1.339       75.1534        0.0376      100.6095      100.6471      25.493757       0.58701
  38     1.782       75.1598        0.0507      100.5585      100.6091      25.449354       0.84538
  37     2.292       75.1709        0.0657      100.4903      100.5560      25.385099       1.06422
  36     2.964       75.1912        0.0855      100.3868      100.4722      25.281056       1.30606
  35     3.853       75.2261        0.1115      100.2306      100.3421      25.116086       1.56560
  34     5.035       75.2803        0.1461      100.0045      100.1506      24.870234       1.75626
  33     6.613       75.3569        0.1922       99.6939       99.8860      24.529104       1.82368
  32     8.786       75.4560        0.2541       99.2881       99.5422      24.086142       1.72031
  31     11.80       75.5823        0.3424       98.7496       99.0921      23.509771       1.61366
  30     15.07       75.6997        0.4369       98.2198       98.6568      22.957022       1.42709
  29     18.79       75.8162        0.5433       97.6651       98.2084      22.392256       1.28050
  28     23.16       75.9335        0.6671       97.0671       97.7342      21.800763       1.14376
  27     28.12       76.0457        0.8081       96.4406       97.2487      21.202941       1.01626
  26     33.73       76.1399        0.9654       95.8179       96.7833      20.643332       0.84139
  25     40.54       76.2174        1.1547       95.1548       96.3096      20.092140       0.68382
  24     48.69       76.2757        1.3821       94.4420       95.8241      19.548407       0.56268
  23     57.69       76.3058        1.6309       93.7416       95.3725      19.066699       0.45153
  22     68.43       76.3052        1.9259       92.9954       94.9213      18.616095       0.35423
  21     81.20       76.2545        2.2760       92.2231       94.4991      18.244654       0.24544
  20     96.49       76.1481        2.6912       91.4110       94.1022      17.954173       0.16032
  19     114.6       75.9991        3.1808       90.5070       93.6879      17.688774       0.12392
  18     136.5       75.8078        3.7563       89.4803       93.2365      17.428685       0.10001
  17     162.9       75.5676        4.4346       88.3022       92.7368      17.169260       0.08292
  16     196.4       75.2276        5.3041       86.8606       92.1647      16.937048       0.05845
  15     218.7       74.9948        5.8688       85.9492       91.8180      16.823139       0.04325
  14     243.0       74.7383        6.4770       84.9789       91.4560      16.717690       0.03657
  13     269.0       74.4568        7.1297       83.9493       91.0790      16.622188       0.03098
  12     297.5       74.1498        7.8276       82.8589       90.6866      16.536757       0.02534
  11     328.5       73.8186        8.5732       81.6982       90.2715      16.452897       0.02280
  10     361.9       73.4630        9.3662       80.4669       89.8331      16.370092       0.02095
   9     398.1       73.0823       10.2083       79.1611       89.3695      16.287149       0.01932
   8     437.6       72.6769       11.1000       77.7777       88.8777      16.200794       0.01846
   7     480.5       72.2471       12.0414       76.3136       88.3551      16.107940       0.01824
   6     533.0       71.7256       13.1802       74.5359       87.7161      15.990408       0.01891
   5     589.8       71.1742       14.3831       72.6469       87.0301      15.855899       0.01997
   4     651.6       70.5949       15.6482       70.6456       86.2938      15.698853       0.02148
   3     718.7       69.9885       16.9732       68.5367       85.5099      15.521389       0.02230
   2     792.3       69.3577       18.3527       66.3287       84.6814      15.323679       0.02268
   1     891.5       68.5396       20.1509       63.4246       83.5755      15.035926       0.02449
   0    1013.0       67.6112       22.2140       60.0483       82.2624      14.651166       0.02672



 Wavenumbers: 22650. - 29000. cm-1, ATM      1
 LEVEL PRESSURE   UPWARD FLUX   DIFDOWN FLUX  DIRDOWN FLUX  DOWNWARD FLUX   NET FLUX    HEATING RATE
          mb          W/m2          W/m2          W/m2        W/m2          W/m2       degree/day
  51    .06700       34.3510        0.0000       38.0063       38.0063       3.655250       0.00000
  50    .07753       34.3509        0.0004       38.0057       38.0061       3.655250       0.00000
  49    .09103       34.3507        0.0009       38.0050       38.0059       3.655250       0.00000
  48    0.1069       34.3504        0.0014       38.0042       38.0057       3.655250      -0.00000
  47    0.1255       34.3501        0.0021       38.0033       38.0054       3.655250       0.00000
  46    0.1487       34.3498        0.0029       38.0022       38.0050       3.655250      -0.00000
  45    0.1794       34.3493        0.0040       38.0006       38.0046       3.655250       0.00000
  44    0.2165       34.3488        0.0053       37.9987       38.0040       3.655250      -0.00000
  43    0.2613       34.3481        0.0068       37.9965       38.0033       3.655250      -0.00000
  42    0.3336       34.3470        0.0094       37.9928       38.0022       3.655250       0.00000
  41    0.4307       34.3455        0.0128       37.9880       38.0008       3.655250       0.00000
  40    0.5894       34.3431        0.0183       37.9800       37.9984       3.655250      -0.00000
  39     1.339       34.3318        0.0446       37.9425       37.9870       3.655250      -0.00000
  38     1.782       34.3251        0.0600       37.9204       37.9804       3.655250       0.00000
  37     2.292       34.3174        0.0778       37.8949       37.9727       3.655250       0.00000
  36     2.964       34.3073        0.1012       37.8614       37.9626       3.655250       0.00000
  35     3.853       34.2940        0.1320       37.8172       37.9493       3.655250      -0.00000
  34     5.035       34.2763        0.1730       37.7586       37.9316       3.655250       0.00000
  33     6.613       34.2527        0.2276       37.6803       37.9079       3.655250       0.00000
  32     8.786       34.2209        0.3011       37.5750       37.8762       3.655250       0.00000
  31     11.80       34.1756        0.4060       37.4249       37.8308       3.655250       0.00000
  30     15.07       34.1270        0.5181       37.2642       37.7823       3.655250       0.00000
  29     18.79       34.0724        0.6443       37.0833       37.7276       3.655250       0.00000
  28     23.16       34.0088        0.7911       36.8730       37.6641       3.655250       0.00000
  27     28.12       33.9365        0.9580       36.6338       37.5917       3.655250      -0.00000
  26     33.73       33.8560        1.1435       36.3677       37.5112       3.655250       0.00000
  25     40.54       33.7594        1.3661       36.0486       37.4146       3.655250       0.00000
  24     48.69       33.6438        1.6318       35.6672       37.2991       3.655250       0.00000
  23     57.69       33.5181        1.9207       35.2527       37.1734       3.655250      -0.00000
  22     68.43       33.3700        2.2604       34.7649       37.0253       3.655250       0.00000
  21     81.20       33.1960        2.6590       34.1922       36.8512       3.655250       0.00000
  20     96.49       32.9919        3.1254       33.5217       36.6471       3.655250      -0.00000
  19     114.6       32.7541        3.6670       32.7424       36.4094       3.655250       0.00000
  18     136.5       32.4788        4.2925       31.8416       36.1341       3.655250       0.00000
  17     162.9       32.1598        5.0142       30.8008       35.8150       3.655250       0.00000
  16     196.4       31.7599        5.9144       29.5007       35.4151       3.655250       0.00000
  15     218.7       31.5055        6.4841       28.6767       35.1608       3.655250      -0.00000
  14     243.0       31.2362        7.0847       27.8068       34.8914       3.655250       0.00000
  13     269.0       30.9525        7.7144       26.8933       34.6077       3.655250       0.00000
  12     297.5       30.6550        8.3710       25.9393       34.3103       3.655250      -0.00000
  11     328.5       30.3438        9.0540       24.9451       33.9990       3.655250       0.00000
  10     361.9       30.0201        9.7594       23.9160       33.6754       3.655250      -0.00000
   9     398.1       29.6844       10.4856       22.8541       33.3397       3.655250       0.00000
   8     437.6       29.3379       11.2287       21.7645       32.9932       3.655250       0.00000
   7     480.5       28.9818       11.9849       20.6521       32.6371       3.655250       0.00000
   6     533.0       28.5638       12.8622       19.3569       32.2191       3.655250      -0.00000
   5     589.8       28.1369       13.7454       18.0467       31.7921       3.655250       0.00000
   4     651.6       27.7034       14.6271       16.7316       31.3587       3.655250       0.00000
   3     718.7       27.2659       15.4998       15.4214       30.9212       3.655250      -0.00000
   2     792.3       26.8273       16.3550       14.1276       30.4826       3.655250      -0.00000
   1     891.5       26.2804       17.3897       12.5459       29.9356       3.655250       0.00000
   0    1013.0       25.6848       18.4683       10.8717       29.3400       3.655250       0.00000



 Wavenumbers: 29000. - 38000. cm-1, ATM      1
 LEVEL PRESSURE   UPWARD FLUX   DIFDOWN FLUX  DIRDOWN FLUX  DOWNWARD FLUX   NET FLUX    HEATING RATE
          mb          W/m2          W/m2          W/m2        W/m2          W/m2       degree/day
  51    .06700        4.8873        0.0000       13.4026       13.4026       8.515286       0.00000
  50    .07753        4.8871        0.0003       13.3983       13.3986       8.511487       3.04438
  49    .09103        4.8868        0.0007       13.3921       13.3928       8.505968       3.44966
  48    0.1069        4.8865        0.0011       13.3840       13.3851       8.498591       3.92676
  47    0.1255        4.8862        0.0016       13.3733       13.3749       8.488746       4.46317
  46    0.1487        4.8857        0.0022       13.3579       13.3600       8.474304       5.26437
  45    0.1794        4.8852        0.0030       13.3340       13.3371       8.451904       6.14925
  44    0.2165        4.8845        0.0040       13.3024       13.3064       8.421886       6.82875
  43    0.2613        4.8837        0.0052       13.2604       13.2656       8.381831       7.55009
  42    0.3336        4.8825        0.0070       13.1833       13.1903       8.307825       8.62840
  41    0.4307        4.8810        0.0095       13.0729       13.0824       8.201453       9.24878
  40    0.5894        4.8786        0.0134       12.8796       12.8930       8.014411       9.94668
  39     1.339        4.8701        0.0296       11.9165       11.9462       7.076078      10.56393
  38     1.782        4.8668        0.0379       11.4399       11.4779       6.611101       8.85240
  37     2.292        4.8643        0.0468       10.9796       11.0264       6.162175       7.43539
  36     2.964        4.8628        0.0577       10.4786       10.5364       5.673552       6.13370
  35     3.853        4.8634        0.0712        9.9429       10.0141       5.150703       4.96193
  34     5.035        4.8668        0.0881        9.4007        9.4887       4.621980       3.77698
  33     6.613        4.8730        0.1094        8.8752        8.9846       4.111595       2.72852
  32     8.786        4.8816        0.1369        8.3786        8.5155       3.633866       1.85533
  31     11.80        4.8921        0.1746        7.8897        8.0643       3.172211       1.29249
  30     15.07        4.9011        0.2136        7.5108        7.7244       2.823292       0.90084
  29     18.79        4.9094        0.2560        7.1776        7.4336       2.524205       0.67812
  28     23.16        4.9170        0.3038        6.8664        7.1703       2.253225       0.52399
  27     28.12        4.9231        0.3567        6.5780        6.9347       2.011581       0.41078
  26     33.73        4.9253        0.4142        6.3195        6.7337       1.808457       0.30540
  25     40.54        4.9223        0.4822        6.0663        6.5484       1.626144       0.22618
  24     48.69        4.9136        0.5617        5.8128        6.3746       1.460951       0.17095
  23     57.69        4.8992        0.6466        5.5777        6.2243       1.325099       0.12734
  22     68.43        4.8769        0.7449        5.3379        6.0828       1.205919       0.09369
  21     81.20        4.8423        0.8589        5.0965        5.9554       1.113136       0.06131
  20     96.49        4.7942        0.9906        4.8476        5.8382       1.044032       0.03814
  19     114.6        4.7357        1.1397        4.5799        5.7196       0.983869       0.02809
  18     136.5        4.6680        1.3064        4.2891        5.5955       0.927467       0.02169
  17     162.9        4.5906        1.4911        3.9732        5.4643       0.873686       0.01719
  16     196.4        4.4926        1.7123        3.6080        5.3203       0.827703       0.01157
  15     218.7        4.4309        1.8469        3.3898        5.2367       0.805807       0.00831
  14     243.0        4.3666        1.9840        3.1686        5.1526       0.785941       0.00689
  13     269.0        4.3002        2.1226        2.9461        5.0686       0.768416       0.00569
  12     297.5        4.2320        2.2614        2.7239        4.9853       0.753251       0.00450
  11     328.5        4.1629        2.3990        2.5029        4.9019       0.739003       0.00387
  10     361.9        4.0933        2.5344        2.2846        4.8190       0.725696       0.00337
   9     398.1        4.0235        2.6661        2.0708        4.7368       0.713322       0.00288
   8     437.6        3.9541        2.7931        1.8626        4.6557       0.701617       0.00250
   7     480.5        3.8855        2.9140        1.6621        4.5762       0.690709       0.00214
   6     533.0        3.8083        3.0437        1.4437        4.4873       0.679046       0.00188
   5     589.8        3.7332        3.1622        1.2390        4.4012       0.667980       0.00164
   4     651.6        3.6608        3.2682        1.0500        4.3182       0.657360       0.00145
   3     718.7        3.5913        3.3607        0.8778        4.2385       0.647151       0.00128
   2     792.3        3.5251        3.4387        0.7237        4.1625       0.637332       0.00113
   1     891.5        3.4468        3.5159        0.5563        4.0722       0.625436       0.00101
   0    1013.0        3.3659        3.5746        0.4039        3.9785       0.612572       0.00089



 Wavenumbers: 38000. - 50000. cm-1, ATM      1
 LEVEL PRESSURE   UPWARD FLUX   DIFDOWN FLUX  DIRDOWN FLUX  DOWNWARD FLUX   NET FLUX    HEATING RATE
          mb          W/m2          W/m2          W/m2        W/m2          W/m2       degree/day
  51    .06700        0.0051        0.0000        0.8267        0.8267       0.821528       0.00000
  50    .07753        0.0051        0.0001        0.8242        0.8243       0.819196       1.86936
  49    .09103        0.0050        0.0002        0.8207        0.8209       0.815872       2.07705
  48    0.1069        0.0049        0.0002        0.8162        0.8164       0.811514       2.31984
  47    0.1255        0.0048        0.0004        0.8103        0.8106       0.805801       2.59006
  46    0.1487        0.0047        0.0005        0.8018        0.8023       0.797567       3.00143
  45    0.1794        0.0045        0.0007        0.7889        0.7896       0.785013       3.44648
  44    0.2165        0.0044        0.0009        0.7720        0.7729       0.768507       3.75474
  43    0.2613        0.0042        0.0011        0.7500        0.7511       0.746955       4.06246
  42    0.3336        0.0039        0.0015        0.7106        0.7121       0.708267       4.51071
  41    0.4307        0.0035        0.0019        0.6566        0.6584       0.654972       4.63387
  40    0.5894        0.0029        0.0024        0.5680        0.5704       0.567464       4.65357
  39     1.339        0.0015        0.0030        0.2422        0.2452       0.243720       3.64476
  38     1.782        0.0010        0.0026        0.1493        0.1519       0.150889       1.76735
  37     2.292        0.0007        0.0022        0.0924        0.0946       0.093932       0.94336
  36     2.964        0.0005        0.0018        0.0539        0.0557       0.055224       0.48589
  35     3.853        0.0003        0.0013        0.0295        0.0308       0.030502       0.23462
  34     5.035        0.0002        0.0010        0.0154        0.0164       0.016181       0.10230
  33     6.613        0.0001        0.0007        0.0073        0.0080       0.007912       0.04420
  32     8.786        0.0000        0.0004        0.0030        0.0034       0.003390       0.01756
  31     11.80        0.0000        0.0003        0.0010        0.0012       0.001199       0.00613
  30     15.07        0.0000        0.0001        0.0003        0.0005       0.000463       0.00190
  29     18.79        0.0000        0.0001        0.0001        0.0002       0.000182       0.00064
  28     23.16        0.0000        0.0000        0.0000        0.0001       0.000071       0.00022
  27     28.12        0.0000        0.0000        0.0000        0.0000       0.000028       0.00007
  26     33.73        0.0000        0.0000        0.0000        0.0000       0.000011       0.00002
  25     40.54        0.0000        0.0000        0.0000        0.0000       0.000005       0.00001
  24     48.69        0.0000        0.0000        0.0000        0.0000       0.000002       0.00000
  23     57.69        0.0000        0.0000        0.0000        0.0000       0.000001       0.00000
  22     68.43        0.0000        0.0000        0.0000        0.0000       0.000000       0.00000
  21     81.20        0.0000        0.0000        0.0000        0.0000       0.000000       0.00000
  20     96.49        0.0000        0.0000        0.0000        0.0000       0.000000       0.00000
  19     114.6        0.0000        0.0000        0.0000        0.0000       0.000000       0.00000
  18     136.5        0.0000        0.0000        0.0000        0.0000       0.000000       0.00000
  17     162.9        0.0000        0.0000        0.0000        0.0000       0.000000       0.00000
  16     196.4        0.0000        0.0000        0.0000        0.0000       0.000000       0.00000
  15     218.7        0.0000        0.0000        0.0000        0.0000       0.000000       0.00000
  14     243.0        0.0000        0.0000        0.0000        0.0000       0.000000       0.00000
  13     269.0        0.0000        0.0000        0.0000        0.0000       0.000000       0.00000
  12     297.5        0.0000        0.0000        0.0000        0.0000       0.000000       0.00000
  11     328.5        0.0000        0.0000        0.0000        0.0000       0.000000       0.00000
  10     361.9        0.0000        0.0000        0.0000        0.0000       0.000000       0.00000
   9     398.1        0.0000        0.0000        0.0000        0.0000       0.000000       0.00000
   8     437.6        0.0000        0.0000        0.0000        0.0000       0.000000       0.00000
   7     480.5        0.0000        0.0000        0.0000        0.0000       0.000000       0.00000
   6     533.0        0.0000        0.0000        0.0000        0.0000       0.000000       0.00000
   5     589.8        0.0000        0.0000        0.0000        0.0000       0.000000       0.00000
   4     651.6        0.0000        0.0000        0.0000        0.0000       0.000000       0.00000
   3     718.7        0.0000        0.0000        0.0000        0.0000       0.000000       0.00000
   2     792.3        0.0000        0.0000        0.0000        0.0000       0.000000       0.00000
   1     891.5        0.0000        0.0000        0.0000        0.0000       0.000000       0.00000
   0    1013.0        0.0000        0.0000        0.0000        0.0000       0.000000       0.00000



 Wavenumbers:   820. -  2600. cm-1, ATM      1
 LEVEL PRESSURE   UPWARD FLUX   DIFDOWN FLUX  DIRDOWN FLUX  DOWNWARD FLUX   NET FLUX    HEATING RATE
          mb          W/m2          W/m2          W/m2        W/m2          W/m2       degree/day
  51    .06700        0.1273        0.0000        3.8670        3.8670       3.739723       0.00000
  50    .07753        0.1273        0.0000        3.8643        3.8643       3.737006       2.17769
  49    .09103        0.1273        0.0000        3.8635        3.8635       3.736196       0.50638
  48    0.1069        0.1273        0.0000        3.8626        3.8626       3.735305       0.47415
  47    0.1255        0.1273        0.0000        3.8616        3.8616       3.734345       0.43559
  46    0.1487        0.1273        0.0000        3.8605        3.8605       3.733235       0.40437
  45    0.1794        0.1273        0.0000        3.8592        3.8592       3.731900       0.36647
  44    0.2165        0.1273        0.0000        3.8578        3.8578       3.730522       0.31346
  43    0.2613        0.1273        0.0000        3.8564        3.8564       3.729062       0.27522
  42    0.3336        0.1273        0.0000        3.8541        3.8541       3.726831       0.26012
  41    0.4307        0.1273        0.0000        3.8512        3.8512       3.723949       0.25063
  40    0.5894        0.1273        0.0000        3.8465        3.8465       3.719222       0.25133
  39     1.339        0.1273        0.0000        3.8251        3.8251       3.697847       0.24064
  38     1.782        0.1273        0.0000        3.8133        3.8133       3.686035       0.22489
  37     2.292        0.1273        0.0000        3.8003        3.8003       3.672974       0.21632
  36     2.964        0.1273        0.0000        3.7841        3.7841       3.656845       0.20246
  35     3.853        0.1273        0.0000        3.7642        3.7642       3.636931       0.18899
  34     5.035        0.1273        0.0000        3.7395        3.7395       3.612240       0.17638
  33     6.613        0.1273        0.0000        3.7090        3.7090       3.581705       0.16324
  32     8.786        0.1273        0.0000        3.6726        3.6726       3.545313       0.14133
  31     11.80        0.1273        0.0000        3.6320        3.6320       3.504719       0.11365
  30     15.07        0.1273        0.0000        3.6016        3.6016       3.474336       0.07844
  29     18.79        0.1273        0.0000        3.5777        3.5777       3.450440       0.05418
  28     23.16        0.1273        0.0000        3.5564        3.5564       3.429087       0.04129
  27     28.12        0.1273        0.0000        3.5348        3.5348       3.407543       0.03662
  26     33.73        0.1273        0.0000        3.5118        3.5118       3.384511       0.03463
  25     40.54        0.1273        0.0000        3.4849        3.4849       3.357626       0.03335
  24     48.69        0.1273        0.0000        3.4537        3.4537       3.326376       0.03234
  23     57.69        0.1273        0.0000        3.4210        3.4210       3.293705       0.03062
  22     68.43        0.1273        0.0000        3.3844        3.3844       3.257122       0.02876
  21     81.20        0.1273        0.0000        3.3441        3.3441       3.216826       0.02663
  20     96.49        0.1273        0.0000        3.2998        3.2998       3.172465       0.02448
  19     114.6        0.1273        0.0000        3.2506        3.2506       3.123321       0.02295
  18     136.5        0.1273        0.0000        3.1936        3.1936       3.066275       0.02194
  17     162.9        0.1274        0.0000        3.1181        3.1181       2.990776       0.02413
  16     196.4        0.1274        0.0000        3.0090        3.0090       2.881596       0.02748
  15     218.7        0.1274        0.0000        2.9420        2.9420       2.814596       0.02544
  14     243.0        0.1274        0.0000        2.8605        2.8605       2.733041       0.02829
  13     269.0        0.1275        0.0000        2.7419        2.7420       2.614470       0.03846
  12     297.5        0.1276        0.0000        2.5729        2.5729       2.445279       0.05018
  11     328.5        0.1278        0.0000        2.3602        2.3602       2.232411       0.05788
  10     361.9        0.1281        0.0000        2.1524        2.1524       2.024366       0.05264
   9     398.1        0.1285        0.0000        1.9974        1.9974       1.868953       0.03621
   8     437.6        0.1291        0.0000        1.8835        1.8835       1.754462       0.02448
   7     480.5        0.1299        0.0000        1.7734        1.7734       1.643533       0.02179
   6     533.0        0.1313        0.0000        1.6397        1.6398       1.508422       0.02174
   5     589.8        0.1334        0.0000        1.5068        1.5069       1.373443       0.02004
   4     651.6        0.1365        0.0000        1.3807        1.3807       1.244230       0.01767
   3     718.7        0.1406        0.0000        1.2680        1.2680       1.127449       0.01468
   2     792.3        0.1456        0.0000        1.1659        1.1660       1.020339       0.01228
   1     891.5        0.1541        0.0000        1.0372        1.0373       0.883145       0.01167
   0    1013.0        0.1695        0.0000        0.8716        0.8717       0.702137       0.01257

  Modules and versions used in this calculation:

       rrtmg_sw.1col.f90:  $Revision$                    rrtmg_sw_init.f90:  $Revision$        
     rrtmgsw_cldprop.f90:  $Revision$                  rrtmgsw_cldprmc.f90:  NOT USED          
     rrtmg_sw_reftra.f90:  $Revision$                  rrtmg_sw_spcvrt.f90:  NOT USED          
     rrtmg_sw_spcvmc.f90:  NOT USED                    rrtmgsw_setcoef.f90:  NOT USED          
     rrtmg_sw_taumol.f90:  $Revision$                  rrtmg_sw_vrtqdr.f90:  NOT USED          
                rrtatm.f:  NOT USED                             util_xxx.f:  NOT USED          
                 extra.f:  NOT USED                       rrtmg_sw_k_g.f90:  $Revision$        

