

 Wavenumbers:   820. - 50000. cm-1, ATM      1
 LEVEL PRESSURE   UPWARD FLUX   DIFDOWN FLUX  DIRDOWN FLUX  DOWNWARD FLUX   NET FLUX    HEATING RATE
          mb          W/m2          W/m2          W/m2        W/m2          W/m2       degree/day
  51    .06700      290.5003        0.0000      397.8738      397.8738     107.373508       0.00000
  50    .07753      290.4997        0.0012      397.8577      397.8589     107.359211      11.45908
  49    .09103      290.4990        0.0027      397.8418      397.8445     107.345515       8.56063
  48    0.1069      290.4982        0.0044      397.8230      397.8274     107.329156       8.70759
  47    0.1255      290.4973        0.0064      397.7997      397.8060     107.308700       9.27384
  46    0.1487      290.4963        0.0089      397.7676      397.7765     107.280223      10.38012
  45    0.1794      290.4949        0.0123      397.7205      397.7328     107.237902      11.61832
  44    0.2165      290.4933        0.0163      397.6602      397.6765     107.183214      12.44052
  43    0.2613      290.4915        0.0210      397.5829      397.6039     107.112364      13.35488
  42    0.3336      290.4888        0.0287      397.4449      397.4736     106.984826      14.86965
  41    0.4307      290.4855        0.0389      397.2524      397.2913     106.805810      15.56509
  40    0.5894      290.4808        0.0553      396.9253      396.9806     106.499814      16.27247
  39     1.339      290.4709        0.1286      395.4254      395.5540     105.083064      15.95003
  38     1.782      290.4734        0.1697      394.7288      394.8985     104.425120      12.52619
  37     2.292      290.4836        0.2166      394.0572      394.2737     103.790107      10.51747
  36     2.964      290.5080        0.2774      393.3007      393.5781     103.070073       9.03861
  35     3.853      290.5554        0.3569      392.4318      392.7887     102.233305       7.94109
  34     5.035      290.6335        0.4616      391.4441      391.9057     101.272209       6.86567
  33     6.613      290.7460        0.6003      390.3268      390.9270     100.181093       5.83311
  32     8.786      290.8913        0.7858      389.0624      389.8482      98.956875       4.75442
  31     11.80      291.0734        1.0492      387.5500      388.5991      97.525738       4.00673
  30     15.07      291.2386        1.3297      386.1556      387.4853      96.246687       3.30226
  29     18.79      291.3982        1.6442      384.7502      386.3944      94.996142       2.83537
  28     23.16      291.5535        2.0086      383.2686      385.2773      93.723731       2.46043
  27     28.12      291.6948        2.4221      381.7329      384.1550      92.460268       2.14780
  26     33.73      291.7996        2.8816      380.1982      383.0798      91.280227       1.77422
  25     40.54      291.8646        3.4329      378.5384      381.9712      90.106670       1.45593
  24     48.69      291.8838        4.0917      376.7214      380.8132      88.929359       1.21833
  23     57.69      291.8483        4.8089      374.8959      379.7048      87.856539       1.00561
  22     68.43      291.7452        5.6548      372.8999      378.5547      86.809559       0.82307
  21     81.20      291.5382        6.6522      370.7496      377.4018      85.863574       0.62509
  20     96.49      291.2158        7.8262      368.4056      376.2318      85.016036       0.46778
  19     114.6      290.8083        9.1984      365.7513      374.9497      84.141380       0.40840
  18     136.5      290.3085       10.7933      362.7231      373.5164      83.207944       0.35893
  17     162.9      289.7041       12.6490      359.1748      371.8238      82.119726       0.34784
  16     196.4      288.8889       14.9913      354.5718      369.5631      80.674188       0.36386
  15     218.7      288.3488       16.4910      351.4437      367.9347      79.585971       0.41316
  14     243.0      287.7672       18.0876      347.7111      365.7988      78.031573       0.53912
  13     269.0      287.1476       19.7796      342.9441      362.7237      75.576082       0.79655
  12     297.5      286.4948       21.5649      337.4137      358.9786      72.483787       0.91714
  11     328.5      285.8193       23.4457      331.1302      354.5760      68.756617       1.01341
  10     361.9      285.1327       25.4167      324.1219      349.5387      64.406000       1.10075
   9     398.1      284.4476       27.4779      316.6066      344.0844      59.636804       1.11112
   8     437.6      283.7896       29.6248      308.5895      338.2142      54.424612       1.11440
   7     480.5      283.2050       31.8520      299.9349      331.7869      48.581851       1.14750
   6     533.0      282.6839       34.4953      289.7021      324.1974      41.513536       1.13707
   5     589.8      282.4104       37.2298      279.3388      316.5686      34.158213       1.09177
   4     651.6      282.5471       40.0440      268.7786      308.8226      26.275496       1.07798
   3     718.7      283.2352       42.9295      258.2837      301.2131      17.977982       1.04277
   2     792.3      284.6624       45.8727      248.0774      293.9501       9.287737       0.99667
   1     891.5       16.6946       23.6423        0.0000       23.6423       6.947683       0.19913
   0    1013.0       16.6625       23.4658        0.0000       23.4658       6.803307       0.01002



 Wavenumbers:  2600. -  3250. cm-1, ATM      1
 LEVEL PRESSURE   UPWARD FLUX   DIFDOWN FLUX  DIRDOWN FLUX  DOWNWARD FLUX   NET FLUX    HEATING RATE
          mb          W/m2          W/m2          W/m2        W/m2          W/m2       degree/day
  51    .06700        1.2475        0.0000        3.5066        3.5066       2.259156       0.00000
  50    .07753        1.2475        0.0000        3.5066        3.5066       2.259148       0.00640
  49    .09103        1.2475        0.0000        3.5066        3.5066       2.259138       0.00627
  48    0.1069        1.2475        0.0000        3.5066        3.5066       2.259127       0.00613
  47    0.1255        1.2475        0.0000        3.5066        3.5066       2.259113       0.00599
  46    0.1487        1.2475        0.0000        3.5066        3.5066       2.259097       0.00607
  45    0.1794        1.2475        0.0000        3.5065        3.5065       2.259074       0.00624
  44    0.2165        1.2475        0.0000        3.5065        3.5065       2.259047       0.00611
  43    0.2613        1.2475        0.0000        3.5065        3.5065       2.259015       0.00598
  42    0.3336        1.2475        0.0000        3.5064        3.5064       2.258963       0.00615
  41    0.4307        1.2475        0.0000        3.5064        3.5064       2.258892       0.00618
  40    0.5894        1.2475        0.0000        3.5062        3.5062       2.258773       0.00633
  39     1.339        1.2475        0.0000        3.5055        3.5055       2.258074       0.00787
  38     1.782        1.2475        0.0000        3.5050        3.5050       2.257543       0.01011
  37     2.292        1.2475        0.0000        3.5043        3.5043       2.256850       0.01147
  36     2.964        1.2475        0.0000        3.5033        3.5033       2.255859       0.01245
  35     3.853        1.2475        0.0000        3.5019        3.5019       2.254482       0.01307
  34     5.035        1.2475        0.0000        3.5001        3.5001       2.252621       0.01329
  33     6.613        1.2475        0.0000        3.4977        3.4977       2.250211       0.01288
  32     8.786        1.2475        0.0000        3.4947        3.4947       2.247240       0.01154
  31     11.80        1.2475        0.0000        3.4911        3.4911       2.243603       0.01018
  30     15.07        1.2475        0.0000        3.4878        3.4878       2.240381       0.00832
  29     18.79        1.2475        0.0000        3.4848        3.4848       2.237316       0.00695
  28     23.16        1.2475        0.0000        3.4816        3.4816       2.234093       0.00623
  27     28.12        1.2475        0.0000        3.4779        3.4779       2.230471       0.00616
  26     33.73        1.2475        0.0000        3.4735        3.4735       2.225999       0.00672
  25     40.54        1.2475        0.0000        3.4671        3.4672       2.219664       0.00786
  24     48.69        1.2475        0.0000        3.4582        3.4583       2.210755       0.00922
  23     57.69        1.2475        0.0000        3.4472        3.4472       2.199688       0.01037
  22     68.43        1.2476        0.0000        3.4329        3.4330       2.185400       0.01123
  21     81.20        1.2476        0.0000        3.4152        3.4152       2.167631       0.01174
  20     96.49        1.2477        0.0000        3.3940        3.3941       2.146430       0.01170
  19     114.6        1.2477        0.0000        3.3692        3.3692       2.121460       0.01166
  18     136.5        1.2479        0.0001        3.3419        3.3420       2.094126       0.01051
  17     162.9        1.2481        0.0001        3.3129        3.3129       2.064876       0.00935
  16     196.4        1.2484        0.0001        3.2793        3.2794       2.030985       0.00853
  15     218.7        1.2488        0.0001        3.2578        3.2579       2.009059       0.00832
  14     243.0        1.2494        0.0001        3.2320        3.2321       1.982702       0.00914
  13     269.0        1.2503        0.0001        3.1968        3.1969       1.946665       0.01169
  12     297.5        1.2517        0.0001        3.1489        3.1491       1.897365       0.01462
  11     328.5        1.2539        0.0001        3.0821        3.0822       1.828333       0.01877
  10     361.9        1.2570        0.0001        2.9902        2.9904       1.733330       0.02404
   9     398.1        1.2617        0.0001        2.8715        2.8716       1.609971       0.02874
   8     437.6        1.2683        0.0002        2.7276        2.7278       1.459463       0.03218
   7     480.5        1.2784        0.0002        2.5595        2.5597       1.281267       0.03500
   6     533.0        1.2955        0.0002        2.3617        2.3619       1.066423       0.03456
   5     589.8        1.3207        0.0002        2.1649        2.1651       0.844386       0.03296
   4     651.6        1.3585        0.0002        1.9608        1.9609       0.602436       0.03309
   3     718.7        1.4131        0.0002        1.7593        1.7595       0.346437       0.03217
   2     792.3        1.4903        0.0002        1.5761        1.5762       0.085976       0.02987
   1     891.5        0.0018        0.0269        0.0000        0.0269       0.025058       0.00518
   0    1013.0        0.0019        0.0250        0.0000        0.0250       0.023099       0.00014



 Wavenumbers:  3250. -  4000. cm-1, ATM      1
 LEVEL PRESSURE   UPWARD FLUX   DIFDOWN FLUX  DIRDOWN FLUX  DOWNWARD FLUX   NET FLUX    HEATING RATE
          mb          W/m2          W/m2          W/m2        W/m2          W/m2       degree/day
  51    .06700        0.0125        0.0000        5.9117        5.9117       5.899132       0.00000
  50    .07753        0.0125        0.0000        5.9075        5.9075       5.894942       3.35808
  49    .09103        0.0125        0.0000        5.9050        5.9050       5.892499       1.52677
  48    0.1069        0.0125        0.0000        5.9032        5.9032       5.890633       0.99346
  47    0.1255        0.0125        0.0000        5.9014        5.9014       5.888875       0.79708
  46    0.1487        0.0125        0.0000        5.8995        5.8995       5.886986       0.68848
  45    0.1794        0.0125        0.0000        5.8974        5.8974       5.884837       0.58983
  44    0.2165        0.0125        0.0000        5.8952        5.8952       5.882720       0.48155
  43    0.2613        0.0125        0.0000        5.8931        5.8931       5.880561       0.40696
  42    0.3336        0.0125        0.0000        5.8899        5.8899       5.877403       0.36820
  41    0.4307        0.0125        0.0000        5.8861        5.8861       5.873566       0.33365
  40    0.5894        0.0125        0.0000        5.8803        5.8803       5.867764       0.30857
  39     1.339        0.0125        0.0000        5.8597        5.8597       5.847166       0.23189
  38     1.782        0.0125        0.0000        5.8513        5.8513       5.838742       0.16039
  37     2.292        0.0125        0.0000        5.8431        5.8431       5.830570       0.13533
  36     2.964        0.0125        0.0000        5.8334        5.8334       5.820931       0.12100
  35     3.853        0.0125        0.0000        5.8213        5.8213       5.808755       0.11555
  34     5.035        0.0125        0.0000        5.8052        5.8052       5.792660       0.11498
  33     6.613        0.0125        0.0000        5.7833        5.7834       5.770839       0.11666
  32     8.786        0.0125        0.0000        5.7531        5.7531       5.740637       0.11729
  31     11.80        0.0125        0.0000        5.7090        5.7090       5.696469       0.12366
  30     15.07        0.0125        0.0000        5.6615        5.6615       5.649004       0.12254
  29     18.79        0.0125        0.0000        5.6093        5.6094       5.596868       0.11821
  28     23.16        0.0125        0.0000        5.5524        5.5524       5.539942       0.11008
  27     28.12        0.0125        0.0000        5.4935        5.4935       5.481063       0.10009
  26     33.73        0.0125        0.0000        5.4348        5.4349       5.422375       0.08824
  25     40.54        0.0125        0.0001        5.3707        5.3708       5.358313       0.07948
  24     48.69        0.0125        0.0001        5.2985        5.2985       5.286080       0.07475
  23     57.69        0.0124        0.0001        5.2215        5.2216       5.209141       0.07212
  22     68.43        0.0124        0.0001        5.1318        5.1319       5.119481       0.07048
  21     81.20        0.0124        0.0001        5.0284        5.0285       5.016052       0.06834
  20     96.49        0.0124        0.0001        4.9122        4.9123       4.899917       0.06410
  19     114.6        0.0124        0.0001        4.7780        4.7782       4.765806       0.06262
  18     136.5        0.0124        0.0002        4.6285        4.6287       4.616328       0.05748
  17     162.9        0.0123        0.0002        4.4406        4.4407       4.428415       0.06006
  16     196.4        0.0123        0.0002        4.1548        4.1550       4.142739       0.07191
  15     218.7        0.0123        0.0002        3.9564        3.9566       3.944356       0.07532
  14     243.0        0.0123        0.0002        3.7055        3.7058       3.693515       0.08700
  13     269.0        0.0123        0.0002        3.3399        3.3401       3.327860       0.11862
  12     297.5        0.0123        0.0002        2.8954        2.8956       2.883335       0.13184
  11     328.5        0.0123        0.0002        2.4388        2.4390       2.426725       0.12415
  10     361.9        0.0124        0.0002        2.0269        2.0271       2.014657       0.10426
   9     398.1        0.0126        0.0002        1.6753        1.6755       1.662844       0.08196
   8     437.6        0.0130        0.0002        1.3592        1.3594       1.346333       0.06767
   7     480.5        0.0137        0.0002        1.0616        1.0618       1.048038       0.05858
   6     533.0        0.0152        0.0001        0.7543        0.7544       0.739238       0.04968
   5     589.8        0.0179        0.0001        0.4951        0.4952       0.477345       0.03887
   4     651.6        0.0232        0.0001        0.2943        0.2943       0.271184       0.02819
   3     718.7        0.0335        0.0001        0.1528        0.1529       0.119330       0.01908
   2     792.3        0.0548        0.0000        0.0658        0.0658       0.011064       0.01242
   1     891.5        0.0000        0.0000        0.0000        0.0000       0.000023       0.00094
   0    1013.0        0.0000        0.0000        0.0000        0.0000       0.000005       0.00000



 Wavenumbers:  4000. -  4650. cm-1, ATM      1
 LEVEL PRESSURE   UPWARD FLUX   DIFDOWN FLUX  DIRDOWN FLUX  DOWNWARD FLUX   NET FLUX    HEATING RATE
          mb          W/m2          W/m2          W/m2        W/m2          W/m2       degree/day
  51    .06700        4.3975        0.0000        6.9421        6.9421       2.544533       0.00000
  50    .07753        4.3975        0.0000        6.9421        6.9421       2.544532       0.00079
  49    .09103        4.3975        0.0000        6.9421        6.9421       2.544530       0.00078
  48    0.1069        4.3975        0.0000        6.9421        6.9421       2.544529       0.00076
  47    0.1255        4.3975        0.0000        6.9421        6.9421       2.544527       0.00074
  46    0.1487        4.3975        0.0000        6.9421        6.9421       2.544525       0.00075
  45    0.1794        4.3975        0.0000        6.9421        6.9421       2.544522       0.00077
  44    0.2165        4.3975        0.0000        6.9421        6.9421       2.544519       0.00076
  43    0.2613        4.3975        0.0000        6.9420        6.9420       2.544515       0.00074
  42    0.3336        4.3975        0.0000        6.9420        6.9420       2.544509       0.00076
  41    0.4307        4.3975        0.0000        6.9420        6.9420       2.544500       0.00077
  40    0.5894        4.3975        0.0000        6.9420        6.9420       2.544485       0.00079
  39     1.339        4.3975        0.0000        6.9419        6.9419       2.544396       0.00100
  38     1.782        4.3975        0.0000        6.9418        6.9419       2.544327       0.00132
  37     2.292        4.3975        0.0000        6.9418        6.9418       2.544233       0.00155
  36     2.964        4.3975        0.0000        6.9416        6.9416       2.544094       0.00175
  35     3.853        4.3975        0.0000        6.9414        6.9414       2.543887       0.00196
  34     5.035        4.3975        0.0000        6.9411        6.9411       2.543582       0.00218
  33     6.613        4.3975        0.0000        6.9406        6.9407       2.543134       0.00240
  32     8.786        4.3975        0.0000        6.9399        6.9400       2.542472       0.00257
  31     11.80        4.3975        0.0001        6.9389        6.9389       2.541436       0.00290
  30     15.07        4.3975        0.0001        6.9377        6.9377       2.540223       0.00313
  29     18.79        4.3975        0.0001        6.9362        6.9363       2.538760       0.00332
  28     23.16        4.3975        0.0001        6.9343        6.9345       2.536951       0.00350
  27     28.12        4.3975        0.0001        6.9321        6.9323       2.534768       0.00371
  26     33.73        4.3975        0.0002        6.9294        6.9296       2.532088       0.00403
  25     40.54        4.3975        0.0002        6.9258        6.9260       2.528472       0.00449
  24     48.69        4.3975        0.0002        6.9210        6.9212       2.523679       0.00496
  23     57.69        4.3976        0.0003        6.9154        6.9156       2.518035       0.00529
  22     68.43        4.3976        0.0003        6.9083        6.9087       2.511008       0.00552
  21     81.20        4.3977        0.0004        6.8998        6.9001       2.502401       0.00569
  20     96.49        4.3979        0.0004        6.8894        6.8899       2.491984       0.00575
  19     114.6        4.3981        0.0005        6.8765        6.8770       2.478909       0.00611
  18     136.5        4.3985        0.0006        6.8610        6.8616       2.463088       0.00608
  17     162.9        4.3991        0.0007        6.8417        6.8424       2.443323       0.00632
  16     196.4        4.4001        0.0009        6.8147        6.8155       2.415461       0.00701
  15     218.7        4.4010        0.0010        6.7948        6.7958       2.394842       0.00783
  14     243.0        4.4023        0.0011        6.7698        6.7709       2.368582       0.00911
  13     269.0        4.4044        0.0012        6.7349        6.7360       2.331686       0.01197
  12     297.5        4.4075        0.0013        6.6869        6.6882       2.280695       0.01512
  11     328.5        4.4119        0.0014        6.6194        6.6208       2.208919       0.01952
  10     361.9        4.4177        0.0016        6.5295        6.5310       2.113295       0.02419
   9     398.1        4.4255        0.0017        6.4202        6.4219       1.996455       0.02722
   8     437.6        4.4359        0.0019        6.2962        6.2980       1.862168       0.02871
   7     480.5        4.4504        0.0020        6.1555        6.1575       1.707121       0.03045
   6     533.0        4.4743        0.0022        5.9675        5.9697       1.495440       0.03405
   5     589.8        4.5096        0.0023        5.7368        5.7391       1.229467       0.03948
   4     651.6        4.5627        0.0025        5.4662        5.4687       0.906004       0.04423
   3     718.7        4.6393        0.0027        5.1912        5.1939       0.554621       0.04416
   2     792.3        4.7465        0.0029        4.9395        4.9423       0.195859       0.04115
   1     891.5        0.0057        0.1103        0.0000        0.1103       0.104561       0.00777
   0    1013.0        0.0059        0.1072        0.0000        0.1072       0.101289       0.00023



 Wavenumbers:  4650. -  5150. cm-1, ATM      1
 LEVEL PRESSURE   UPWARD FLUX   DIFDOWN FLUX  DIRDOWN FLUX  DOWNWARD FLUX   NET FLUX    HEATING RATE
          mb          W/m2          W/m2          W/m2        W/m2          W/m2       degree/day
  51    .06700        3.0897        0.0000        6.5710        6.5710       3.481272       0.00000
  50    .07753        3.0897        0.0000        6.5708        6.5708       3.481036       0.18887
  49    .09103        3.0897        0.0000        6.5705        6.5705       3.480742       0.18362
  48    0.1069        3.0897        0.0000        6.5701        6.5701       3.480408       0.17806
  47    0.1255        3.0897        0.0000        6.5697        6.5697       3.480027       0.17238
  46    0.1487        3.0897        0.0000        6.5693        6.5693       3.479554       0.17268
  45    0.1794        3.0897        0.0000        6.5686        6.5686       3.478917       0.17474
  44    0.2165        3.0897        0.0000        6.5679        6.5679       3.478179       0.16788
  43    0.2613        3.0897        0.0000        6.5670        6.5670       3.477326       0.16078
  42    0.3336        3.0897        0.0000        6.5657        6.5657       3.475963       0.15894
  41    0.4307        3.0897        0.0000        6.5640        6.5640       3.474241       0.14971
  40    0.5894        3.0897        0.0000        6.5613        6.5613       3.471625       0.13913
  39     1.339        3.0897        0.0000        6.5516        6.5516       3.461847       0.11008
  38     1.782        3.0897        0.0000        6.5473        6.5473       3.457631       0.08027
  37     2.292        3.0897        0.0000        6.5434        6.5435       3.453743       0.06439
  36     2.964        3.0897        0.0000        6.5395        6.5395       3.449788       0.04965
  35     3.853        3.0897        0.0000        6.5355        6.5356       3.445844       0.03743
  34     5.035        3.0897        0.0000        6.5315        6.5315       3.441839       0.02861
  33     6.613        3.0897        0.0000        6.5271        6.5271       3.437441       0.02351
  32     8.786        3.0897        0.0001        6.5216        6.5216       3.431938       0.02137
  31     11.80        3.0897        0.0001        6.5135        6.5136       3.423846       0.02266
  30     15.07        3.0897        0.0001        6.5041        6.5042       3.414460       0.02423
  29     18.79        3.0897        0.0001        6.4925        6.4927       3.402919       0.02617
  28     23.16        3.0898        0.0002        6.4779        6.4780       3.388291       0.02829
  27     28.12        3.0898        0.0002        6.4599        6.4601       3.370268       0.03064
  26     33.73        3.0898        0.0002        6.4384        6.4386       3.348772       0.03232
  25     40.54        3.0899        0.0003        6.4112        6.4115       3.321556       0.03376
  24     48.69        3.0901        0.0003        6.3775        6.3778       3.287792       0.03494
  23     57.69        3.0902        0.0004        6.3404        6.3408       3.250537       0.03492
  22     68.43        3.0904        0.0004        6.2971        6.2976       3.207123       0.03413
  21     81.20        3.0908        0.0005        6.2483        6.2488       3.157999       0.03246
  20     96.49        3.0912        0.0006        6.1948        6.1954       3.104203       0.02969
  19     114.6        3.0919        0.0007        6.1381        6.1389       3.046985       0.02672
  18     136.5        3.0928        0.0009        6.0790        6.0799       2.987074       0.02304
  17     162.9        3.0941        0.0010        6.0160        6.0171       2.922998       0.02048
  16     196.4        3.0960        0.0012        5.9399        5.9411       2.845032       0.01963
  15     218.7        3.0976        0.0013        5.8896        5.8910       2.793338       0.01963
  14     243.0        3.0997        0.0015        5.8322        5.8337       2.733946       0.02060
  13     269.0        3.1027        0.0016        5.7624        5.7640       2.661352       0.02355
  12     297.5        3.1069        0.0018        5.6767        5.6785       2.571647       0.02661
  11     328.5        3.1126        0.0019        5.5726        5.5745       2.461970       0.02982
  10     361.9        3.1203        0.0021        5.4473        5.4494       2.329166       0.03360
   9     398.1        3.1306        0.0023        5.2995        5.3018       2.171164       0.03681
   8     437.6        3.1445        0.0024        5.1275        5.1299       1.985452       0.03971
   7     480.5        3.1634        0.0026        4.9290        4.9316       1.768172       0.04267
   6     533.0        3.1934        0.0028        4.6794        4.6822       1.488734       0.04495
   5     589.8        3.2356        0.0030        4.4188        4.4218       1.186167       0.04491
   4     651.6        3.2957        0.0032        4.1521        4.1552       0.859577       0.04466
   3     718.7        3.3781        0.0033        3.8929        3.8963       0.518213       0.04290
   2     792.3        3.4892        0.0035        3.6469        3.6504       0.161148       0.04095
   1     891.5        0.0040        0.0750        0.0000        0.0750       0.071039       0.00767
   0    1013.0        0.0041        0.0722        0.0000        0.0722       0.068115       0.00020



 Wavenumbers:  5150. -  6150. cm-1, ATM      1
 LEVEL PRESSURE   UPWARD FLUX   DIFDOWN FLUX  DIRDOWN FLUX  DOWNWARD FLUX   NET FLUX    HEATING RATE
          mb          W/m2          W/m2          W/m2        W/m2          W/m2       degree/day
  51    .06700        7.6016        0.0000       16.4735       16.4735       8.871866       0.00000
  50    .07753        7.6016        0.0000       16.4735       16.4735       8.871831       0.02765
  49    .09103        7.6016        0.0000       16.4734       16.4734       8.871786       0.02814
  48    0.1069        7.6016        0.0000       16.4734       16.4734       8.871733       0.02863
  47    0.1255        7.6016        0.0000       16.4733       16.4733       8.871668       0.02908
  46    0.1487        7.6016        0.0000       16.4732       16.4732       8.871584       0.03063
  45    0.1794        7.6016        0.0000       16.4731       16.4731       8.871465       0.03272
  44    0.2165        7.6016        0.0000       16.4730       16.4730       8.871319       0.03334
  43    0.2613        7.6016        0.0000       16.4728       16.4728       8.871139       0.03379
  42    0.3336        7.6016        0.0000       16.4725       16.4725       8.870833       0.03568
  41    0.4307        7.6016        0.0000       16.4720       16.4720       8.870414       0.03649
  40    0.5894        7.6016        0.0000       16.4713       16.4713       8.869712       0.03732
  39     1.339        7.6016        0.0000       16.4679       16.4679       8.866299       0.03842
  38     1.782        7.6016        0.0001       16.4659       16.4659       8.864296       0.03813
  37     2.292        7.6016        0.0001       16.4635       16.4636       8.862001       0.03802
  36     2.964        7.6016        0.0001       16.4605       16.4606       8.859025       0.03736
  35     3.853        7.6016        0.0001       16.4567       16.4568       8.855162       0.03666
  34     5.035        7.6016        0.0001       16.4516       16.4517       8.850151       0.03580
  33     6.613        7.6016        0.0002       16.4451       16.4453       8.843670       0.03465
  32     8.786        7.6016        0.0003       16.4367       16.4369       8.835327       0.03240
  31     11.80        7.6016        0.0004       16.4254       16.4257       8.824128       0.03135
  30     15.07        7.6016        0.0004       16.4141       16.4146       8.812984       0.02877
  29     18.79        7.6016        0.0006       16.4024       16.4030       8.801394       0.02628
  28     23.16        7.6016        0.0007       16.3900       16.3907       8.789046       0.02388
  27     28.12        7.6016        0.0008       16.3771       16.3779       8.776277       0.02171
  26     33.73        7.6017        0.0010       16.3641       16.3651       8.763420       0.01933
  25     40.54        7.6018        0.0012       16.3502       16.3514       8.749601       0.01714
  24     48.69        7.6019        0.0014       16.3354       16.3368       8.734887       0.01523
  23     57.69        7.6021        0.0017       16.3211       16.3228       8.720700       0.01330
  22     68.43        7.6023        0.0020       16.3062       16.3083       8.705947       0.01160
  21     81.20        7.6026        0.0024       16.2903       16.2927       8.690098       0.01047
  20     96.49        7.6030        0.0029       16.2726       16.2755       8.672462       0.00973
  19     114.6        7.6035        0.0034       16.2521       16.2555       8.651959       0.00957
  18     136.5        7.6041        0.0040       16.2245       16.2286       8.624450       0.01058
  17     162.9        7.6049        0.0048       16.1747       16.1795       8.574610       0.01593
  16     196.4        7.6060        0.0057       16.0518       16.0576       8.451545       0.03098
  15     218.7        7.6068        0.0063       15.8984       15.9047       8.297876       0.05834
  14     243.0        7.6079        0.0070       15.6153       15.6222       8.014355       0.09833
  13     269.0        7.6093        0.0076       15.1390       15.1466       7.537265       0.15477
  12     297.5        7.6113        0.0082       14.5779       14.5860       6.974710       0.16685
  11     328.5        7.6143        0.0087       13.8780       13.8867       6.272404       0.19095
  10     361.9        7.6187        0.0092       13.0814       13.0907       5.471931       0.20253
   9     398.1        7.6251        0.0097       12.2728       12.2826       4.657427       0.18976
   8     437.6        7.6346        0.0102       11.4776       11.4877       3.853167       0.17196
   7     480.5        7.6491        0.0106       10.7300       10.7405       3.091462       0.14960
   6     533.0        7.6751        0.0111       10.0326       10.0437       2.368612       0.11628
   5     589.8        7.7167        0.0117        9.5050        9.5168       1.800103       0.08439
   4     651.6        7.7839        0.0125        9.0814        9.0939       1.309937       0.06703
   3     718.7        7.8877        0.0133        8.7024        8.7158       0.828099       0.06055
   2     792.3        8.0419        0.0143        8.3379        8.3522       0.310355       0.05938
   1     891.5        0.0117        0.2002        0.0000        0.2002       0.188587       0.01036
   0    1013.0        0.0118        0.1969        0.0000        0.1969       0.185099       0.00024



 Wavenumbers:  6150. -  7700. cm-1, ATM      1
 LEVEL PRESSURE   UPWARD FLUX   DIFDOWN FLUX  DIRDOWN FLUX  DOWNWARD FLUX   NET FLUX    HEATING RATE
          mb          W/m2          W/m2          W/m2        W/m2          W/m2       degree/day
  51    .06700       11.8970        0.0000       30.4684       30.4684      18.571373       0.00000
  50    .07753       11.8970        0.0000       30.4683       30.4683      18.571322       0.04144
  49    .09103       11.8970        0.0000       30.4683       30.4683      18.571255       0.04174
  48    0.1069       11.8970        0.0000       30.4682       30.4682      18.571176       0.04202
  47    0.1255       11.8970        0.0000       30.4681       30.4681      18.571083       0.04227
  46    0.1487       11.8970        0.0000       30.4680       30.4680      18.570962       0.04411
  45    0.1794       11.8970        0.0000       30.4678       30.4678      18.570792       0.04669
  44    0.2165       11.8970        0.0000       30.4676       30.4676      18.570584       0.04715
  43    0.2613       11.8970        0.0000       30.4673       30.4673      18.570333       0.04744
  42    0.3336       11.8970        0.0000       30.4669       30.4669      18.569906       0.04974
  41    0.4307       11.8970        0.0000       30.4663       30.4663      18.569325       0.05052
  40    0.5894       11.8970        0.0001       30.4653       30.4653      18.568357       0.05146
  39     1.339       11.8969        0.0002       30.4604       30.4606      18.563674       0.05273
  38     1.782       11.8969        0.0002       30.4576       30.4578      18.560924       0.05235
  37     2.292       11.8968        0.0003       30.4543       30.4546      18.557765       0.05231
  36     2.964       11.8968        0.0004       30.4501       30.4504      18.553658       0.05156
  35     3.853       11.8967        0.0005       30.4445       30.4450      18.548301       0.05084
  34     5.035       11.8966        0.0006       30.4373       30.4379      18.541301       0.05000
  33     6.613       11.8964        0.0008       30.4278       30.4286      18.532153       0.04890
  32     8.786       11.8963        0.0011       30.4154       30.4165      18.520200       0.04642
  31     11.80       11.8960        0.0014       30.3984       30.3998      18.503814       0.04588
  30     15.07       11.8957        0.0018       30.3810       30.3828      18.487100       0.04315
  29     18.79       11.8954        0.0023       30.3623       30.3646      18.469198       0.04059
  28     23.16       11.8950        0.0028       30.3417       30.3445      18.449514       0.03806
  27     28.12       11.8946        0.0034       30.3196       30.3230      18.428412       0.03587
  26     33.73       11.8941        0.0041       30.2965       30.3006      18.406491       0.03296
  25     40.54       11.8935        0.0049       30.2708       30.2757      18.382150       0.03020
  24     48.69       11.8929        0.0059       30.2423       30.2482      18.355369       0.02771
  23     57.69       11.8921        0.0070       30.2139       30.2209      18.328796       0.02491
  22     68.43       11.8912        0.0083       30.1834       30.1917      18.300513       0.02223
  21     81.20       11.8901        0.0099       30.1500       30.1599      18.269773       0.02031
  20     96.49       11.8888        0.0117       30.1126       30.1244      18.235539       0.01889
  19     114.6       11.8873        0.0139       30.0695       30.0834      18.196129       0.01840
  18     136.5       11.8855        0.0165       30.0139       30.0305      18.144936       0.01969
  17     162.9       11.8834        0.0196       29.9225       29.9421      18.058676       0.02757
  16     196.4       11.8808        0.0236       29.7333       29.7569      17.876104       0.04596
  15     218.7       11.8792        0.0262       29.5259       29.5520      17.672774       0.07720
  14     243.0       11.8777        0.0288       29.1375       29.1663      17.288564       0.13326
  13     269.0       11.8768        0.0314       28.3800       28.4114      16.534690       0.24455
  12     297.5       11.8768        0.0339       27.3895       27.4235      15.546690       0.29303
  11     328.5       11.8787        0.0363       26.2257       26.2620      14.383377       0.31630
  10     361.9       11.8836        0.0386       24.8453       24.8839      13.000311       0.34993
   9     398.1       11.8933        0.0406       23.3471       23.3877      11.494430       0.35084
   8     437.6       11.9106        0.0424       21.7966       21.8391       9.928520       0.33480
   7     480.5       11.9413        0.0440       20.1977       20.2417       8.300387       0.31976
   6     533.0       12.0011        0.0457       18.4969       18.5426       6.541456       0.28296
   5     589.8       12.1009        0.0474       16.9754       17.0227       4.921846       0.24040
   4     651.6       12.2663        0.0491       15.6022       15.6512       3.384982       0.21017
   3     718.7       12.5235        0.0510       14.4232       14.4742       1.950680       0.18025
   2     792.3       12.9101        0.0532       13.4386       13.4918       0.581757       0.15700
   1     891.5        0.0178        0.2944        0.0000        0.2944       0.276581       0.02597
   0    1013.0        0.0182        0.2857        0.0000        0.2857       0.267477       0.00063



 Wavenumbers:  7700. -  8050. cm-1, ATM      1
 LEVEL PRESSURE   UPWARD FLUX   DIFDOWN FLUX  DIRDOWN FLUX  DOWNWARD FLUX   NET FLUX    HEATING RATE
          mb          W/m2          W/m2          W/m2        W/m2          W/m2       degree/day
  51    .06700        5.6236        0.0000        7.2006        7.2006       1.576959       0.00000
  50    .07753        5.6236        0.0000        7.2006        7.2006       1.576937       0.01722
  49    .09103        5.6236        0.0000        7.2005        7.2005       1.576910       0.01688
  48    0.1069        5.6236        0.0000        7.2005        7.2005       1.576879       0.01652
  47    0.1255        5.6236        0.0000        7.2005        7.2005       1.576843       0.01617
  46    0.1487        5.6237        0.0000        7.2004        7.2005       1.576798       0.01640
  45    0.1794        5.6237        0.0000        7.2004        7.2004       1.576737       0.01688
  44    0.2165        5.6237        0.0000        7.2003        7.2003       1.576664       0.01656
  43    0.2613        5.6237        0.0000        7.2003        7.2003       1.576578       0.01625
  42    0.3336        5.6237        0.0000        7.2001        7.2001       1.576435       0.01663
  41    0.4307        5.6237        0.0000        7.2000        7.2000       1.576246       0.01644
  40    0.5894        5.6238        0.0000        7.1997        7.1997       1.575937       0.01642
  39     1.339        5.6240        0.0001        7.1984        7.1985       1.574476       0.01645
  38     1.782        5.6242        0.0001        7.1977        7.1978       1.573618       0.01633
  37     2.292        5.6243        0.0001        7.1968        7.1970       1.572626       0.01644
  36     2.964        5.6245        0.0002        7.1957        7.1959       1.571322       0.01636
  35     3.853        5.6248        0.0002        7.1942        7.1944       1.569601       0.01633
  34     5.035        5.6252        0.0003        7.1922        7.1925       1.567316       0.01632
  33     6.613        5.6257        0.0004        7.1896        7.1900       1.564266       0.01631
  32     8.786        5.6264        0.0005        7.1860        7.1865       1.560160       0.01595
  31     11.80        5.6273        0.0006        7.1810        7.1816       1.554297       0.01642
  30     15.07        5.6284        0.0008        7.1755        7.1764       1.548015       0.01622
  29     18.79        5.6295        0.0010        7.1694        7.1705       1.540936       0.01605
  28     23.16        5.6309        0.0013        7.1623        7.1636       1.532693       0.01594
  27     28.12        5.6325        0.0015        7.1542        7.1558       1.523298       0.01597
  26     33.73        5.6342        0.0018        7.1452        7.1471       1.512827       0.01574
  25     40.54        5.6364        0.0022        7.1344        7.1366       1.500237       0.01562
  24     48.69        5.6390        0.0026        7.1215        7.1241       1.485146       0.01562
  23     57.69        5.6419        0.0031        7.1074        7.1106       1.468681       0.01543
  22     68.43        5.6453        0.0037        7.0909        7.0946       1.449219       0.01530
  21     81.20        5.6495        0.0044        7.0713        7.0757       1.426244       0.01518
  20     96.49        5.6545        0.0052        7.0484        7.0536       1.399157       0.01495
  19     114.6        5.6604        0.0061        7.0217        7.0278       1.367391       0.01483
  18     136.5        5.6676        0.0073        6.9906        6.9979       1.330272       0.01427
  17     162.9        5.6763        0.0086        6.9544        6.9630       1.286769       0.01391
  16     196.4        5.6877        0.0104        6.9087        6.9191       1.231423       0.01393
  15     218.7        5.6953        0.0115        6.8794        6.8910       1.195615       0.01360
  14     243.0        5.7038        0.0128        6.8481        6.8609       1.157113       0.01335
  13     269.0        5.7131        0.0141        6.8147        6.8288       1.115731       0.01342
  12     297.5        5.7234        0.0156        6.7791        6.7946       1.071202       0.01321
  11     328.5        5.7350        0.0171        6.7409        6.7581       1.023110       0.01308
  10     361.9        5.7479        0.0188        6.7002        6.7190       0.971084       0.01316
   9     398.1        5.7624        0.0206        6.6563        6.6769       0.914452       0.01319
   8     437.6        5.7789        0.0226        6.6089        6.6314       0.852482       0.01325
   7     480.5        5.7979        0.0246        6.5570        6.5816       0.783702       0.01351
   6     533.0        5.8233        0.0271        6.4915        6.5186       0.695324       0.01422
   5     589.8        5.8535        0.0298        6.4182        6.4481       0.594578       0.01495
   4     651.6        5.8898        0.0327        6.3359        6.3686       0.478828       0.01583
   3     718.7        5.9331        0.0358        6.2441        6.2799       0.346891       0.01658
   2     792.3        5.9839        0.0390        6.1437        6.1828       0.198925       0.01697
   1     891.5        0.0109        0.1567        0.0000        0.1567       0.145733       0.00453
   0    1013.0        0.0111        0.1541        0.0000        0.1541       0.143051       0.00019



 Wavenumbers:  8050. - 12850. cm-1, ATM      1
 LEVEL PRESSURE   UPWARD FLUX   DIFDOWN FLUX  DIRDOWN FLUX  DOWNWARD FLUX   NET FLUX    HEATING RATE
          mb          W/m2          W/m2          W/m2        W/m2          W/m2       degree/day
  51    .06700       73.1717        0.0000      100.8135      100.8135      27.641843       0.00000
  50    .07753       73.1717        0.0000      100.8135      100.8135      27.641843       0.00000
  49    .09103       73.1716        0.0001      100.8134      100.8135      27.641843      -0.00000
  48    0.1069       73.1716        0.0001      100.8134      100.8135      27.641843       0.00000
  47    0.1255       73.1716        0.0002      100.8133      100.8134      27.641843       0.00000
  46    0.1487       73.1716        0.0002      100.8132      100.8134      27.641843      -0.00000
  45    0.1794       73.1715        0.0003      100.8131      100.8134      27.641843       0.00000
  44    0.2165       73.1715        0.0004      100.8129      100.8133      27.641843      -0.00000
  43    0.2613       73.1714        0.0005      100.8127      100.8133      27.641843       0.00000
  42    0.3336       73.1713        0.0007      100.8125      100.8132      27.641843       0.00000
  41    0.4307       73.1712        0.0010      100.8121      100.8130      27.641843       0.00000
  40    0.5894       73.1710        0.0014      100.8115      100.8128      27.641843      -0.00000
  39     1.339       73.1700        0.0034      100.8085      100.8119      27.641843       0.00000
  38     1.782       73.1694        0.0045      100.8068      100.8113      27.641843      -0.00000
  37     2.292       73.1688        0.0059      100.8047      100.8106      27.641843       0.00000
  36     2.964       73.1679        0.0076      100.8021      100.8097      27.641843      -0.00000
  35     3.853       73.1667        0.0100      100.7986      100.8086      27.641843       0.00000
  34     5.035       73.1652        0.0131      100.7940      100.8071      27.641843      -0.00000
  33     6.613       73.1632        0.0172      100.7878      100.8050      27.641843       0.00000
  32     8.786       73.1604        0.0228      100.7794      100.8022      27.641843      -0.00000
  31     11.80       73.1564        0.0309      100.7674      100.7983      27.641843      -0.00000
  30     15.07       73.1522        0.0395      100.7546      100.7940      27.641843       0.00000
  29     18.79       73.1474        0.0492      100.7400      100.7892      27.641843      -0.00000
  28     23.16       73.1417        0.0606      100.7230      100.7836      27.641843       0.00000
  27     28.12       73.1353        0.0737      100.7035      100.7772      27.641843       0.00000
  26     33.73       73.1281        0.0883      100.6817      100.7699      27.641843       0.00000
  25     40.54       73.1194        0.1060      100.6552      100.7612      27.641843      -0.00000
  24     48.69       73.1088        0.1273      100.6234      100.7507      27.641843      -0.00000
  23     57.69       73.0972        0.1508      100.5883      100.7391      27.641843       0.00000
  22     68.43       73.0834        0.1788      100.5464      100.7252      27.641843      -0.00000
  21     81.20       73.0669        0.2122      100.4965      100.7087      27.641843      -0.00000
  20     96.49       73.0472        0.2521      100.4370      100.6890      27.641843       0.00000
  19     114.6       73.0240        0.2995      100.3585      100.6580      27.634010       0.00366
  18     136.5       72.9964        0.3558      100.2634      100.6192      27.622750       0.00433
  17     162.9       72.9637        0.4230      100.1407      100.5637      27.599961       0.00728
  16     196.4       72.9214        0.5102       99.9505      100.4608      27.539340       0.01526
  15     218.7       72.8938        0.5676       99.7889      100.3565      27.462784       0.02907
  14     243.0       72.8643        0.6299       99.5472      100.1771      27.312752       0.05204
  13     269.0       72.8346        0.6971       99.1452       99.8423      27.007701       0.09896
  12     297.5       72.8065        0.7693       98.5975       99.3668      26.560254       0.13271
  11     328.5       72.7831        0.8467       97.8659       98.7126      25.929471       0.17151
  10     361.9       72.7692        0.9292       96.8848       97.8139      25.044777       0.22384
   9     398.1       72.7710        1.0164       95.6330       96.6494      23.878400       0.27174
   8     437.6       72.8003        1.1082       94.0655       95.1736      22.373279       0.32180
   7     480.5       72.8801        1.2034       92.0807       93.2841      20.404005       0.38676
   6     533.0       73.0615        1.3164       89.4449       90.7613      17.699831       0.43502
   5     589.8       73.3847        1.4338       86.5544       87.9882      14.603520       0.45959
   4     651.6       73.9320        1.5550       83.4174       84.9724      11.040417       0.48726
   3     718.7       74.7748        1.6808       80.2037       81.8845       7.109682       0.49398
   2     792.3       76.0031        1.8120       77.0811       78.8931       2.890054       0.48394
   1     891.5        0.4606        2.2325        0.0000        2.2325       1.771885       0.09515
   0    1013.0        0.4668        2.1874        0.0000        2.1874       1.720624       0.00356



 Wavenumbers: 12850. - 16000. cm-1, ATM      1
 LEVEL PRESSURE   UPWARD FLUX   DIFDOWN FLUX  DIRDOWN FLUX  DOWNWARD FLUX   NET FLUX    HEATING RATE
          mb          W/m2          W/m2          W/m2        W/m2          W/m2       degree/day
  51    .06700       52.3322        0.0000       63.1686       63.1686      10.836342       0.00000
  50    .07753       52.3322        0.0001       63.1677       63.1678      10.835558       0.62828
  49    .09103       52.3322        0.0001       63.1666       63.1668      10.834581       0.61115
  48    0.1069       52.3322        0.0002       63.1654       63.1656      10.833466       0.59331
  47    0.1255       52.3322        0.0003       63.1640       63.1644      10.832197       0.57547
  46    0.1487       52.3321        0.0005       63.1623       63.1628      10.830611       0.57798
  45    0.1794       52.3321        0.0006       63.1600       63.1606      10.828481       0.58472
  44    0.2165       52.3321        0.0009       63.1573       63.1581      10.826013       0.56147
  43    0.2613       52.3322        0.0011       63.1542       63.1553      10.823159       0.53797
  42    0.3336       52.3322        0.0015       63.1493       63.1508      10.818597       0.53184
  41    0.4307       52.3323        0.0021       63.1431       63.1452      10.812869       0.49803
  40    0.5894       52.3327        0.0030       63.1338       63.1368      10.804140       0.46419
  39     1.339       52.3361        0.0072       63.0956       63.1028      10.766669       0.42186
  38     1.782       52.3396        0.0097       63.0740       63.0837      10.744125       0.42920
  37     2.292       52.3450        0.0126       63.0477       63.0603      10.715251       0.47822
  36     2.964       52.3542        0.0164       63.0095       63.0259      10.671735       0.54626
  35     3.853       52.3692        0.0214       62.9533       62.9746      10.605432       0.62923
  34     5.035       52.3920        0.0280       62.8725       62.9005      10.508462       0.69271
  33     6.613       52.4240        0.0368       62.7621       62.7989      10.374877       0.71415
  32     8.786       52.4656        0.0487       62.6182       62.6670      10.201393       0.67375
  31     11.80       52.5194        0.0657       62.4284       62.4941       9.974723       0.63461
  30     15.07       52.5705        0.0839       62.2426       62.3265       9.756075       0.56451
  29     18.79       52.6222        0.1045       62.0493       62.1538       9.531528       0.50912
  28     23.16       52.6758        0.1284       61.8424       61.9708       9.295021       0.45733
  27     28.12       52.7291        0.1557       61.6278       61.7835       9.054452       0.40895
  26     33.73       52.7772        0.1862       61.4177       61.6039       8.826725       0.34239
  25     40.54       52.8220        0.2230       61.1983       61.4213       8.599362       0.28207
  24     48.69       52.8631        0.2674       60.9680       61.2354       8.372274       0.23500
  23     57.69       52.8957        0.3160       60.7478       61.0638       8.168088       0.19139
  22     68.43       52.9211        0.3740       60.5202       60.8941       7.973022       0.15335
  21     81.20       52.9328        0.4429       60.2938       60.7368       7.803973       0.11170
  20     96.49       52.9296        0.5252       60.0643       60.5894       7.659840       0.07955
  19     114.6       52.9251        0.6234       59.8078       60.4312       7.506149       0.07176
  18     136.5       52.9124        0.7398       59.5157       60.2555       7.343160       0.06267
  17     162.9       52.8905        0.8780       59.1770       60.0551       7.164621       0.05707
  16     196.4       52.8477        1.0570       58.7604       59.8174       6.969681       0.04907
  15     218.7       52.8146        1.1743       58.4948       59.6691       6.854442       0.04375
  14     243.0       52.7766        1.3016       58.2089       59.5105       6.733868       0.04182
  13     269.0       52.7338        1.4393       57.9006       59.3399       6.606095       0.04145
  12     297.5       52.6866        1.5878       57.5668       59.1546       6.468032       0.04095
  11     328.5       52.6370        1.7480       57.2005       58.9485       6.311509       0.04256
  10     361.9       52.5865        1.9201       56.7963       58.7164       6.129919       0.04594
   9     398.1       52.5370        2.1048       56.3475       58.4523       5.915319       0.05000
   8     437.6       52.4921        2.3023       55.8422       58.1445       5.652440       0.05621
   7     480.5       52.4587        2.5129       55.2625       57.7754       5.316706       0.06594
   6     533.0       52.4424        2.7701       54.4972       57.2673       4.824867       0.07912
   5     589.8       52.4565        3.0442       53.6307       56.6749       4.218370       0.09002
   4     651.6       52.5162        3.3343       52.6606       55.9949       3.478680       0.10115
   3     718.7       52.6317        3.6409       51.6100       55.2509       2.619163       0.10802
   2     792.3       52.8168        3.9639       50.5019       54.4658       1.648960       0.11127
   1     891.5        1.5466        2.8631        0.0000        2.8631       1.316465       0.02829
   0    1013.0        1.5547        2.8340        0.0000        2.8340       1.279251       0.00258



 Wavenumbers: 16000. - 22650. cm-1, ATM      1
 LEVEL PRESSURE   UPWARD FLUX   DIFDOWN FLUX  DIRDOWN FLUX  DOWNWARD FLUX   NET FLUX    HEATING RATE
          mb          W/m2          W/m2          W/m2        W/m2          W/m2       degree/day
  51    .06700       87.6613        0.0000      100.7153      100.7153      13.054049       0.00000
  50    .07753       87.6611        0.0003      100.7147      100.7151      13.053926       0.09847
  49    .09103       87.6610        0.0008      100.7140      100.7148      13.053748       0.11168
  48    0.1069       87.6609        0.0013      100.7131      100.7144      13.053508       0.12736
  47    0.1255       87.6607        0.0018      100.7121      100.7139      13.053188       0.14517
  46    0.1487       87.6606        0.0025      100.7108      100.7133      13.052716       0.17202
  45    0.1794       87.6604        0.0035      100.7089      100.7124      13.051979       0.20254
  44    0.2165       87.6602        0.0046      100.7066      100.7112      13.050978       0.22763
  43    0.2613       87.6601        0.0060      100.7037      100.7097      13.049620       0.25591
  42    0.3336       87.6599        0.0083      100.6987      100.7070      13.047039       0.30094
  41    0.4307       87.6599        0.0112      100.6918      100.7030      13.043148       0.33828
  40    0.5894       87.6601        0.0161      100.6797      100.6959      13.035729       0.39458
  39     1.339       87.6678        0.0392      100.6095      100.6487      12.980920       0.61705
  38     1.782       87.6770        0.0527      100.5585      100.6112      12.934242       0.88867
  37     2.292       87.6920        0.0684      100.4903      100.5587      12.866694       1.11877
  36     2.964       87.7184        0.0890      100.3868      100.4757      12.757311       1.37308
  35     3.853       87.7629        0.1161      100.2306      100.3467      12.583859       1.64610
  34     5.035       87.8312        0.1521      100.0045      100.1566      12.325330       1.84682
  33     6.613       87.9274        0.2001       99.6939       99.8940      11.966539       1.91810
  32     8.786       88.0521        0.2646       99.2881       99.5527      11.500520       1.80985
  31     11.80       88.2123        0.3566       98.7496       99.1062      10.893934       1.69825
  30     15.07       88.3629        0.4551       98.2198       98.6749      10.311979       1.50250
  29     18.79       88.5139        0.5659       97.6651       98.2311       9.717131       1.34870
  28     23.16       88.6682        0.6950       97.0671       97.7621       9.093868       1.20519
  27     28.12       88.8189        0.8420       96.4406       97.2825       8.463651       1.07133
  26     33.73       88.9505        1.0060       95.8179       96.8239       7.873450       0.88738
  25     40.54       89.0665        1.2036       95.1548       96.3584       7.291860       0.72153
  24     48.69       89.1650        1.4409       94.4420       95.8828       6.717862       0.59400
  23     57.69       89.2330        1.7005       93.7416       95.4421       6.209097       0.47689
  22     68.43       89.2710        2.0086       92.9954       95.0040       5.732956       0.37431
  21     81.20       89.2572        2.3744       92.2231       94.5975       5.340276       0.25948
  20     96.49       89.1863        2.8083       91.4110       94.2193       5.033040       0.16957
  19     114.6       89.0749        3.3203       90.5070       93.8273       4.752364       0.13106
  18     136.5       88.9254        3.9223       89.4803       93.4025       4.477161       0.10582
  17     162.9       88.7321        4.6324       88.3022       92.9346       4.202497       0.08779
  16     196.4       88.4474        5.5432       86.8606       92.4038       3.956472       0.06193
  15     218.7       88.2488        6.1353       85.9492       92.0845       3.835708       0.04585
  14     243.0       88.0284        6.7733       84.9789       91.7523       3.723845       0.03880
  13     269.0       87.7853        7.4585       83.9493       91.4078       3.622447       0.03289
  12     297.5       87.5189        8.1916       82.8589       91.0505       3.531631       0.02693
  11     328.5       87.2313        8.9754       81.6982       90.6736       3.442342       0.02428
  10     361.9       86.9226        9.8097       80.4669       90.2766       3.353992       0.02235
   9     398.1       86.5924       10.6966       79.1611       89.8577       3.265256       0.02067
   8     437.6       86.2417       11.6366       77.7777       89.4143       3.172555       0.01982
   7     480.5       85.8714       12.6301       76.3136       88.9438       3.072414       0.01967
   6     533.0       85.4244       13.8335       74.5359       88.3694       2.944980       0.02050
   5     589.8       84.9555       15.1068       72.6469       87.7538       2.798264       0.02178
   4     651.6       84.4680       16.4483       70.6456       87.0939       2.625826       0.02358
   3     718.7       83.9631       17.8561       68.5367       86.3927       2.429670       0.02465
   2     792.3       83.4438       19.3250       66.3287       85.6537       2.209849       0.02521
   1     891.5        8.6115       10.7176        0.0000       10.7176       2.106095       0.00883
   0    1013.0        8.5993       10.6770        0.0000       10.6770       2.077749       0.00197



 Wavenumbers: 22650. - 29000. cm-1, ATM      1
 LEVEL PRESSURE   UPWARD FLUX   DIFDOWN FLUX  DIRDOWN FLUX  DOWNWARD FLUX   NET FLUX    HEATING RATE
          mb          W/m2          W/m2          W/m2        W/m2          W/m2       degree/day
  51    .06700       37.2063        0.0000       38.0063       38.0063       0.800030       0.00000
  50    .07753       37.2061        0.0004       38.0057       38.0061       0.800030      -0.00000
  49    .09103       37.2059        0.0009       38.0050       38.0059       0.800030       0.00000
  48    0.1069       37.2057        0.0015       38.0042       38.0057       0.800030       0.00000
  47    0.1255       37.2054        0.0021       38.0033       38.0054       0.800030      -0.00000
  46    0.1487       37.2051        0.0029       38.0022       38.0051       0.800030       0.00000
  45    0.1794       37.2046        0.0041       38.0006       38.0047       0.800030       0.00000
  44    0.2165       37.2041        0.0054       37.9987       38.0041       0.800030       0.00000
  43    0.2613       37.2035        0.0070       37.9965       38.0035       0.800030       0.00000
  42    0.3336       37.2024        0.0096       37.9928       38.0025       0.800030      -0.00000
  41    0.4307       37.2010        0.0131       37.9880       38.0011       0.800030       0.00000
  40    0.5894       37.1988        0.0188       37.9800       37.9988       0.800030       0.00000
  39     1.339       37.1881        0.0456       37.9425       37.9881       0.800030       0.00000
  38     1.782       37.1818        0.0614       37.9204       37.9818       0.800030       0.00000
  37     2.292       37.1745        0.0796       37.8949       37.9745       0.800030      -0.00000
  36     2.964       37.1649        0.1035       37.8614       37.9650       0.800030       0.00000
  35     3.853       37.1523        0.1351       37.8172       37.9523       0.800030       0.00000
  34     5.035       37.1356        0.1770       37.7586       37.9356       0.800030      -0.00000
  33     6.613       37.1132        0.2330       37.6803       37.9133       0.800030       0.00000
  32     8.786       37.0832        0.3082       37.5750       37.8832       0.800030       0.00000
  31     11.80       37.0403        0.4155       37.4249       37.8404       0.800030       0.00000
  30     15.07       36.9945        0.5303       37.2642       37.7945       0.800030       0.00000
  29     18.79       36.9428        0.6596       37.0833       37.7429       0.800030       0.00000
  28     23.16       36.8828        0.8098       36.8730       37.6828       0.800030       0.00000
  27     28.12       36.8145        0.9808       36.6338       37.6145       0.800030      -0.00000
  26     33.73       36.7385        1.1709       36.3677       37.5386       0.800030       0.00000
  25     40.54       36.6474        1.3989       36.0486       37.4474       0.800030      -0.00000
  24     48.69       36.5385        1.6713       35.6672       37.3385       0.800030       0.00000
  23     57.69       36.4200        1.9674       35.2527       37.2201       0.800030       0.00000
  22     68.43       36.2807        2.3158       34.7649       37.0807       0.800030       0.00000
  21     81.20       36.1169        2.7247       34.1922       36.9170       0.800030      -0.00000
  20     96.49       35.9252        3.2035       33.5217       36.7252       0.800030       0.00000
  19     114.6       35.7023        3.7599       32.7424       36.5023       0.800030       0.00000
  18     136.5       35.4444        4.4029       31.8416       36.2445       0.800030       0.00000
  17     162.9       35.1463        5.1456       30.8008       35.9464       0.800030       0.00000
  16     196.4       34.7736        6.0730       29.5007       35.5737       0.800030       0.00000
  15     218.7       34.5373        6.6606       28.6767       35.3373       0.800030       0.00000
  14     243.0       34.2875        7.2808       27.8068       35.0875       0.800030       0.00000
  13     269.0       34.0251        7.9318       26.8933       34.8251       0.800030      -0.00000
  12     297.5       33.7507        8.6114       25.9393       34.5507       0.800030       0.00000
  11     328.5       33.4645        9.3194       24.9451       34.2645       0.800030       0.00000
  10     361.9       33.1679       10.0520       23.9160       33.9680       0.800030      -0.00000
   9     398.1       32.8616       10.8075       22.8541       33.6616       0.800030      -0.00000
   8     437.6       32.5467       11.5823       21.7645       33.3467       0.800030       0.00000
   7     480.5       32.2248       12.3727       20.6521       33.0248       0.800030      -0.00000
   6     533.0       31.8492       13.2923       19.3569       32.6492       0.800030       0.00000
   5     589.8       31.4683       14.2216       18.0467       32.2683       0.800030       0.00000
   4     651.6       31.0849       15.1534       16.7316       31.8850       0.800030      -0.00000
   3     718.7       30.7018       16.0804       15.4214       31.5018       0.800030       0.00000
   2     792.3       30.3219       16.9943       14.1276       31.1219       0.800030       0.00000
   1     891.5        5.3476        6.1453        0.0000        6.1453       0.797743       0.00019
   0    1013.0        5.3199        6.1177        0.0000        6.1177       0.797743       0.00000



 Wavenumbers: 29000. - 38000. cm-1, ATM      1
 LEVEL PRESSURE   UPWARD FLUX   DIFDOWN FLUX  DIRDOWN FLUX  DOWNWARD FLUX   NET FLUX    HEATING RATE
          mb          W/m2          W/m2          W/m2        W/m2          W/m2       degree/day
  51    .06700        5.3242        0.0000       13.4026       13.4026       8.078350       0.00000
  50    .07753        5.3240        0.0003       13.3983       13.3986       8.074551       3.04481
  49    .09103        5.3238        0.0007       13.3921       13.3928       8.069031       3.45016
  48    0.1069        5.3235        0.0011       13.3840       13.3851       8.061653       3.92733
  47    0.1255        5.3231        0.0016       13.3733       13.3749       8.051807       4.46383
  46    0.1487        5.3227        0.0022       13.3579       13.3601       8.037363       5.26517
  45    0.1794        5.3221        0.0030       13.3340       13.3371       8.014959       6.15021
  44    0.2165        5.3215        0.0040       13.3024       13.3064       7.984936       6.82985
  43    0.2613        5.3207        0.0052       13.2604       13.2656       7.944875       7.55135
  42    0.3336        5.3195        0.0071       13.1833       13.1904       7.870855       8.62991
  41    0.4307        5.3180        0.0096       13.0729       13.0825       7.764464       9.25051
  40    0.5894        5.3157        0.0135       12.8796       12.8931       7.577383       9.94875
  39     1.339        5.3077        0.0300       11.9165       11.9465       6.638755      10.56725
  38     1.782        5.3048        0.0384       11.4399       11.4783       6.173530       8.85714
  37     2.292        5.3028        0.0474       10.9796       11.0270       5.724250       7.44124
  36     2.964        5.3020        0.0585       10.4786       10.5371       5.235065       6.14075
  35     3.853        5.3037        0.0722        9.9429       10.0151       4.711338       4.97027
  34     5.035        5.3087        0.0893        9.4007        9.4900       4.181318       3.78624
  33     6.613        5.3171        0.1110        8.8752        8.9863       3.669145       2.73808
  32     8.786        5.3286        0.1391        8.3786        8.5177       3.189092       1.86435
  31     11.80        5.3429        0.1776        7.8897        8.0673       2.724388       1.30102
  30     15.07        5.3557        0.2174        7.5108        7.7282       2.372498       0.90851
  29     18.79        5.3681        0.2608        7.1776        7.4384       2.070316       0.68514
  28     23.16        5.3801        0.3097        6.8664        7.1761       1.796018       0.53040
  27     28.12        5.3910        0.3638        6.5780        6.9419       1.550921       0.41665
  26     33.73        5.3979        0.4229        6.3195        6.7424       1.344465       0.31041
  25     40.54        5.4001        0.4926        6.0663        6.5588       1.158763       0.23038
  24     48.69        5.3970        0.5743        5.8128        6.3871       0.990109       0.17453
  23     57.69        5.3882        0.6616        5.5777        6.2393       0.851082       0.13032
  22     68.43        5.3718        0.7627        5.3379        6.1006       0.728825       0.09611
  21     81.20        5.3433        0.8803        5.0965        5.9767       0.633413       0.06305
  20     96.49        5.3016        1.0161        4.8476        5.8638       0.562179       0.03932
  19     114.6        5.2502        1.1704        4.5799        5.7502       0.500005       0.02903
  18     136.5        5.1906        1.3430        4.2891        5.6321       0.441549       0.02248
  17     162.9        5.1226        1.5350        3.9732        5.5082       0.385622       0.01788
  16     196.4        5.0361        1.7657        3.6080        5.3737       0.337608       0.01209
  15     218.7        4.9817        1.9066        3.3898        5.2964       0.314660       0.00871
  14     243.0        4.9254        2.0506        3.1686        5.2192       0.293776       0.00724
  13     269.0        4.8674        2.1967        2.9461        5.1427       0.275293       0.00600
  12     297.5        4.8083        2.3436        2.7239        5.0676       0.259243       0.00476
  11     328.5        4.7490        2.4902        2.5029        4.9931       0.244105       0.00412
  10     361.9        4.6899        2.6352        2.2846        4.9198       0.229907       0.00359
   9     398.1        4.6314        2.7773        2.0708        4.8481       0.216644       0.00309
   8     437.6        4.5742        2.9157        1.8626        4.7783       0.204037       0.00270
   7     480.5        4.5187        3.0488        1.6621        4.7109       0.192223       0.00232
   6     533.0        4.4578        3.1936        1.4437        4.6373       0.179514       0.00204
   5     589.8        4.4004        3.3288        1.2390        4.5678       0.167368       0.00180
   4     651.6        4.3472        3.4528        1.0500        4.5028       0.155621       0.00161
   3     718.7        4.2985        3.5649        0.8778        4.4427       0.144232       0.00143
   2     792.3        4.2548        3.6642        0.7237        4.3879       0.133178       0.00127
   1     891.5        0.6753        0.8010        0.0000        0.8010       0.125633       0.00064
   0    1013.0        0.6676        0.7909        0.0000        0.7909       0.123298       0.00016



 Wavenumbers: 38000. - 50000. cm-1, ATM      1
 LEVEL PRESSURE   UPWARD FLUX   DIFDOWN FLUX  DIRDOWN FLUX  DOWNWARD FLUX   NET FLUX    HEATING RATE
          mb          W/m2          W/m2          W/m2        W/m2          W/m2       degree/day
  51    .06700        0.0051        0.0000        0.8267        0.8267       0.821528       0.00000
  50    .07753        0.0051        0.0001        0.8242        0.8243       0.819196       1.86936
  49    .09103        0.0050        0.0002        0.8207        0.8209       0.815872       2.07705
  48    0.1069        0.0049        0.0002        0.8162        0.8164       0.811514       2.31984
  47    0.1255        0.0048        0.0004        0.8103        0.8106       0.805801       2.59006
  46    0.1487        0.0047        0.0005        0.8018        0.8023       0.797567       3.00143
  45    0.1794        0.0045        0.0007        0.7889        0.7896       0.785013       3.44648
  44    0.2165        0.0044        0.0009        0.7720        0.7729       0.768507       3.75474
  43    0.2613        0.0042        0.0011        0.7500        0.7511       0.746955       4.06246
  42    0.3336        0.0039        0.0015        0.7106        0.7121       0.708267       4.51071
  41    0.4307        0.0035        0.0019        0.6566        0.6584       0.654972       4.63387
  40    0.5894        0.0029        0.0024        0.5680        0.5704       0.567464       4.65357
  39     1.339        0.0015        0.0030        0.2422        0.2452       0.243720       3.64476
  38     1.782        0.0010        0.0026        0.1493        0.1519       0.150889       1.76735
  37     2.292        0.0007        0.0022        0.0924        0.0946       0.093932       0.94336
  36     2.964        0.0005        0.0018        0.0539        0.0557       0.055224       0.48589
  35     3.853        0.0003        0.0013        0.0295        0.0308       0.030502       0.23462
  34     5.035        0.0002        0.0010        0.0154        0.0164       0.016181       0.10230
  33     6.613        0.0001        0.0007        0.0073        0.0080       0.007912       0.04420
  32     8.786        0.0000        0.0004        0.0030        0.0034       0.003390       0.01756
  31     11.80        0.0000        0.0003        0.0010        0.0012       0.001199       0.00613
  30     15.07        0.0000        0.0001        0.0003        0.0005       0.000463       0.00190
  29     18.79        0.0000        0.0001        0.0001        0.0002       0.000182       0.00064
  28     23.16        0.0000        0.0000        0.0000        0.0001       0.000071       0.00022
  27     28.12        0.0000        0.0000        0.0000        0.0000       0.000028       0.00007
  26     33.73        0.0000        0.0000        0.0000        0.0000       0.000011       0.00002
  25     40.54        0.0000        0.0000        0.0000        0.0000       0.000005       0.00001
  24     48.69        0.0000        0.0000        0.0000        0.0000       0.000002       0.00000
  23     57.69        0.0000        0.0000        0.0000        0.0000       0.000001       0.00000
  22     68.43        0.0000        0.0000        0.0000        0.0000       0.000000       0.00000
  21     81.20        0.0000        0.0000        0.0000        0.0000       0.000000       0.00000
  20     96.49        0.0000        0.0000        0.0000        0.0000       0.000000       0.00000
  19     114.6        0.0000        0.0000        0.0000        0.0000       0.000000       0.00000
  18     136.5        0.0000        0.0000        0.0000        0.0000       0.000000       0.00000
  17     162.9        0.0000        0.0000        0.0000        0.0000       0.000000       0.00000
  16     196.4        0.0000        0.0000        0.0000        0.0000       0.000000       0.00000
  15     218.7        0.0000        0.0000        0.0000        0.0000       0.000000       0.00000
  14     243.0        0.0000        0.0000        0.0000        0.0000       0.000000       0.00000
  13     269.0        0.0000        0.0000        0.0000        0.0000       0.000000       0.00000
  12     297.5        0.0000        0.0000        0.0000        0.0000       0.000000       0.00000
  11     328.5        0.0000        0.0000        0.0000        0.0000       0.000000       0.00000
  10     361.9        0.0000        0.0000        0.0000        0.0000       0.000000       0.00000
   9     398.1        0.0000        0.0000        0.0000        0.0000       0.000000       0.00000
   8     437.6        0.0000        0.0000        0.0000        0.0000       0.000000       0.00000
   7     480.5        0.0000        0.0000        0.0000        0.0000       0.000000       0.00000
   6     533.0        0.0000        0.0000        0.0000        0.0000       0.000000       0.00000
   5     589.8        0.0000        0.0000        0.0000        0.0000       0.000000       0.00000
   4     651.6        0.0000        0.0000        0.0000        0.0000       0.000000       0.00000
   3     718.7        0.0000        0.0000        0.0000        0.0000       0.000000       0.00000
   2     792.3        0.0000        0.0000        0.0000        0.0000       0.000000       0.00000
   1     891.5        0.0000        0.0000        0.0000        0.0000       0.000000       0.00000
   0    1013.0        0.0000        0.0000        0.0000        0.0000       0.000000       0.00000



 Wavenumbers:   820. -  2600. cm-1, ATM      1
 LEVEL PRESSURE   UPWARD FLUX   DIFDOWN FLUX  DIRDOWN FLUX  DOWNWARD FLUX   NET FLUX    HEATING RATE
          mb          W/m2          W/m2          W/m2        W/m2          W/m2       degree/day
  51    .06700        0.9299        0.0000        3.8670        3.8670       2.937076       0.00000
  50    .07753        0.9299        0.0000        3.8643        3.8643       2.934359       2.17771
  49    .09103        0.9299        0.0000        3.8635        3.8635       2.933548       0.50640
  48    0.1069        0.9299        0.0000        3.8626        3.8626       2.932658       0.47417
  47    0.1255        0.9299        0.0000        3.8616        3.8616       2.931697       0.43561
  46    0.1487        0.9299        0.0000        3.8605        3.8605       2.930587       0.40439
  45    0.1794        0.9299        0.0000        3.8592        3.8592       2.929252       0.36650
  44    0.2165        0.9299        0.0000        3.8578        3.8578       2.927874       0.31348
  43    0.2613        0.9299        0.0000        3.8564        3.8564       2.926414       0.27524
  42    0.3336        0.9299        0.0000        3.8541        3.8541       2.924183       0.26015
  41    0.4307        0.9299        0.0000        3.8512        3.8512       2.921300       0.25065
  40    0.5894        0.9299        0.0000        3.8465        3.8465       2.916573       0.25136
  39     1.339        0.9299        0.0000        3.8251        3.8251       2.895196       0.24067
  38     1.782        0.9299        0.0000        3.8133        3.8133       2.883381       0.22492
  37     2.292        0.9300        0.0000        3.8003        3.8003       2.870318       0.21636
  36     2.964        0.9300        0.0000        3.7841        3.7841       2.854187       0.20249
  35     3.853        0.9300        0.0000        3.7642        3.7642       2.834270       0.18902
  34     5.035        0.9300        0.0000        3.7395        3.7395       2.809575       0.17641
  33     6.613        0.9300        0.0000        3.7090        3.7090       2.779034       0.16327
  32     8.786        0.9300        0.0000        3.6726        3.6726       2.742633       0.14137
  31     11.80        0.9300        0.0000        3.6320        3.6320       2.702028       0.11368
  30     15.07        0.9300        0.0000        3.6016        3.6016       2.671632       0.07848
  29     18.79        0.9300        0.0000        3.5777        3.5777       2.647720       0.05421
  28     23.16        0.9300        0.0000        3.5564        3.5564       2.626351       0.04132
  27     28.12        0.9301        0.0000        3.5348        3.5348       2.604785       0.03666
  26     33.73        0.9301        0.0000        3.5118        3.5118       2.581730       0.03466
  25     40.54        0.9301        0.0000        3.4849        3.4849       2.554816       0.03339
  24     48.69        0.9302        0.0000        3.4537        3.4537       2.523531       0.03237
  23     57.69        0.9302        0.0000        3.4210        3.4210       2.490821       0.03066
  22     68.43        0.9302        0.0000        3.3844        3.3844       2.454192       0.02880
  21     81.20        0.9303        0.0000        3.3441        3.3441       2.413841       0.02666
  20     96.49        0.9304        0.0000        3.2998        3.2998       2.369411       0.02452
  19     114.6        0.9305        0.0000        3.2506        3.2507       2.320184       0.02299
  18     136.5        0.9306        0.0000        3.1936        3.1936       2.263021       0.02198
  17     162.9        0.9308        0.0000        3.1181        3.1181       2.187326       0.02420
  16     196.4        0.9312        0.0000        3.0090        3.0090       2.077767       0.02758
  15     218.7        0.9315        0.0000        2.9420        2.9420       2.010488       0.02554
  14     243.0        0.9320        0.0000        2.8605        2.8605       1.928524       0.02843
  13     269.0        0.9327        0.0000        2.7419        2.7420       1.809268       0.03869
  12     297.5        0.9339        0.0000        2.5729        2.5729       1.638952       0.05051
  11     328.5        0.9359        0.0000        2.3602        2.3602       1.424322       0.05836
  10     361.9        0.9388        0.0000        2.1524        2.1524       1.213599       0.05332
   9     398.1        0.9430        0.0000        1.9974        1.9974       1.054412       0.03709
   8     437.6        0.9488        0.0000        1.8835        1.8835       0.934686       0.02560
   7     480.5        0.9571        0.0000        1.7734        1.7735       0.816321       0.02325
   6     533.0        0.9707        0.0000        1.6397        1.6398       0.669086       0.02369
   5     589.8        0.9901        0.0000        1.5068        1.5069       0.516769       0.02261
   4     651.6        1.0188        0.0000        1.3807        1.3807       0.361974       0.02117
   3     718.7        1.0571        0.0000        1.2680        1.2681       0.210934       0.01898
   2     792.3        1.1054        0.0000        1.1659        1.1660       0.060582       0.01724
   1     891.5        0.0012        0.0194        0.0000        0.0194       0.018280       0.00360
   0    1013.0        0.0013        0.0178        0.0000        0.0178       0.016508       0.00012

  Modules and versions used in this calculation:

       rrtmg_sw.1col.f90:  $Revision$                    rrtmg_sw_init.f90:  $Revision$        
     rrtmgsw_cldprop.f90:  $Revision$                  rrtmgsw_cldprmc.f90:  NOT USED          
     rrtmg_sw_reftra.f90:  $Revision$                  rrtmg_sw_spcvrt.f90:  NOT USED          
     rrtmg_sw_spcvmc.f90:  NOT USED                    rrtmgsw_setcoef.f90:  NOT USED          
     rrtmg_sw_taumol.f90:  $Revision$                  rrtmg_sw_vrtqdr.f90:  NOT USED          
                rrtatm.f:  NOT USED                             util_xxx.f:  NOT USED          
                 extra.f:  NOT USED                       rrtmg_sw_k_g.f90:  $Revision$        

