

 Wavenumbers:   820. - 50000. cm-1, ATM      1
 LEVEL PRESSURE   UPWARD FLUX   DIFDOWN FLUX  DIRDOWN FLUX  DOWNWARD FLUX   NET FLUX    HEATING RATE
          mb          W/m2          W/m2          W/m2        W/m2          W/m2       degree/day
  51    .06700      194.1373        0.0000      397.8738      397.8738     203.736486       0.00000
  50    .07753      194.1367        0.0012      397.8577      397.8589     203.722202      11.44899
  49    .09103      194.1359        0.0026      397.8418      397.8444     203.708524       8.54949
  48    0.1069      194.1351        0.0043      397.8230      397.8273     203.692189       8.69519
  47    0.1255      194.1341        0.0062      397.7997      397.8059     203.671763       9.26001
  46    0.1487      194.1329        0.0086      397.7676      397.7762     203.643330      10.36404
  45    0.1794      194.1314        0.0119      397.7205      397.7324     203.601077      11.59965
  44    0.2165      194.1296        0.0158      397.6602      397.6760     203.546480      12.41980
  43    0.2613      194.1275        0.0204      397.5829      397.6033     203.475752      13.33184
  42    0.3336      194.1244        0.0279      397.4449      397.4728     203.348445      14.84282
  41    0.4307      194.1204        0.0378      397.2524      397.2902     203.169772      15.53515
  40    0.5894      194.1146        0.0537      396.9253      396.9790     202.864428      16.23782
  39     1.339      194.0977        0.1248      395.4254      395.5501     201.452407      15.89680
  38     1.782      194.0949        0.1646      394.7288      394.8934     200.798445      12.45037
  37     2.292      194.0979        0.2099      394.0572      394.2671     200.169163      10.42255
  36     2.964      194.1110        0.2687      393.3007      393.5694     199.458371       8.92259
  35     3.853      194.1412        0.3456      392.4318      392.7774     198.636228       7.80229
  34     5.035      194.1939        0.4467      391.4441      391.8908     197.696937       6.70990
  33     6.613      194.2713        0.5807      390.3268      390.9074     196.636163       5.67090
  32     8.786      194.3707        0.7598      389.0624      389.8222     195.451560       4.60057
  31     11.80      194.4917        1.0141      387.5500      388.5641     194.072397       3.86122
  30     15.07      194.5967        1.2848      386.1556      387.4404     192.843691       3.17228
  29     18.79      194.6932        1.5882      384.7502      386.3383     191.645116       2.71754
  28     23.16      194.7805        1.9396      383.2686      385.2082     190.427755       2.35398
  27     28.12      194.8505        2.3382      381.7329      384.0711     189.220640       2.05201
  26     33.73      194.8850        2.7810      380.1982      382.9792     188.094144       1.69372
  25     40.54      194.8761        3.3119      378.5384      381.8503     186.974244       1.38936
  24     48.69      194.8169        3.9463      376.7214      380.6678     185.850898       1.16249
  23     57.69      194.7054        4.6365      374.8959      379.5324     184.826967       0.95978
  22     68.43      194.5230        5.4500      372.8999      378.3499     183.826955       0.78614
  21     81.20      194.2370        6.4088      370.7496      377.1584     182.921388       0.59838
  20     96.49      193.8345        7.5365      368.4056      375.9421     182.107589       0.44916
  19     114.6      193.3373        8.8534      365.7513      374.6047     181.267402       0.39231
  18     136.5      192.7358       10.3825      362.7231      373.1056     180.369742       0.34517
  17     162.9      192.0145       12.1595      359.1748      371.3343     179.319773       0.33561
  16     196.4      191.0569       14.3993      354.5718      368.9711     177.914227       0.35379
  15     218.7      190.4258       15.8313      351.4437      367.2750     176.849207       0.40435
  14     243.0      189.7455       17.3541      347.7111      365.0653     175.319819       0.53044
  13     269.0      189.0164       18.9658      342.9441      361.9099     172.893530       0.78708
  12     297.5      188.2402       20.6640      337.4137      358.0777     169.837480       0.90639
  11     328.5      187.4215       22.4502      331.1302      353.5805     166.159014       1.00016
  10     361.9      186.5650       24.3189      324.1219      348.4409     161.875805       1.08369
   9     398.1      185.6747       26.2694      316.6066      342.8759     157.201264       1.08906
   8     437.6      184.7600       28.2968      308.5895      336.8863     152.126258       1.08507
   7     480.5      183.8374       30.3952      299.9349      330.3301     146.492637       1.10642
   6     533.0      182.7914       32.8789      289.7021      322.5810     139.789598       1.07831
   5     589.8      181.7854       35.4403      279.3388      314.7790     132.993597       1.00875
   4     651.6      180.8706       38.0669      268.7786      306.8455     125.974941       0.95982
   3     718.7      180.0843       40.7496      258.2837      299.0332     118.948934       0.88297
   2     792.3      179.4737       43.4739      248.0774      291.5513     112.077606       0.78806
   1     891.5      129.0274      115.3602      118.8312      234.1914     105.163932       0.58832
   0    1013.0      128.6354      115.6340      111.7430      227.3770      98.741537       0.44594



 Wavenumbers:  2600. -  3250. cm-1, ATM      1
 LEVEL PRESSURE   UPWARD FLUX   DIFDOWN FLUX  DIRDOWN FLUX  DOWNWARD FLUX   NET FLUX    HEATING RATE
          mb          W/m2          W/m2          W/m2        W/m2          W/m2       degree/day
  51    .06700        0.4251        0.0000        3.5066        3.5066       3.081568       0.00000
  50    .07753        0.4251        0.0000        3.5066        3.5066       3.081560       0.00640
  49    .09103        0.4251        0.0000        3.5066        3.5066       3.081550       0.00627
  48    0.1069        0.4251        0.0000        3.5066        3.5066       3.081539       0.00613
  47    0.1255        0.4251        0.0000        3.5066        3.5066       3.081525       0.00599
  46    0.1487        0.4251        0.0000        3.5066        3.5066       3.081509       0.00607
  45    0.1794        0.4251        0.0000        3.5065        3.5065       3.081486       0.00624
  44    0.2165        0.4251        0.0000        3.5065        3.5065       3.081459       0.00611
  43    0.2613        0.4251        0.0000        3.5065        3.5065       3.081427       0.00598
  42    0.3336        0.4251        0.0000        3.5064        3.5064       3.081375       0.00615
  41    0.4307        0.4251        0.0000        3.5064        3.5064       3.081304       0.00618
  40    0.5894        0.4251        0.0000        3.5062        3.5062       3.081185       0.00633
  39     1.339        0.4251        0.0000        3.5055        3.5055       3.080486       0.00787
  38     1.782        0.4251        0.0000        3.5050        3.5050       3.079955       0.01011
  37     2.292        0.4251        0.0000        3.5043        3.5043       3.079262       0.01147
  36     2.964        0.4251        0.0000        3.5033        3.5033       3.078271       0.01245
  35     3.853        0.4251        0.0000        3.5019        3.5019       3.076894       0.01307
  34     5.035        0.4251        0.0000        3.5001        3.5001       3.075033       0.01329
  33     6.613        0.4251        0.0000        3.4977        3.4977       3.072623       0.01288
  32     8.786        0.4251        0.0000        3.4947        3.4947       3.069652       0.01154
  31     11.80        0.4251        0.0000        3.4911        3.4911       3.066017       0.01018
  30     15.07        0.4251        0.0000        3.4878        3.4878       3.062796       0.00832
  29     18.79        0.4251        0.0000        3.4848        3.4848       3.059732       0.00695
  28     23.16        0.4251        0.0000        3.4816        3.4816       3.056512       0.00623
  27     28.12        0.4251        0.0000        3.4779        3.4779       3.052893       0.00615
  26     33.73        0.4251        0.0000        3.4735        3.4735       3.048426       0.00672
  25     40.54        0.4251        0.0000        3.4671        3.4671       3.042098       0.00785
  24     48.69        0.4251        0.0000        3.4582        3.4583       3.033201       0.00921
  23     57.69        0.4251        0.0000        3.4472        3.4472       3.022150       0.01036
  22     68.43        0.4251        0.0000        3.4329        3.4329       3.007886       0.01121
  21     81.20        0.4251        0.0000        3.4152        3.4152       2.990151       0.01172
  20     96.49        0.4251        0.0000        3.3940        3.3941       2.968997       0.01168
  19     114.6        0.4251        0.0000        3.3692        3.3692       2.944093       0.01163
  18     136.5        0.4251        0.0001        3.3419        3.3420       2.916856       0.01047
  17     162.9        0.4252        0.0001        3.3129        3.3129       2.887750       0.00930
  16     196.4        0.4253        0.0001        3.2793        3.2794       2.854120       0.00847
  15     218.7        0.4254        0.0001        3.2578        3.2578       2.832448       0.00823
  14     243.0        0.4256        0.0001        3.2320        3.2320       2.806487       0.00900
  13     269.0        0.4258        0.0001        3.1968        3.1969       2.771095       0.01148
  12     297.5        0.4263        0.0001        3.1489        3.1491       2.722791       0.01433
  11     328.5        0.4269        0.0001        3.0821        3.0822       2.655270       0.01836
  10     361.9        0.4279        0.0001        2.9902        2.9904       2.562506       0.02347
   9     398.1        0.4292        0.0001        2.8715        2.8716       2.442399       0.02798
   8     437.6        0.4312        0.0001        2.7276        2.7278       2.296608       0.03117
   7     480.5        0.4341        0.0001        2.5595        2.5597       2.125551       0.03359
   6     533.0        0.4390        0.0002        2.3617        2.3619       1.922854       0.03261
   5     589.8        0.4462        0.0002        2.1649        2.1651       1.718846       0.03028
   4     651.6        0.4569        0.0002        1.9608        1.9609       1.504074       0.02937
   3     718.7        0.4718        0.0002        1.7593        1.7595       1.287668       0.02720
   2     792.3        0.4923        0.0002        1.5761        1.5762       1.083889       0.02337
   1     891.5        0.1603        0.3637        0.6920        1.0557       0.895378       0.01604
   0    1013.0        0.1744        0.3271        0.5845        0.9117       0.737248       0.01098



 Wavenumbers:  3250. -  4000. cm-1, ATM      1
 LEVEL PRESSURE   UPWARD FLUX   DIFDOWN FLUX  DIRDOWN FLUX  DOWNWARD FLUX   NET FLUX    HEATING RATE
          mb          W/m2          W/m2          W/m2        W/m2          W/m2       degree/day
  51    .06700        0.0020        0.0000        5.9117        5.9117       5.909613       0.00000
  50    .07753        0.0020        0.0000        5.9075        5.9075       5.905424       3.35808
  49    .09103        0.0020        0.0000        5.9050        5.9050       5.902981       1.52677
  48    0.1069        0.0020        0.0000        5.9032        5.9032       5.901115       0.99346
  47    0.1255        0.0020        0.0000        5.9014        5.9014       5.899356       0.79708
  46    0.1487        0.0020        0.0000        5.8995        5.8995       5.897468       0.68848
  45    0.1794        0.0020        0.0000        5.8974        5.8974       5.895319       0.58983
  44    0.2165        0.0020        0.0000        5.8952        5.8952       5.893202       0.48155
  43    0.2613        0.0020        0.0000        5.8931        5.8931       5.891043       0.40696
  42    0.3336        0.0020        0.0000        5.8899        5.8899       5.887885       0.36820
  41    0.4307        0.0020        0.0000        5.8861        5.8861       5.884048       0.33365
  40    0.5894        0.0020        0.0000        5.8803        5.8803       5.878245       0.30857
  39     1.339        0.0020        0.0000        5.8597        5.8597       5.857648       0.23189
  38     1.782        0.0020        0.0000        5.8513        5.8513       5.849223       0.16039
  37     2.292        0.0020        0.0000        5.8431        5.8431       5.841052       0.13533
  36     2.964        0.0020        0.0000        5.8334        5.8334       5.831413       0.12100
  35     3.853        0.0020        0.0000        5.8213        5.8213       5.819237       0.11555
  34     5.035        0.0020        0.0000        5.8052        5.8052       5.803142       0.11498
  33     6.613        0.0020        0.0000        5.7833        5.7834       5.781321       0.11666
  32     8.786        0.0020        0.0000        5.7531        5.7531       5.751119       0.11729
  31     11.80        0.0020        0.0000        5.7090        5.7090       5.706950       0.12366
  30     15.07        0.0020        0.0000        5.6615        5.6615       5.659486       0.12254
  29     18.79        0.0020        0.0000        5.6093        5.6094       5.607350       0.11821
  28     23.16        0.0020        0.0000        5.5524        5.5524       5.550424       0.11008
  27     28.12        0.0020        0.0000        5.4935        5.4935       5.491545       0.10009
  26     33.73        0.0020        0.0000        5.4348        5.4349       5.432856       0.08824
  25     40.54        0.0020        0.0001        5.3707        5.3708       5.368795       0.07948
  24     48.69        0.0020        0.0001        5.2985        5.2985       5.296562       0.07475
  23     57.69        0.0020        0.0001        5.2215        5.2216       5.219623       0.07212
  22     68.43        0.0020        0.0001        5.1318        5.1319       5.129963       0.07048
  21     81.20        0.0019        0.0001        5.0284        5.0285       5.026533       0.06834
  20     96.49        0.0019        0.0001        4.9122        4.9123       4.910399       0.06410
  19     114.6        0.0019        0.0001        4.7780        4.7782       4.776288       0.06262
  18     136.5        0.0019        0.0002        4.6285        4.6287       4.626810       0.05748
  17     162.9        0.0018        0.0002        4.4406        4.4407       4.438897       0.06006
  16     196.4        0.0018        0.0002        4.1548        4.1550       4.153224       0.07191
  15     218.7        0.0018        0.0002        3.9564        3.9566       3.954842       0.07532
  14     243.0        0.0018        0.0002        3.7055        3.7058       3.704007       0.08700
  13     269.0        0.0017        0.0002        3.3399        3.3401       3.338366       0.11861
  12     297.5        0.0017        0.0002        2.8954        2.8956       2.893872       0.13183
  11     328.5        0.0017        0.0002        2.4388        2.4390       2.437322       0.12413
  10     361.9        0.0017        0.0002        2.0269        2.0271       2.025366       0.10423
   9     398.1        0.0017        0.0002        1.6753        1.6755       1.673748       0.08192
   8     437.6        0.0018        0.0002        1.3592        1.3594       1.357577       0.06760
   7     480.5        0.0019        0.0002        1.0616        1.0618       1.059899       0.05846
   6     533.0        0.0021        0.0001        0.7543        0.7544       0.752369       0.04947
   5     589.8        0.0024        0.0001        0.4951        0.4952       0.492815       0.03853
   4     651.6        0.0031        0.0001        0.2943        0.2943       0.291215       0.02757
   3     718.7        0.0045        0.0001        0.1528        0.1529       0.148335       0.01796
   2     792.3        0.0074        0.0000        0.0658        0.0658       0.058462       0.01031
   1     891.5        0.0002        0.0052        0.0079        0.0131       0.012973       0.00387
   0    1013.0        0.0007        0.0012        0.0007        0.0019       0.001213       0.00082



 Wavenumbers:  4000. -  4650. cm-1, ATM      1
 LEVEL PRESSURE   UPWARD FLUX   DIFDOWN FLUX  DIRDOWN FLUX  DOWNWARD FLUX   NET FLUX    HEATING RATE
          mb          W/m2          W/m2          W/m2        W/m2          W/m2       degree/day
  51    .06700        1.4368        0.0000        6.9421        6.9421       5.505265       0.00000
  50    .07753        1.4368        0.0000        6.9421        6.9421       5.505264       0.00079
  49    .09103        1.4368        0.0000        6.9421        6.9421       5.505263       0.00078
  48    0.1069        1.4368        0.0000        6.9421        6.9421       5.505261       0.00076
  47    0.1255        1.4368        0.0000        6.9421        6.9421       5.505260       0.00074
  46    0.1487        1.4368        0.0000        6.9421        6.9421       5.505258       0.00075
  45    0.1794        1.4368        0.0000        6.9421        6.9421       5.505255       0.00077
  44    0.2165        1.4368        0.0000        6.9421        6.9421       5.505251       0.00076
  43    0.2613        1.4368        0.0000        6.9420        6.9420       5.505247       0.00074
  42    0.3336        1.4368        0.0000        6.9420        6.9420       5.505241       0.00076
  41    0.4307        1.4368        0.0000        6.9420        6.9420       5.505232       0.00077
  40    0.5894        1.4368        0.0000        6.9420        6.9420       5.505217       0.00079
  39     1.339        1.4368        0.0000        6.9419        6.9419       5.505128       0.00100
  38     1.782        1.4368        0.0000        6.9418        6.9419       5.505059       0.00132
  37     2.292        1.4368        0.0000        6.9418        6.9418       5.504965       0.00155
  36     2.964        1.4368        0.0000        6.9416        6.9416       5.504826       0.00175
  35     3.853        1.4368        0.0000        6.9414        6.9414       5.504619       0.00196
  34     5.035        1.4368        0.0000        6.9411        6.9411       5.504315       0.00218
  33     6.613        1.4368        0.0000        6.9406        6.9406       5.503867       0.00239
  32     8.786        1.4368        0.0000        6.9399        6.9400       5.503207       0.00256
  31     11.80        1.4368        0.0000        6.9389        6.9389       5.502172       0.00290
  30     15.07        1.4368        0.0001        6.9377        6.9377       5.500962       0.00312
  29     18.79        1.4367        0.0001        6.9362        6.9363       5.499504       0.00331
  28     23.16        1.4367        0.0001        6.9343        6.9344       5.497700       0.00349
  27     28.12        1.4367        0.0001        6.9321        6.9322       5.495527       0.00370
  26     33.73        1.4367        0.0001        6.9294        6.9296       5.492860       0.00401
  25     40.54        1.4367        0.0002        6.9258        6.9260       5.489264       0.00446
  24     48.69        1.4367        0.0002        6.9210        6.9212       5.484504       0.00493
  23     57.69        1.4367        0.0002        6.9154        6.9156       5.478904       0.00525
  22     68.43        1.4367        0.0003        6.9083        6.9086       5.471943       0.00547
  21     81.20        1.4367        0.0003        6.8998        6.9001       5.463431       0.00562
  20     96.49        1.4367        0.0004        6.8894        6.8898       5.453151       0.00567
  19     114.6        1.4367        0.0004        6.8765        6.8770       5.440283       0.00601
  18     136.5        1.4367        0.0005        6.8610        6.8615       5.424760       0.00597
  17     162.9        1.4368        0.0006        6.8417        6.8423       5.405451       0.00617
  16     196.4        1.4370        0.0007        6.8147        6.8154       5.378366       0.00682
  15     218.7        1.4373        0.0008        6.7948        6.7957       5.358418       0.00757
  14     243.0        1.4376        0.0009        6.7698        6.7707       5.333119       0.00877
  13     269.0        1.4381        0.0010        6.7349        6.7359       5.297735       0.01148
  12     297.5        1.4390        0.0011        6.6869        6.6880       5.248986       0.01446
  11     328.5        1.4402        0.0012        6.6194        6.6206       5.180373       0.01866
  10     361.9        1.4419        0.0013        6.5295        6.5308       5.088930       0.02314
   9     398.1        1.4440        0.0014        6.4202        6.4217       4.977613       0.02593
   8     437.6        1.4470        0.0016        6.2962        6.2977       4.850762       0.02712
   7     480.5        1.4510        0.0017        6.1555        6.1572       4.706135       0.02840
   6     533.0        1.4577        0.0018        5.9675        5.9694       4.511658       0.03129
   5     589.8        1.4675        0.0020        5.7368        5.7387       4.271235       0.03569
   4     651.6        1.4820        0.0021        5.4662        5.4683       3.986339       0.03896
   3     718.7        1.5024        0.0022        5.1912        5.1934       3.690967       0.03712
   2     792.3        1.5301        0.0024        4.9395        4.9418       3.411696       0.03203
   1     891.5        0.3991        1.2005        2.3455        3.5459       3.146835       0.02254
   0    1013.0        0.4138        1.1460        2.1786        3.3246       2.910833       0.01639



 Wavenumbers:  4650. -  5150. cm-1, ATM      1
 LEVEL PRESSURE   UPWARD FLUX   DIFDOWN FLUX  DIRDOWN FLUX  DOWNWARD FLUX   NET FLUX    HEATING RATE
          mb          W/m2          W/m2          W/m2        W/m2          W/m2       degree/day
  51    .06700        1.0035        0.0000        6.5710        6.5710       5.567447       0.00000
  50    .07753        1.0035        0.0000        6.5708        6.5708       5.567211       0.18887
  49    .09103        1.0035        0.0000        6.5705        6.5705       5.566917       0.18362
  48    0.1069        1.0035        0.0000        6.5701        6.5701       5.566583       0.17806
  47    0.1255        1.0035        0.0000        6.5697        6.5697       5.566203       0.17238
  46    0.1487        1.0035        0.0000        6.5693        6.5693       5.565729       0.17268
  45    0.1794        1.0035        0.0000        6.5686        6.5686       5.565092       0.17473
  44    0.2165        1.0035        0.0000        6.5679        6.5679       5.564354       0.16788
  43    0.2613        1.0035        0.0000        6.5670        6.5670       5.563501       0.16078
  42    0.3336        1.0035        0.0000        6.5657        6.5657       5.562138       0.15894
  41    0.4307        1.0035        0.0000        6.5640        6.5640       5.560416       0.14971
  40    0.5894        1.0035        0.0000        6.5613        6.5613       5.557800       0.13913
  39     1.339        1.0035        0.0000        6.5516        6.5516       5.548022       0.11008
  38     1.782        1.0035        0.0000        6.5473        6.5473       5.543807       0.08026
  37     2.292        1.0035        0.0000        6.5434        6.5435       5.539920       0.06438
  36     2.964        1.0035        0.0000        6.5395        6.5395       5.535965       0.04964
  35     3.853        1.0035        0.0000        6.5355        6.5356       5.532022       0.03742
  34     5.035        1.0035        0.0000        6.5315        6.5315       5.528020       0.02859
  33     6.613        1.0035        0.0000        6.5271        6.5271       5.523625       0.02349
  32     8.786        1.0035        0.0001        6.5216        6.5216       5.518129       0.02134
  31     11.80        1.0035        0.0001        6.5135        6.5135       5.510049       0.02262
  30     15.07        1.0035        0.0001        6.5041        6.5042       5.500678       0.02419
  29     18.79        1.0035        0.0001        6.4925        6.4926       5.489159       0.02612
  28     23.16        1.0035        0.0001        6.4779        6.4780       5.474563       0.02822
  27     28.12        1.0035        0.0002        6.4599        6.4600       5.456582       0.03057
  26     33.73        1.0035        0.0002        6.4384        6.4386       5.435144       0.03223
  25     40.54        1.0034        0.0002        6.4112        6.4115       5.408009       0.03366
  24     48.69        1.0034        0.0003        6.3775        6.3778       5.374357       0.03482
  23     57.69        1.0035        0.0003        6.3404        6.3407       5.337248       0.03478
  22     68.43        1.0035        0.0004        6.2971        6.2975       5.294035       0.03397
  21     81.20        1.0035        0.0005        6.2483        6.2487       5.245188       0.03228
  20     96.49        1.0036        0.0005        6.1948        6.1954       5.191774       0.02948
  19     114.6        1.0037        0.0006        6.1381        6.1388       5.135080       0.02647
  18     136.5        1.0039        0.0008        6.0790        6.0798       5.075890       0.02276
  17     162.9        1.0041        0.0009        6.0160        6.0169       5.012817       0.02016
  16     196.4        1.0045        0.0011        5.9399        5.9409       4.936398       0.01924
  15     218.7        1.0049        0.0012        5.8896        5.8908       4.885922       0.01916
  14     243.0        1.0054        0.0013        5.8322        5.8335       4.828109       0.02005
  13     269.0        1.0061        0.0014        5.7624        5.7638       4.757732       0.02283
  12     297.5        1.0071        0.0015        5.6767        5.6783       4.671141       0.02568
  11     328.5        1.0086        0.0017        5.5726        5.5743       4.565674       0.02868
  10     361.9        1.0106        0.0018        5.4473        5.4492       4.438537       0.03217
   9     398.1        1.0133        0.0020        5.2995        5.3015       4.288109       0.03505
   8     437.6        1.0170        0.0021        5.1275        5.1296       4.112547       0.03754
   7     480.5        1.0221        0.0023        4.9290        4.9312       3.909133       0.03995
   6     533.0        1.0301        0.0024        4.6794        4.6818       3.651659       0.04142
   5     589.8        1.0414        0.0025        4.4188        4.4213       3.379934       0.04033
   4     651.6        1.0574        0.0027        4.1521        4.1548       3.097363       0.03864
   3     718.7        1.0792        0.0028        3.8929        3.8957       2.816554       0.03529
   2     792.3        1.1082        0.0029        3.6469        3.6498       2.541561       0.03154
   1     891.5        0.2878        0.8703        1.6923        2.5626       2.274822       0.02270
   0    1013.0        0.3019        0.8182        1.5333        2.3515       2.049572       0.01564



 Wavenumbers:  5150. -  6150. cm-1, ATM      1
 LEVEL PRESSURE   UPWARD FLUX   DIFDOWN FLUX  DIRDOWN FLUX  DOWNWARD FLUX   NET FLUX    HEATING RATE
          mb          W/m2          W/m2          W/m2        W/m2          W/m2       degree/day
  51    .06700        2.5724        0.0000       16.4735       16.4735      13.901102       0.00000
  50    .07753        2.5724        0.0000       16.4735       16.4735      13.901067       0.02762
  49    .09103        2.5724        0.0000       16.4734       16.4734      13.901022       0.02811
  48    0.1069        2.5724        0.0000       16.4734       16.4734      13.900968       0.02860
  47    0.1255        2.5724        0.0000       16.4733       16.4733      13.900904       0.02905
  46    0.1487        2.5724        0.0000       16.4732       16.4732      13.900820       0.03060
  45    0.1794        2.5724        0.0000       16.4731       16.4731      13.900701       0.03269
  44    0.2165        2.5724        0.0000       16.4730       16.4730      13.900555       0.03332
  43    0.2613        2.5724        0.0000       16.4728       16.4728      13.900376       0.03377
  42    0.3336        2.5724        0.0000       16.4725       16.4725      13.900070       0.03565
  41    0.4307        2.5724        0.0000       16.4720       16.4720      13.899651       0.03646
  40    0.5894        2.5724        0.0000       16.4713       16.4713      13.898949       0.03729
  39     1.339        2.5724        0.0000       16.4679       16.4679      13.895540       0.03838
  38     1.782        2.5724        0.0000       16.4659       16.4659      13.893540       0.03808
  37     2.292        2.5724        0.0001       16.4635       16.4636      13.891248       0.03796
  36     2.964        2.5723        0.0001       16.4605       16.4606      13.888278       0.03729
  35     3.853        2.5723        0.0001       16.4567       16.4568      13.884423       0.03658
  34     5.035        2.5723        0.0001       16.4516       16.4517      13.879424       0.03571
  33     6.613        2.5723        0.0002       16.4451       16.4452      13.872960       0.03456
  32     8.786        2.5722        0.0002       16.4367       16.4369      13.864643       0.03230
  31     11.80        2.5722        0.0003       16.4254       16.4257      13.853484       0.03124
  30     15.07        2.5721        0.0004       16.4141       16.4145      13.842387       0.02865
  29     18.79        2.5721        0.0005       16.4024       16.4029      13.830855       0.02615
  28     23.16        2.5720        0.0006       16.3900       16.3906      13.818580       0.02374
  27     28.12        2.5719        0.0007       16.3771       16.3778      13.805899       0.02156
  26     33.73        2.5719        0.0009       16.3641       16.3650      13.793151       0.01917
  25     40.54        2.5718        0.0011       16.3502       16.3512      13.779482       0.01696
  24     48.69        2.5717        0.0013       16.3354       16.3366      13.764970       0.01502
  23     57.69        2.5716        0.0015       16.3211       16.3226      13.751024       0.01307
  22     68.43        2.5715        0.0018       16.3062       16.3080      13.736578       0.01136
  21     81.20        2.5713        0.0021       16.2903       16.2925      13.721114       0.01022
  20     96.49        2.5712        0.0025       16.2726       16.2752      13.703952       0.00947
  19     114.6        2.5710        0.0030       16.2521       16.2551      13.684030       0.00930
  18     136.5        2.5709        0.0036       16.2245       16.2281      13.657236       0.01030
  17     162.9        2.5707        0.0042       16.1747       16.1790      13.608285       0.01565
  16     196.4        2.5705        0.0051       16.0518       16.0569      13.486451       0.03067
  15     218.7        2.5704        0.0056       15.8984       15.9040      13.333641       0.05802
  14     243.0        2.5703        0.0062       15.6153       15.6214      13.051142       0.09798
  13     269.0        2.5703        0.0067       15.1390       15.1457      12.575376       0.15434
  12     297.5        2.5705        0.0072       14.5779       14.5851      12.014603       0.16632
  11     328.5        2.5709        0.0076       13.8780       13.8857      11.314783       0.19028
  10     361.9        2.5716        0.0080       13.0814       13.0895      10.517838       0.20164
   9     398.1        2.5729        0.0084       12.2728       12.2812       9.708325       0.18860
   8     437.6        2.5750        0.0087       11.4776       11.4863       8.911325       0.17040
   7     480.5        2.5783        0.0090       10.7300       10.7390       8.160698       0.14742
   6     533.0        2.5844        0.0094       10.0326       10.0420       7.457596       0.11311
   5     589.8        2.5942        0.0098        9.5050        9.5148       6.920614       0.07971
   4     651.6        2.6102        0.0104        9.0814        9.0917       6.481543       0.06004
   3     718.7        2.6346        0.0110        8.7024        8.7134       6.078806       0.05061
   2     792.3        2.6705        0.0117        8.3379        8.3497       5.679206       0.04583
   1     891.5        0.7546        2.0556        3.9896        6.0452       5.290596       0.03307
   0    1013.0        0.7712        1.9797        3.7715        5.7512       4.979928       0.02157



 Wavenumbers:  6150. -  7700. cm-1, ATM      1
 LEVEL PRESSURE   UPWARD FLUX   DIFDOWN FLUX  DIRDOWN FLUX  DOWNWARD FLUX   NET FLUX    HEATING RATE
          mb          W/m2          W/m2          W/m2        W/m2          W/m2       degree/day
  51    .06700        3.9770        0.0000       30.4684       30.4684      26.491432       0.00000
  50    .07753        3.9770        0.0000       30.4683       30.4683      26.491380       0.04144
  49    .09103        3.9769        0.0000       30.4683       30.4683      26.491313       0.04174
  48    0.1069        3.9769        0.0000       30.4682       30.4682      26.491234       0.04202
  47    0.1255        3.9769        0.0000       30.4681       30.4681      26.491141       0.04227
  46    0.1487        3.9769        0.0000       30.4680       30.4680      26.491020       0.04411
  45    0.1794        3.9769        0.0000       30.4678       30.4678      26.490850       0.04669
  44    0.2165        3.9769        0.0000       30.4676       30.4676      26.490643       0.04715
  43    0.2613        3.9769        0.0000       30.4673       30.4673      26.490391       0.04744
  42    0.3336        3.9769        0.0000       30.4669       30.4669      26.489965       0.04974
  41    0.4307        3.9769        0.0000       30.4663       30.4663      26.489383       0.05052
  40    0.5894        3.9769        0.0001       30.4653       30.4653      26.488416       0.05146
  39     1.339        3.9768        0.0001       30.4604       30.4606      26.483732       0.05273
  38     1.782        3.9768        0.0002       30.4576       30.4578      26.480982       0.05235
  37     2.292        3.9767        0.0002       30.4543       30.4546      26.477824       0.05231
  36     2.964        3.9767        0.0003       30.4501       30.4504      26.473717       0.05156
  35     3.853        3.9766        0.0004       30.4445       30.4449      26.468359       0.05084
  34     5.035        3.9765        0.0006       30.4373       30.4378      26.461360       0.05000
  33     6.613        3.9763        0.0007       30.4278       30.4285      26.452212       0.04890
  32     8.786        3.9761        0.0010       30.4154       30.4164      26.440259       0.04642
  31     11.80        3.9758        0.0013       30.3984       30.3997      26.423874       0.04587
  30     15.07        3.9755        0.0017       30.3810       30.3826      26.407160       0.04315
  29     18.79        3.9751        0.0021       30.3623       30.3644      26.389260       0.04059
  28     23.16        3.9747        0.0026       30.3417       30.3443      26.369576       0.03806
  27     28.12        3.9742        0.0031       30.3196       30.3227      26.348476       0.03587
  26     33.73        3.9737        0.0037       30.2965       30.3002      26.326557       0.03296
  25     40.54        3.9730        0.0045       30.2708       30.2752      26.302220       0.03019
  24     48.69        3.9722        0.0054       30.2423       30.2476      26.275443       0.02771
  23     57.69        3.9713        0.0063       30.2139       30.2202      26.248876       0.02490
  22     68.43        3.9703        0.0075       30.1834       30.1909      26.220600       0.02223
  21     81.20        3.9690        0.0089       30.1500       30.1589      26.189870       0.02031
  20     96.49        3.9676        0.0106       30.1126       30.1232      26.155651       0.01889
  19     114.6        3.9658        0.0126       30.0695       30.0821      26.116263       0.01839
  18     136.5        3.9637        0.0149       30.0139       30.0288      26.065104       0.01967
  17     162.9        3.9613        0.0177       29.9225       29.9402      25.978917       0.02755
  16     196.4        3.9581        0.0213       29.7333       29.7546      25.796507       0.04591
  15     218.7        3.9561        0.0236       29.5259       29.5494      25.593353       0.07713
  14     243.0        3.9539        0.0259       29.1375       29.1634      25.209477       0.13314
  13     269.0        3.9519        0.0282       28.3800       28.4082      24.456378       0.24430
  12     297.5        3.9500        0.0304       27.3895       27.4199      23.469950       0.29256
  11     328.5        3.9485        0.0324       26.2257       26.2581      22.309611       0.31549
  10     361.9        3.9478        0.0343       24.8453       24.8796      20.931805       0.34860
   9     398.1        3.9483        0.0359       23.3471       23.3829      19.434669       0.34880
   8     437.6        3.9507        0.0372       21.7966       21.8339      17.883188       0.33172
   7     480.5        3.9565        0.0383       20.1977       20.2360      16.279508       0.31496
   6     533.0        3.9694        0.0394       18.4969       18.5363      14.566913       0.27550
   5     589.8        3.9922        0.0404       16.9754       17.0158      13.023597       0.22908
   4     651.6        4.0311        0.0415       15.6022       15.6436      11.612580       0.19296
   3     718.7        4.0915        0.0427       14.4232       14.4659      10.374386       0.15561
   2     792.3        4.1806        0.0441       13.4386       13.4828       9.302173       0.12297
   1     891.5        1.1543        3.2517        6.2429        9.4946       8.340265       0.08185
   0    1013.0        1.1990        3.0643        5.6968        8.7611       7.562153       0.05403



 Wavenumbers:  7700. -  8050. cm-1, ATM      1
 LEVEL PRESSURE   UPWARD FLUX   DIFDOWN FLUX  DIRDOWN FLUX  DOWNWARD FLUX   NET FLUX    HEATING RATE
          mb          W/m2          W/m2          W/m2        W/m2          W/m2       degree/day
  51    .06700        1.9778        0.0000        7.2006        7.2006       5.222785       0.00000
  50    .07753        1.9778        0.0000        7.2006        7.2006       5.222766       0.01525
  49    .09103        1.9778        0.0000        7.2005        7.2005       5.222742       0.01495
  48    0.1069        1.9778        0.0000        7.2005        7.2005       5.222715       0.01463
  47    0.1255        1.9778        0.0000        7.2005        7.2005       5.222683       0.01432
  46    0.1487        1.9778        0.0000        7.2004        7.2005       5.222643       0.01453
  45    0.1794        1.9778        0.0000        7.2004        7.2004       5.222589       0.01495
  44    0.2165        1.9778        0.0000        7.2003        7.2003       5.222524       0.01466
  43    0.2613        1.9778        0.0000        7.2003        7.2003       5.222448       0.01439
  42    0.3336        1.9778        0.0000        7.2001        7.2001       5.222322       0.01472
  41    0.4307        1.9778        0.0000        7.2000        7.2000       5.222154       0.01456
  40    0.5894        1.9778        0.0000        7.1997        7.1997       5.221881       0.01454
  39     1.339        1.9779        0.0001        7.1984        7.1985       5.220587       0.01456
  38     1.782        1.9779        0.0001        7.1977        7.1978       5.219828       0.01446
  37     2.292        1.9780        0.0001        7.1968        7.1969       5.218949       0.01456
  36     2.964        1.9780        0.0001        7.1957        7.1958       5.217795       0.01448
  35     3.853        1.9781        0.0002        7.1942        7.1944       5.216273       0.01445
  34     5.035        1.9782        0.0002        7.1922        7.1925       5.214251       0.01444
  33     6.613        1.9783        0.0003        7.1896        7.1899       5.211553       0.01442
  32     8.786        1.9785        0.0004        7.1860        7.1864       5.207922       0.01410
  31     11.80        1.9788        0.0005        7.1810        7.1815       5.202740       0.01451
  30     15.07        1.9790        0.0007        7.1755        7.1762       5.197192       0.01432
  29     18.79        1.9793        0.0009        7.1694        7.1703       5.190945       0.01417
  28     23.16        1.9797        0.0010        7.1623        7.1634       5.183675       0.01406
  27     28.12        1.9801        0.0013        7.1542        7.1555       5.175397       0.01407
  26     33.73        1.9806        0.0015        7.1452        7.1468       5.166181       0.01386
  25     40.54        1.9812        0.0018        7.1344        7.1363       5.155114       0.01373
  24     48.69        1.9818        0.0022        7.1215        7.1237       5.141868       0.01371
  23     57.69        1.9826        0.0026        7.1074        7.1100       5.127440       0.01352
  22     68.43        1.9835        0.0031        7.0909        7.0939       5.110420       0.01338
  21     81.20        1.9846        0.0036        7.0713        7.0750       5.090375       0.01325
  20     96.49        1.9859        0.0043        7.0484        7.0527       5.066808       0.01301
  19     114.6        1.9875        0.0051        7.0217        7.0268       5.039264       0.01286
  18     136.5        1.9894        0.0061        6.9906        6.9966       5.007205       0.01233
  17     162.9        1.9918        0.0072        6.9544        6.9616       4.969812       0.01195
  16     196.4        1.9948        0.0086        6.9087        6.9174       4.922522       0.01190
  15     218.7        1.9969        0.0096        6.8794        6.8890       4.892092       0.01155
  14     243.0        1.9992        0.0106        6.8481        6.8587       4.859522       0.01130
  13     269.0        2.0017        0.0117        6.8147        6.8264       4.824691       0.01130
  12     297.5        2.0046        0.0129        6.7791        6.7920       4.787411       0.01106
  11     328.5        2.0077        0.0142        6.7409        6.7551       4.747388       0.01088
  10     361.9        2.0113        0.0156        6.7002        6.7157       4.704386       0.01088
   9     398.1        2.0154        0.0171        6.6563        6.6733       4.657894       0.01083
   8     437.6        2.0201        0.0186        6.6089        6.6275       4.607381       0.01080
   7     480.5        2.0256        0.0203        6.5570        6.5773       4.551751       0.01093
   6     533.0        2.0330        0.0224        6.4915        6.5139       4.480899       0.01140
   5     589.8        2.0419        0.0246        6.4182        6.4428       4.400936       0.01187
   4     651.6        2.0527        0.0269        6.3359        6.3628       4.310057       0.01243
   3     718.7        2.0658        0.0294        6.2441        6.2735       4.207703       0.01286
   2     792.3        2.0813        0.0320        6.1437        6.1757       4.094409       0.01299
   1     891.5        0.6458        1.5863        3.0293        4.6156       3.969761       0.01061
   0    1013.0        0.6543        1.5611        2.9388        4.5000       3.845666       0.00862



 Wavenumbers:  8050. - 12850. cm-1, ATM      1
 LEVEL PRESSURE   UPWARD FLUX   DIFDOWN FLUX  DIRDOWN FLUX  DOWNWARD FLUX   NET FLUX    HEATING RATE
          mb          W/m2          W/m2          W/m2        W/m2          W/m2       degree/day
  51    .06700       31.4630        0.0000      100.8135      100.8135      69.350547       0.00000
  50    .07753       31.4629        0.0000      100.8135      100.8135      69.350547       0.00000
  49    .09103       31.4629        0.0001      100.8134      100.8135      69.350547       0.00000
  48    0.1069       31.4629        0.0001      100.8134      100.8134      69.350547       0.00000
  47    0.1255       31.4629        0.0001      100.8133      100.8134      69.350547       0.00000
  46    0.1487       31.4628        0.0002      100.8132      100.8134      69.350547      -0.00000
  45    0.1794       31.4628        0.0003      100.8131      100.8133      69.350547       0.00000
  44    0.2165       31.4627        0.0003      100.8129      100.8133      69.350547      -0.00000
  43    0.2613       31.4626        0.0004      100.8127      100.8132      69.350547       0.00000
  42    0.3336       31.4625        0.0006      100.8125      100.8131      69.350547      -0.00000
  41    0.4307       31.4624        0.0008      100.8121      100.8129      69.350547       0.00000
  40    0.5894       31.4621        0.0012      100.8115      100.8126      69.350547       0.00000
  39     1.339       31.4608        0.0029      100.8085      100.8114      69.350547      -0.00000
  38     1.782       31.4601        0.0039      100.8068      100.8106      69.350547       0.00000
  37     2.292       31.4592        0.0050      100.8047      100.8098      69.350547       0.00000
  36     2.964       31.4581        0.0065      100.8021      100.8086      69.350547       0.00000
  35     3.853       31.4566        0.0085      100.7986      100.8072      69.350547       0.00000
  34     5.035       31.4546        0.0112      100.7940      100.8052      69.350547      -0.00000
  33     6.613       31.4520        0.0148      100.7878      100.8025      69.350547       0.00000
  32     8.786       31.4484        0.0196      100.7794      100.7990      69.350547       0.00000
  31     11.80       31.4433        0.0264      100.7674      100.7938      69.350547       0.00000
  30     15.07       31.4378        0.0338      100.7546      100.7884      69.350547      -0.00000
  29     18.79       31.4316        0.0421      100.7400      100.7821      69.350547      -0.00000
  28     23.16       31.4243        0.0519      100.7230      100.7749      69.350547       0.00000
  27     28.12       31.4160        0.0631      100.7035      100.7666      69.350547       0.00000
  26     33.73       31.4067        0.0756      100.6817      100.7572      69.350547      -0.00000
  25     40.54       31.3954        0.0907      100.6552      100.7460      69.350547       0.00000
  24     48.69       31.3818        0.1090      100.6234      100.7324      69.350547       0.00000
  23     57.69       31.3668        0.1291      100.5883      100.7174      69.350547      -0.00000
  22     68.43       31.3490        0.1531      100.5464      100.6995      69.350547       0.00000
  21     81.20       31.3276        0.1817      100.4965      100.6782      69.350547      -0.00000
  20     96.49       31.3022        0.2158      100.4370      100.6527      69.350547       0.00000
  19     114.6       31.2720        0.2564      100.3585      100.6148      69.342836       0.00360
  18     136.5       31.2362        0.3045      100.2634      100.5679      69.331739       0.00427
  17     162.9       31.1934        0.3620      100.1407      100.5027      69.309229       0.00720
  16     196.4       31.1380        0.4366       99.9505      100.3871      69.249125       0.01513
  15     218.7       31.1016        0.4856       99.7889      100.2746      69.173016       0.02890
  14     243.0       31.0621        0.5388       99.5472      100.0860      69.023898       0.05172
  13     269.0       31.0201        0.5962       99.1452       99.7414      68.721264       0.09817
  12     297.5       30.9761        0.6577       98.5975       99.2551      68.279015       0.13117
  11     328.5       30.9309        0.7235       97.8659       98.5893      67.658424       0.16874
  10     361.9       30.8861        0.7934       96.8848       97.6781      66.792090       0.21919
   9     398.1       30.8435        0.8671       95.6330       96.5001      65.656626       0.26454
   8     437.6       30.8068        0.9443       94.0655       95.0097      64.202886       0.31082
   7     480.5       30.7835        1.0238       92.0807       93.1046      62.321101       0.36958
   6     533.0       30.7817        1.1177       89.4449       90.5625      59.780800       0.40865
   5     589.8       30.8205        1.2144       86.5544       87.7688      56.948301       0.42044
   4     651.6       30.9240        1.3135       83.4174       84.7309      53.806934       0.42959
   3     718.7       31.1105        1.4157       80.2037       81.6194      50.508944       0.41447
   2     792.3       31.4007        1.5217       77.0811       78.6028      47.202097       0.37926
   1     891.5       14.4517       21.3370       36.9623       58.2993      43.847613       0.28545
   0    1013.0       14.7479       20.6853       34.7817       55.4669      40.719066       0.21723



 Wavenumbers: 12850. - 16000. cm-1, ATM      1
 LEVEL PRESSURE   UPWARD FLUX   DIFDOWN FLUX  DIRDOWN FLUX  DOWNWARD FLUX   NET FLUX    HEATING RATE
          mb          W/m2          W/m2          W/m2        W/m2          W/m2       degree/day
  51    .06700       35.0317        0.0000       63.1686       63.1686      28.136846       0.00000
  50    .07753       35.0317        0.0001       63.1677       63.1678      28.136067       0.62484
  49    .09103       35.0317        0.0001       63.1666       63.1668      28.135095       0.60725
  48    0.1069       35.0316        0.0002       63.1654       63.1656      28.133989       0.58886
  47    0.1255       35.0316        0.0003       63.1640       63.1643      28.132731       0.57040
  46    0.1487       35.0316        0.0004       63.1623       63.1627      28.131161       0.57197
  45    0.1794       35.0315        0.0006       63.1600       63.1606      28.129057       0.57764
  44    0.2165       35.0314        0.0008       63.1573       63.1581      28.126624       0.55351
  43    0.2613       35.0314        0.0010       63.1542       63.1552      28.123818       0.52902
  42    0.3336       35.0313        0.0014       63.1493       63.1507      28.119346       0.52132
  41    0.4307       35.0313        0.0019       63.1431       63.1450      28.113754       0.48619
  40    0.5894       35.0312        0.0027       63.1338       63.1365      28.105285       0.45039
  39     1.339       35.0324        0.0066       63.0956       63.1022      28.069733       0.40026
  38     1.782       35.0341        0.0088       63.0740       63.0829      28.048824       0.39807
  37     2.292       35.0368        0.0115       63.0477       63.0591      28.022318       0.43900
  36     2.964       35.0418        0.0149       63.0095       63.0245      27.982640       0.49809
  35     3.853       35.0503        0.0195       62.9533       62.9727      27.922429       0.57141
  34     5.035       35.0635        0.0255       62.8725       62.8980      27.834562       0.62769
  33     6.613       35.0820        0.0336       62.7621       62.7957      27.713651       0.64639
  32     8.786       35.1060        0.0444       62.6182       62.6627      27.556706       0.60952
  31     11.80       35.1366        0.0599       62.4284       62.4883      27.351698       0.57396
  30     15.07       35.1651        0.0765       62.2426       62.3191      27.153981       0.51047
  29     18.79       35.1935        0.0952       62.0493       62.1445      26.950983       0.46026
  28     23.16       35.2222        0.1170       61.8424       61.9594      26.737230       0.41333
  27     28.12       35.2498        0.1418       61.6278       61.7696      26.519856       0.36952
  26     33.73       35.2732        0.1696       61.4177       61.5872      26.314044       0.30944
  25     40.54       35.2929        0.2030       61.1983       61.4013      26.108476       0.25503
  24     48.69       35.3082        0.2433       60.9680       61.2113      25.903114       0.21252
  23     57.69       35.3169        0.2875       60.7478       61.0353      25.718392       0.17315
  22     68.43       35.3185        0.3401       60.5202       60.8603      25.541744       0.13887
  21     81.20       35.3084        0.4027       60.2938       60.6965      25.388090       0.10153
  20     96.49       35.2853        0.4773       60.0643       60.5415      25.256250       0.07277
  19     114.6       35.2583        0.5663       59.8078       60.3741      25.115791       0.06558
  18     136.5       35.2213        0.6716       59.5157       60.1873      24.966074       0.05757
  17     162.9       35.1726        0.7967       59.1770       59.9737      24.801155       0.05271
  16     196.4       35.0997        0.9585       58.7604       59.7189      24.619200       0.04580
  15     218.7       35.0484        1.0645       58.4948       59.5593      24.510865       0.04113
  14     243.0       34.9911        1.1794       58.2089       59.3883      24.397193       0.03943
  13     269.0       34.9278        1.3037       57.9006       59.2043      24.276500       0.03915
  12     297.5       34.8585        1.4377       57.5668       59.0045      24.146018       0.03870
  11     328.5       34.7841        1.5821       57.2005       58.7826      23.998510       0.04011
  10     361.9       34.7053        1.7370       56.7963       58.5334      23.828128       0.04311
   9     398.1       34.6228        1.9032       56.3475       58.2507      23.627955       0.04664
   8     437.6       34.5384        2.0808       55.8422       57.9230      23.384577       0.05204
   7     480.5       34.4557        2.2698       55.2625       57.5324      23.076740       0.06046
   6     533.0       34.3667        2.5005       54.4972       56.9977      22.631026       0.07170
   5     589.8       34.2870        2.7458       53.6307       56.3765      22.089514       0.08038
   4     651.6       34.2238        3.0049       52.6606       55.6654      21.441621       0.08860
   3     718.7       34.1812        3.2780       51.6100       54.8880      20.706854       0.09234
   2     792.3       34.1645        3.5651       50.5019       54.0669      19.902444       0.09226
   1     891.5       24.3522       18.5872       24.7322       43.3194      18.967274       0.07958
   0    1013.0       24.4506       18.5686       23.8287       42.3973      17.946695       0.07086



 Wavenumbers: 16000. - 22650. cm-1, ATM      1
 LEVEL PRESSURE   UPWARD FLUX   DIFDOWN FLUX  DIRDOWN FLUX  DOWNWARD FLUX   NET FLUX    HEATING RATE
          mb          W/m2          W/m2          W/m2        W/m2          W/m2       degree/day
  51    .06700       76.5177        0.0000      100.7153      100.7153      24.197558       0.00000
  50    .07753       76.5176        0.0003      100.7147      100.7151      24.197440       0.09425
  49    .09103       76.5175        0.0007      100.7140      100.7147      24.197269       0.10690
  48    0.1069       76.5173        0.0012      100.7131      100.7143      24.197040       0.12190
  47    0.1255       76.5171        0.0018      100.7121      100.7139      24.196733       0.13894
  46    0.1487       76.5169        0.0024      100.7108      100.7132      24.196282       0.16465
  45    0.1794       76.5167        0.0034      100.7089      100.7123      24.195576       0.19386
  44    0.2165       76.5164        0.0045      100.7066      100.7110      24.194618       0.21787
  43    0.2613       76.5162        0.0058      100.7037      100.7095      24.193318       0.24494
  42    0.3336       76.5158        0.0080      100.6987      100.7067      24.190848       0.28804
  41    0.4307       76.5155        0.0108      100.6918      100.7026      24.187124       0.32378
  40    0.5894       76.5153        0.0156      100.6797      100.6953      24.180022       0.37766
  39     1.339       76.5197        0.0378      100.6095      100.6473      24.127565       0.59057
  38     1.782       76.5264        0.0509      100.5585      100.6093      24.082891       0.85052
  37     2.292       76.5380        0.0660      100.4903      100.5563      24.018246       1.07070
  36     2.964       76.5590        0.0858      100.3868      100.4726      23.913569       1.31402
  35     3.853       76.5950        0.1120      100.2306      100.3426      23.747591       1.57516
  34     5.035       76.6510        0.1467      100.0045      100.1512      23.500234       1.76702
  33     6.613       76.7299        0.1930       99.6939       99.8869      23.157007       1.83489
  32     8.786       76.8320        0.2552       99.2881       99.5433      22.711307       1.73094
  31     11.80       76.9622        0.3439       98.7496       99.0935      22.131347       1.62370
  30     15.07       77.0835        0.4388       98.2198       98.6587      21.575129       1.43605
  29     18.79       77.2040        0.5457       97.6651       98.2108      21.006790       1.28860
  28     23.16       77.3256        0.6700       97.0671       97.7372      20.411522       1.15105
  27     28.12       77.4424        0.8117       96.4406       97.2522      19.809851       1.02280
  26     33.73       77.5409        0.9696       95.8179       96.7875      19.246606       0.84685
  25     40.54       77.6229        1.1599       95.1548       96.3147      18.691802       0.68830
  24     48.69       77.6858        1.3883       94.4420       95.8303      18.144472       0.56640
  23     57.69       77.7202        1.6382       93.7416       95.3798      17.659548       0.45454
  22     68.43       77.7240        1.9346       92.9954       94.9299      17.205908       0.35662
  21     81.20       77.6775        2.2863       92.2231       94.5095      16.831942       0.24711
  20     96.49       77.5751        2.7035       91.4110       94.1145      16.539469       0.16142
  19     114.6       77.4302        3.1955       90.5070       93.7025      16.272280       0.12476
  18     136.5       77.2435        3.7737       89.4803       93.2540      16.010421       0.10069
  17     162.9       77.0084        4.4554       88.3022       92.7576      15.749210       0.08349
  16     196.4       76.6744        5.3292       86.8606       92.1898      15.515380       0.05886
  15     218.7       76.4453        5.8968       85.9492       91.8460      15.400667       0.04355
  14     243.0       76.1927        6.5082       84.9789       91.4871      15.294464       0.03683
  13     269.0       75.9153        7.1643       83.9493       91.1136      15.198265       0.03121
  12     297.5       75.6127        7.8659       82.8589       90.7249      15.112189       0.02553
  11     328.5       75.2861        8.6155       81.6982       90.3137      15.027668       0.02298
  10     361.9       74.9356        9.4128       80.4669       89.8797      14.944171       0.02113
   9     398.1       74.5603       10.2597       79.1611       89.4208      14.860483       0.01950
   8     437.6       74.1609       11.1564       77.7777       88.9342      14.773284       0.01864
   7     480.5       73.7376       12.1033       76.3136       88.4170      14.679419       0.01843
   6     533.0       73.2243       13.2489       74.5359       87.7848      14.560461       0.01914
   5     589.8       72.6820       14.4592       72.6469       87.1062      14.424140       0.02023
   4     651.6       72.1132       15.7323       70.6456       86.3779      14.264753       0.02180
   3     718.7       71.5183       17.0660       68.5367       85.6027      14.084404       0.02266
   2     792.3       70.9003       18.4549       66.3287       84.7836      13.883264       0.02307
   1     891.5       59.1936       40.8206       32.0031       72.8237      13.630108       0.02154
   0    1013.0       58.7001       41.7335       30.2995       72.0330      13.332854       0.02064



 Wavenumbers: 22650. - 29000. cm-1, ATM      1
 LEVEL PRESSURE   UPWARD FLUX   DIFDOWN FLUX  DIRDOWN FLUX  DOWNWARD FLUX   NET FLUX    HEATING RATE
          mb          W/m2          W/m2          W/m2        W/m2          W/m2       degree/day
  51    .06700       34.5256        0.0000       38.0063       38.0063       3.480735       0.00000
  50    .07753       34.5254        0.0004       38.0057       38.0061       3.480735       0.00000
  49    .09103       34.5252        0.0009       38.0050       38.0059       3.480735       0.00000
  48    0.1069       34.5249        0.0014       38.0042       38.0057       3.480735       0.00000
  47    0.1255       34.5247        0.0021       38.0033       38.0054       3.480735       0.00000
  46    0.1487       34.5243        0.0029       38.0022       38.0051       3.480735       0.00000
  45    0.1794       34.5238        0.0040       38.0006       38.0046       3.480735      -0.00000
  44    0.2165       34.5233        0.0053       37.9987       38.0040       3.480735       0.00000
  43    0.2613       34.5226        0.0068       37.9965       38.0033       3.480735       0.00000
  42    0.3336       34.5215        0.0094       37.9928       38.0022       3.480735      -0.00000
  41    0.4307       34.5200        0.0128       37.9880       38.0008       3.480735       0.00000
  40    0.5894       34.5177        0.0184       37.9800       37.9984       3.480735       0.00000
  39     1.339       34.5064        0.0446       37.9425       37.9871       3.480735      -0.00000
  38     1.782       34.4997        0.0600       37.9204       37.9805       3.480735       0.00000
  37     2.292       34.4921        0.0779       37.8949       37.9728       3.480735      -0.00000
  36     2.964       34.4820        0.1013       37.8614       37.9627       3.480735       0.00000
  35     3.853       34.4687        0.1322       37.8172       37.9494       3.480735       0.00000
  34     5.035       34.4511        0.1732       37.7586       37.9318       3.480735       0.00000
  33     6.613       34.4275        0.2279       37.6803       37.9082       3.480735       0.00000
  32     8.786       34.3958        0.3015       37.5750       37.8766       3.480735      -0.00000
  31     11.80       34.3506        0.4065       37.4249       37.8314       3.480735       0.00000
  30     15.07       34.3023        0.5188       37.2642       37.7830       3.480735       0.00000
  29     18.79       34.2478        0.6452       37.0833       37.7285       3.480735      -0.00000
  28     23.16       34.1844        0.7922       36.8730       37.6652       3.480735      -0.00000
  27     28.12       34.1123        0.9593       36.6338       37.5931       3.480735       0.00000
  26     33.73       34.0321        1.1451       36.3677       37.5128       3.480735       0.00000
  25     40.54       33.9358        1.3679       36.0486       37.4165       3.480735       0.00000
  24     48.69       33.8206        1.6341       35.6672       37.3013       3.480735       0.00000
  23     57.69       33.6953        1.9234       35.2527       37.1761       3.480735       0.00000
  22     68.43       33.5477        2.2636       34.7649       37.0285       3.480735      -0.00000
  21     81.20       33.3743        2.6628       34.1922       36.8550       3.480735       0.00000
  20     96.49       33.1709        3.1299       33.5217       36.6516       3.480735      -0.00000
  19     114.6       32.9340        3.6724       32.7424       36.4148       3.480735       0.00000
  18     136.5       32.6597        4.2988       31.8416       36.1404       3.480735      -0.00000
  17     162.9       32.3419        5.0218       30.8008       35.8226       3.480735       0.00000
  16     196.4       31.9435        5.9236       29.5007       35.4243       3.480735      -0.00000
  15     218.7       31.6902        6.4943       28.6767       35.1710       3.480735       0.00000
  14     243.0       31.4220        7.0960       27.8068       34.9028       3.480735      -0.00000
  13     269.0       31.1395        7.7269       26.8933       34.6203       3.480735      -0.00000
  12     297.5       30.8434        8.3849       25.9393       34.3242       3.480735       0.00000
  11     328.5       30.5336        9.0693       24.9451       34.0144       3.480735       0.00000
  10     361.9       30.2115        9.7763       23.9160       33.6923       3.480735       0.00000
   9     398.1       29.8775       10.5041       22.8541       33.3583       3.480735      -0.00000
   8     437.6       29.5328       11.2491       21.7645       33.0136       3.480735       0.00000
   7     480.5       29.1787       12.0073       20.6521       32.6594       3.480735       0.00000
   6     533.0       28.7632       12.8870       19.3569       32.2439       3.480735      -0.00000
   5     589.8       28.3389       13.7729       18.0467       31.8196       3.480735       0.00000
   4     651.6       27.9083       14.6574       16.7316       31.3890       3.480735       0.00000
   3     718.7       27.4739       15.5333       15.4214       30.9547       3.480735       0.00000
   2     792.3       27.0387       16.3919       14.1276       30.5195       3.480735       0.00000
   1     891.5       24.2294       21.3800        6.3301       27.7101       3.480710       0.00000
   0    1013.0       23.8723       21.8676        5.4854       27.3530       3.480710      -0.00000



 Wavenumbers: 29000. - 38000. cm-1, ATM      1
 LEVEL PRESSURE   UPWARD FLUX   DIFDOWN FLUX  DIRDOWN FLUX  DOWNWARD FLUX   NET FLUX    HEATING RATE
          mb          W/m2          W/m2          W/m2        W/m2          W/m2       degree/day
  51    .06700        4.9034        0.0000       13.4026       13.4026       8.499167       0.00000
  50    .07753        4.9032        0.0003       13.3983       13.3986       8.495369       3.04440
  49    .09103        4.9029        0.0007       13.3921       13.3928       8.489850       3.44968
  48    0.1069        4.9026        0.0011       13.3840       13.3851       8.482473       3.92678
  47    0.1255        4.9023        0.0016       13.3733       13.3749       8.472628       4.46319
  46    0.1487        4.9019        0.0022       13.3579       13.3600       8.458185       5.26440
  45    0.1794        4.9013        0.0030       13.3340       13.3371       8.435786       6.14929
  44    0.2165        4.9006        0.0040       13.3024       13.3064       8.405767       6.82879
  43    0.2613        4.8999        0.0052       13.2604       13.2656       8.365712       7.55014
  42    0.3336        4.8986        0.0070       13.1833       13.1903       8.291705       8.62846
  41    0.4307        4.8971        0.0095       13.0729       13.0824       8.185333       9.24884
  40    0.5894        4.8947        0.0134       12.8796       12.8930       7.998289       9.94676
  39     1.339        4.8862        0.0297       11.9165       11.9462       7.059945      10.56404
  38     1.782        4.8829        0.0380       11.4399       11.4779       6.594960       8.85257
  37     2.292        4.8804        0.0469       10.9796       11.0265       6.146021       7.43560
  36     2.964        4.8790        0.0578       10.4786       10.5364       5.657378       6.13395
  35     3.853        4.8797        0.0713        9.9429       10.0142       5.134498       4.96223
  34     5.035        4.8831        0.0881        9.4007        9.4888       4.605728       3.77732
  33     6.613        4.8894        0.1094        8.8752        8.9847       4.095279       2.72886
  32     8.786        4.8981        0.1370        8.3786        8.5155       3.617466       1.85565
  31     11.80        4.9087        0.1748        7.8897        8.0644       3.155703       1.29279
  30     15.07        4.9179        0.2137        7.5108        7.7245       2.806677       0.90111
  29     18.79        4.9263        0.2562        7.1776        7.4338       2.507479       0.67838
  28     23.16        4.9341        0.3040        6.8664        7.1705       2.236381       0.52422
  27     28.12        4.9403        0.3569        6.5780        6.9350       1.994613       0.41099
  26     33.73        4.9427        0.4146        6.3195        6.7340       1.791370       0.30558
  25     40.54        4.9399        0.4825        6.0663        6.5488       1.608935       0.22633
  24     48.69        4.9314        0.5622        5.8128        6.3750       1.443618       0.17108
  23     57.69        4.9172        0.6472        5.5777        6.2249       1.307652       0.12745
  22     68.43        4.8951        0.7456        5.3379        6.0834       1.188361       0.09378
  21     81.20        4.8607        0.8597        5.0965        5.9562       1.095484       0.06137
  20     96.49        4.8128        0.9915        4.8476        5.8391       1.026303       0.03818
  19     114.6        4.7547        1.1409        4.5799        5.7207       0.966068       0.02813
  18     136.5        4.6872        1.3077        4.2891        5.5968       0.909593       0.02172
  17     162.9        4.6102        1.4927        3.9732        5.4659       0.855735       0.01722
  16     196.4        4.5126        1.7143        3.6080        5.3223       0.809679       0.01159
  15     218.7        4.4511        1.8491        3.3898        5.2389       0.787744       0.00833
  14     243.0        4.3872        1.9864        3.1686        5.1550       0.767842       0.00690
  13     269.0        4.3211        2.1253        2.9461        5.0714       0.750282       0.00570
  12     297.5        4.2532        2.2644        2.7239        4.9883       0.735085       0.00451
  11     328.5        4.1845        2.4024        2.5029        4.9053       0.720806       0.00388
  10     361.9        4.1152        2.5381        2.2846        4.8227       0.707467       0.00337
   9     398.1        4.0459        2.6702        2.0708        4.7409       0.695061       0.00289
   8     437.6        3.9769        2.7976        1.8626        4.6602       0.683324       0.00251
   7     480.5        3.9087        2.9190        1.6621        4.5811       0.672383       0.00215
   6     533.0        3.8321        3.0492        1.4437        4.4928       0.660682       0.00188
   5     589.8        3.7577        3.1683        1.2390        4.4073       0.649577       0.00165
   4     651.6        3.6860        3.2750        1.0500        4.3250       0.638917       0.00146
   3     718.7        3.6173        3.3682        0.8778        4.2460       0.628665       0.00129
   2     792.3        3.5519        3.4470        0.7237        4.1707       0.618801       0.00113
   1     891.5        3.3051        3.6317        0.2806        3.9124       0.607238       0.00098
   0    1013.0        3.2464        3.6377        0.2038        3.8414       0.595009       0.00085



 Wavenumbers: 38000. - 50000. cm-1, ATM      1
 LEVEL PRESSURE   UPWARD FLUX   DIFDOWN FLUX  DIRDOWN FLUX  DOWNWARD FLUX   NET FLUX    HEATING RATE
          mb          W/m2          W/m2          W/m2        W/m2          W/m2       degree/day
  51    .06700        0.0051        0.0000        0.8267        0.8267       0.821528       0.00000
  50    .07753        0.0051        0.0001        0.8242        0.8243       0.819196       1.86936
  49    .09103        0.0050        0.0002        0.8207        0.8209       0.815872       2.07705
  48    0.1069        0.0049        0.0002        0.8162        0.8164       0.811514       2.31984
  47    0.1255        0.0048        0.0004        0.8103        0.8106       0.805801       2.59006
  46    0.1487        0.0047        0.0005        0.8018        0.8023       0.797567       3.00143
  45    0.1794        0.0045        0.0007        0.7889        0.7896       0.785013       3.44648
  44    0.2165        0.0044        0.0009        0.7720        0.7729       0.768507       3.75474
  43    0.2613        0.0042        0.0011        0.7500        0.7511       0.746955       4.06246
  42    0.3336        0.0039        0.0015        0.7106        0.7121       0.708267       4.51071
  41    0.4307        0.0035        0.0019        0.6566        0.6584       0.654972       4.63387
  40    0.5894        0.0029        0.0024        0.5680        0.5704       0.567464       4.65357
  39     1.339        0.0015        0.0030        0.2422        0.2452       0.243720       3.64476
  38     1.782        0.0010        0.0026        0.1493        0.1519       0.150889       1.76735
  37     2.292        0.0007        0.0022        0.0924        0.0946       0.093932       0.94336
  36     2.964        0.0005        0.0018        0.0539        0.0557       0.055224       0.48589
  35     3.853        0.0003        0.0013        0.0295        0.0308       0.030502       0.23462
  34     5.035        0.0002        0.0010        0.0154        0.0164       0.016181       0.10230
  33     6.613        0.0001        0.0007        0.0073        0.0080       0.007912       0.04420
  32     8.786        0.0000        0.0004        0.0030        0.0034       0.003390       0.01756
  31     11.80        0.0000        0.0003        0.0010        0.0012       0.001199       0.00613
  30     15.07        0.0000        0.0001        0.0003        0.0005       0.000463       0.00190
  29     18.79        0.0000        0.0001        0.0001        0.0002       0.000182       0.00064
  28     23.16        0.0000        0.0000        0.0000        0.0001       0.000071       0.00022
  27     28.12        0.0000        0.0000        0.0000        0.0000       0.000028       0.00007
  26     33.73        0.0000        0.0000        0.0000        0.0000       0.000011       0.00002
  25     40.54        0.0000        0.0000        0.0000        0.0000       0.000005       0.00001
  24     48.69        0.0000        0.0000        0.0000        0.0000       0.000002       0.00000
  23     57.69        0.0000        0.0000        0.0000        0.0000       0.000001       0.00000
  22     68.43        0.0000        0.0000        0.0000        0.0000       0.000000       0.00000
  21     81.20        0.0000        0.0000        0.0000        0.0000       0.000000       0.00000
  20     96.49        0.0000        0.0000        0.0000        0.0000       0.000000       0.00000
  19     114.6        0.0000        0.0000        0.0000        0.0000       0.000000       0.00000
  18     136.5        0.0000        0.0000        0.0000        0.0000       0.000000       0.00000
  17     162.9        0.0000        0.0000        0.0000        0.0000       0.000000       0.00000
  16     196.4        0.0000        0.0000        0.0000        0.0000       0.000000       0.00000
  15     218.7        0.0000        0.0000        0.0000        0.0000       0.000000       0.00000
  14     243.0        0.0000        0.0000        0.0000        0.0000       0.000000       0.00000
  13     269.0        0.0000        0.0000        0.0000        0.0000       0.000000       0.00000
  12     297.5        0.0000        0.0000        0.0000        0.0000       0.000000       0.00000
  11     328.5        0.0000        0.0000        0.0000        0.0000       0.000000       0.00000
  10     361.9        0.0000        0.0000        0.0000        0.0000       0.000000       0.00000
   9     398.1        0.0000        0.0000        0.0000        0.0000       0.000000       0.00000
   8     437.6        0.0000        0.0000        0.0000        0.0000       0.000000       0.00000
   7     480.5        0.0000        0.0000        0.0000        0.0000       0.000000       0.00000
   6     533.0        0.0000        0.0000        0.0000        0.0000       0.000000       0.00000
   5     589.8        0.0000        0.0000        0.0000        0.0000       0.000000       0.00000
   4     651.6        0.0000        0.0000        0.0000        0.0000       0.000000       0.00000
   3     718.7        0.0000        0.0000        0.0000        0.0000       0.000000       0.00000
   2     792.3        0.0000        0.0000        0.0000        0.0000       0.000000       0.00000
   1     891.5        0.0000        0.0000        0.0000        0.0000       0.000000       0.00000
   0    1013.0        0.0000        0.0000        0.0000        0.0000       0.000000       0.00000



 Wavenumbers:   820. -  2600. cm-1, ATM      1
 LEVEL PRESSURE   UPWARD FLUX   DIFDOWN FLUX  DIRDOWN FLUX  DOWNWARD FLUX   NET FLUX    HEATING RATE
          mb          W/m2          W/m2          W/m2        W/m2          W/m2       degree/day
  51    .06700        0.2961        0.0000        3.8670        3.8670       3.570894       0.00000
  50    .07753        0.2961        0.0000        3.8643        3.8643       3.568177       2.17770
  49    .09103        0.2961        0.0000        3.8635        3.8635       3.567367       0.50638
  48    0.1069        0.2961        0.0000        3.8626        3.8626       3.566476       0.47415
  47    0.1255        0.2961        0.0000        3.8616        3.8616       3.565516       0.43559
  46    0.1487        0.2961        0.0000        3.8605        3.8605       3.564406       0.40437
  45    0.1794        0.2961        0.0000        3.8592        3.8592       3.563071       0.36648
  44    0.2165        0.2961        0.0000        3.8578        3.8578       3.561693       0.31346
  43    0.2613        0.2961        0.0000        3.8564        3.8564       3.560233       0.27522
  42    0.3336        0.2961        0.0000        3.8541        3.8541       3.558002       0.26013
  41    0.4307        0.2961        0.0000        3.8512        3.8512       3.555119       0.25063
  40    0.5894        0.2961        0.0000        3.8465        3.8465       3.550393       0.25134
  39     1.339        0.2961        0.0000        3.8251        3.8251       3.529018       0.24065
  38     1.782        0.2961        0.0000        3.8133        3.8133       3.517205       0.22490
  37     2.292        0.2961        0.0000        3.8003        3.8003       3.504143       0.21633
  36     2.964        0.2961        0.0000        3.7841        3.7841       3.488014       0.20247
  35     3.853        0.2961        0.0000        3.7642        3.7642       3.468099       0.18900
  34     5.035        0.2961        0.0000        3.7395        3.7395       3.443408       0.17639
  33     6.613        0.2961        0.0000        3.7090        3.7090       3.412871       0.16325
  32     8.786        0.2961        0.0000        3.6726        3.6726       3.376477       0.14134
  31     11.80        0.2961        0.0000        3.6320        3.6320       3.335881       0.11366
  30     15.07        0.2961        0.0000        3.6016        3.6016       3.305496       0.07845
  29     18.79        0.2961        0.0000        3.5777        3.5777       3.281596       0.05419
  28     23.16        0.2961        0.0000        3.5564        3.5564       3.260240       0.04130
  27     28.12        0.2962        0.0000        3.5348        3.5348       3.238691       0.03663
  26     33.73        0.2962        0.0000        3.5118        3.5118       3.215655       0.03464
  25     40.54        0.2962        0.0000        3.4849        3.4849       3.188763       0.03336
  24     48.69        0.2962        0.0000        3.4537        3.4537       3.157506       0.03235
  23     57.69        0.2962        0.0000        3.4210        3.4210       3.124827       0.03063
  22     68.43        0.2962        0.0000        3.3844        3.3844       3.088234       0.02877
  21     81.20        0.2962        0.0000        3.3441        3.3441       3.047927       0.02663
  20     96.49        0.2962        0.0000        3.2998        3.2998       3.003552       0.02449
  19     114.6        0.2963        0.0000        3.2506        3.2506       2.954390       0.02296
  18     136.5        0.2963        0.0000        3.1936        3.1936       2.897320       0.02194
  17     162.9        0.2963        0.0000        3.1181        3.1181       2.821780       0.02415
  16     196.4        0.2965        0.0000        3.0090        3.0090       2.712521       0.02750
  15     218.7        0.2965        0.0000        2.9420        2.9420       2.645464       0.02546
  14     243.0        0.2967        0.0000        2.8605        2.8605       2.563823       0.02832
  13     269.0        0.2969        0.0000        2.7419        2.7420       2.445110       0.03851
  12     297.5        0.2972        0.0000        2.5729        2.5729       2.275685       0.05025
  11     328.5        0.2978        0.0000        2.3602        2.3602       2.062450       0.05798
  10     361.9        0.2986        0.0000        2.1524        2.1524       1.853847       0.05278
   9     398.1        0.2998        0.0000        1.9974        1.9974       1.697647       0.03639
   8     437.6        0.3015        0.0000        1.8835        1.8835       1.582065       0.02471
   7     480.5        0.3039        0.0000        1.7734        1.7734       1.469586       0.02209
   6     533.0        0.3078        0.0000        1.6397        1.6398       1.331947       0.02214
   5     589.8        0.3135        0.0000        1.5068        1.5069       1.193353       0.02057
   4     651.6        0.3219        0.0000        1.3807        1.3807       1.058811       0.01840
   3     718.7        0.3331        0.0000        1.2680        1.2680       0.934912       0.01557
   2     792.3        0.3471        0.0000        1.1659        1.1660       0.818866       0.01331
   1     891.5        0.0934        0.2704        0.5233        0.7937       0.700359       0.01008
   0    1013.0        0.1028        0.2436        0.4397        0.6834       0.580590       0.00832

  Modules and versions used in this calculation:

       rrtmg_sw.1col.f90:  $Revision$                    rrtmg_sw_init.f90:  $Revision$        
     rrtmgsw_cldprop.f90:  $Revision$                  rrtmgsw_cldprmc.f90:  NOT USED          
     rrtmg_sw_reftra.f90:  $Revision$                  rrtmg_sw_spcvrt.f90:  NOT USED          
     rrtmg_sw_spcvmc.f90:  NOT USED                    rrtmgsw_setcoef.f90:  NOT USED          
     rrtmg_sw_taumol.f90:  $Revision$                  rrtmg_sw_vrtqdr.f90:  NOT USED          
                rrtatm.f:  NOT USED                             util_xxx.f:  NOT USED          
                 extra.f:  NOT USED                       rrtmg_sw_k_g.f90:  $Revision$        

