

 Wavenumbers:   820. - 50000. cm-1, ATM      1
 LEVEL PRESSURE   UPWARD FLUX   DIFDOWN FLUX  DIRDOWN FLUX  DOWNWARD FLUX   NET FLUX    HEATING RATE
          mb          W/m2          W/m2          W/m2        W/m2          W/m2       degree/day
  51    .06700      186.3535        0.0000      397.8738      397.8738     211.520322       0.00000
  50    .07753      186.3528        0.0011      397.8579      397.8591     211.506268      11.26409
  49    .09103      186.3520        0.0026      397.8425      397.8450     211.492996       8.29584
  48    0.1069      186.3512        0.0042      397.8240      397.8283     211.477089       8.46730
  47    0.1255      186.3502        0.0061      397.8012      397.8073     211.457108       9.05853
  46    0.1487      186.3490        0.0085      397.7697      397.7782     211.429224      10.16400
  45    0.1794      186.3474        0.0118      397.7232      397.7350     211.387666      11.40855
  44    0.2165      186.3455        0.0156      397.6637      397.6794     211.333827      12.24742
  43    0.2613      186.3435        0.0202      397.5873      397.6075     211.264017      13.15884
  42    0.3336      186.3402        0.0276      397.4509      397.4785     211.138349      14.65165
  41    0.4307      186.3361        0.0374      397.2604      397.2978     210.961683      15.36073
  40    0.5894      186.3301        0.0531      396.9366      396.9898     210.659691      16.05957
  39     1.339      186.3121        0.1234      395.4504      395.5738     209.261697      15.73887
  38     1.782      186.3085        0.1627      394.7607      394.9234     208.614834      12.31523
  37     2.292      186.3107        0.2074      394.0956      394.3030     207.992330      10.31029
  36     2.964      186.3321        0.2789      386.1843      386.4632     200.131148      98.68159
  35     3.853      186.3654        0.3596      384.7075      385.0670     198.701658      13.56612
  34     5.035      186.4183        0.4615      383.4664      383.9278     197.509542       8.51598
  33     6.613      186.4937        0.5946      382.2405      382.8351     196.341382       6.24499
  32     8.786      186.5890        0.7717      380.9484      381.7201     195.131029       4.70057
  31     11.80      186.7038        1.0225      379.4586      380.4811     193.777246       3.79017
  30     15.07      186.8022        1.2894      378.1070      379.3964     192.594154       3.05451
  29     18.79      186.8915        1.5884      376.7543      378.3427     191.451174       2.59149
  28     23.16      186.9706        1.9347      375.3326      377.2674     190.296785       2.23221
  27     28.12      187.0315        2.3274      373.8648      376.1921     189.160605       1.93143
  26     33.73      187.0565        2.7636      372.4026      375.1662     188.109654       1.58013
  25     40.54      187.0368        3.2865      370.8260      374.1125     187.075722       1.28271
  24     48.69      186.9653        3.9113      369.1004      373.0117     186.046356       1.06523
  23     57.69      186.8413        4.5908      367.3665      371.9573     185.116044       0.87203
  22     68.43      186.6448        5.3916      365.4708      370.8624     184.217694       0.70622
  21     81.20      186.3431        6.3352      363.4309      369.7660     183.422981       0.52513
  20     96.49      185.9229        7.4448      361.2103      368.6552     182.732288       0.38121
  19     114.6      185.4034        8.7401      358.6408      367.3809     181.977446       0.35246
  18     136.5      184.7764       10.2434      355.7385      365.9818     181.205480       0.29684
  17     162.9      184.0248       11.9903      352.4371      364.4274     180.402608       0.25663
  16     196.4      183.0291       14.1908      348.4048      362.5956     179.566496       0.21046
  15     218.7      182.3735       15.5967      345.8731      361.4698     179.096260       0.17853
  14     243.0      181.6659       17.0914      343.1990      360.2904     178.624463       0.16364
  13     269.0      180.9055       18.6733      340.3775      359.0508     178.145227       0.15546
  12     297.5      180.0926       20.3402      337.3822      357.7224     177.629780       0.15288
  11     328.5      179.2294       22.0933      334.1532      356.2466     177.017159       0.16657
  10     361.9      178.3181       23.9275      330.6409      354.5683     176.250245       0.19404
   9     398.1      177.3588       25.8420      326.7812      352.6232     175.264433       0.22967
   8     437.6      176.3544       27.8330      322.5045      350.3375     173.983043       0.27397
   7     480.5      175.3086       29.8952      317.7279      347.6231     172.314497       0.32770
   6     533.0      174.0670       32.3386      311.5430      343.8817     169.814649       0.40215
   5     589.8      172.7875       34.8610      304.6788      339.5398     166.752291       0.45455
   4     651.6      171.4826       37.4520      297.2509      334.7029     163.220360       0.48300
   3     718.7      170.1698       40.1013      289.3553      329.4565     159.286762       0.49434
   2     792.3      168.8768       42.7959      281.0708      323.8667     154.989862       0.49281
   1     891.5      167.3388       46.2137      270.3973      316.6111     149.272294       0.48654
   0    1013.0      165.8920       50.0181      258.3132      308.3313     142.439275       0.47445



 Wavenumbers:  2600. -  3250. cm-1, ATM      1
 LEVEL PRESSURE   UPWARD FLUX   DIFDOWN FLUX  DIRDOWN FLUX  DOWNWARD FLUX   NET FLUX    HEATING RATE
          mb          W/m2          W/m2          W/m2        W/m2          W/m2       degree/day
  51    .06700        0.5934        0.0000        3.5066        3.5066       2.913263       0.00000
  50    .07753        0.5934        0.0000        3.5066        3.5066       2.913255       0.00640
  49    .09103        0.5934        0.0000        3.5066        3.5066       2.913245       0.00627
  48    0.1069        0.5934        0.0000        3.5066        3.5066       2.913233       0.00613
  47    0.1255        0.5934        0.0000        3.5066        3.5066       2.913220       0.00599
  46    0.1487        0.5934        0.0000        3.5066        3.5066       2.913203       0.00607
  45    0.1794        0.5934        0.0000        3.5065        3.5065       2.913180       0.00624
  44    0.2165        0.5934        0.0000        3.5065        3.5065       2.913154       0.00611
  43    0.2613        0.5934        0.0000        3.5065        3.5065       2.913122       0.00598
  42    0.3336        0.5934        0.0000        3.5064        3.5064       2.913069       0.00615
  41    0.4307        0.5934        0.0000        3.5064        3.5064       2.912998       0.00617
  40    0.5894        0.5934        0.0000        3.5062        3.5062       2.912879       0.00633
  39     1.339        0.5934        0.0000        3.5055        3.5055       2.912180       0.00787
  38     1.782        0.5934        0.0000        3.5050        3.5050       2.911649       0.01010
  37     2.292        0.5934        0.0000        3.5043        3.5043       2.910957       0.01147
  36     2.964        0.5934        0.0000        3.5033        3.5033       2.909967       0.01243
  35     3.853        0.5934        0.0000        3.5019        3.5019       2.908589       0.01307
  34     5.035        0.5934        0.0000        3.5001        3.5001       2.906726       0.01331
  33     6.613        0.5934        0.0000        3.4977        3.4977       2.904312       0.01290
  32     8.786        0.5934        0.0000        3.4947        3.4947       2.901333       0.01157
  31     11.80        0.5934        0.0000        3.4910        3.4910       2.897689       0.01020
  30     15.07        0.5934        0.0000        3.4878        3.4878       2.894458       0.00834
  29     18.79        0.5934        0.0000        3.4847        3.4847       2.891378       0.00698
  28     23.16        0.5934        0.0000        3.4815        3.4815       2.888133       0.00628
  27     28.12        0.5934        0.0000        3.4778        3.4779       2.884485       0.00620
  26     33.73        0.5934        0.0000        3.4733        3.4734       2.879984       0.00677
  25     40.54        0.5934        0.0000        3.4670        3.4670       2.873613       0.00790
  24     48.69        0.5934        0.0000        3.4580        3.4580       2.864643       0.00928
  23     57.69        0.5934        0.0000        3.4469        3.4469       2.853484       0.01046
  22     68.43        0.5935        0.0000        3.4324        3.4325       2.839024       0.01137
  21     81.20        0.5935        0.0000        3.4145        3.4146       2.821059       0.01187
  20     96.49        0.5936        0.0000        3.3932        3.3932       2.799660       0.01181
  19     114.6        0.5937        0.0000        3.3633        3.3633       2.769625       0.01402
  18     136.5        0.5939        0.0001        3.3328        3.3329       2.739002       0.01178
  17     162.9        0.5941        0.0001        3.3026        3.3027       2.708605       0.00972
  16     196.4        0.5944        0.0001        3.2712        3.2713       2.676880       0.00799
  15     218.7        0.5946        0.0001        3.2540        3.2541       2.659483       0.00661
  14     243.0        0.5949        0.0001        3.2375        3.2376       2.642675       0.00583
  13     269.0        0.5952        0.0001        3.2211        3.2212       2.625965       0.00542
  12     297.5        0.5956        0.0001        3.2038        3.2039       2.608337       0.00523
  11     328.5        0.5961        0.0001        3.1842        3.1843       2.588182       0.00548
  10     361.9        0.5968        0.0001        3.1603        3.1604       2.563638       0.00621
   9     398.1        0.5977        0.0001        3.1299        3.1301       2.532367       0.00729
   8     437.6        0.5990        0.0002        3.0921        3.0923       2.493312       0.00835
   7     480.5        0.6006        0.0002        3.0444        3.0446       2.444027       0.00968
   6     533.0        0.6032        0.0002        2.9745        2.9747       2.371485       0.01167
   5     589.8        0.6067        0.0002        2.8874        2.8876       2.280908       0.01344
   4     651.6        0.6115        0.0002        2.7848        2.7850       2.173489       0.01469
   3     718.7        0.6180        0.0002        2.6682        2.6685       2.050454       0.01546
   2     792.3        0.6268        0.0002        2.5420        2.5423       1.915447       0.01548
   1     891.5        0.6424        0.0003        2.3783        2.3786       1.736143       0.01526
   0    1013.0        0.6690        0.0003        2.1931        2.1934       1.524441       0.01470



 Wavenumbers:  3250. -  4000. cm-1, ATM      1
 LEVEL PRESSURE   UPWARD FLUX   DIFDOWN FLUX  DIRDOWN FLUX  DOWNWARD FLUX   NET FLUX    HEATING RATE
          mb          W/m2          W/m2          W/m2        W/m2          W/m2       degree/day
  51    .06700        0.1306        0.0000        5.9117        5.9117       5.781014       0.00000
  50    .07753        0.1306        0.0000        5.9075        5.9075       5.776852       3.33607
  49    .09103        0.1306        0.0000        5.9052        5.9052       5.774563       1.43068
  48    0.1069        0.1306        0.0000        5.9035        5.9035       5.772850       0.91188
  47    0.1255        0.1306        0.0000        5.9019        5.9019       5.771230       0.73436
  46    0.1487        0.1306        0.0000        5.9001        5.9001       5.769495       0.63247
  45    0.1794        0.1306        0.0000        5.8982        5.8982       5.767518       0.54262
  44    0.2165        0.1306        0.0000        5.8962        5.8962       5.765570       0.44316
  43    0.2613        0.1306        0.0000        5.8943        5.8943       5.763621       0.36742
  42    0.3336        0.1306        0.0000        5.8915        5.8915       5.760865       0.32131
  41    0.4307        0.1306        0.0000        5.8881        5.8881       5.757491       0.29332
  40    0.5894        0.1306        0.0000        5.8830        5.8830       5.752385       0.27154
  39     1.339        0.1306        0.0000        5.8641        5.8641       5.733466       0.21300
  38     1.782        0.1306        0.0000        5.8561        5.8561       5.725475       0.15212
  37     2.292        0.1306        0.0000        5.8483        5.8483       5.717689       0.12897
  36     2.964        0.1307        0.0000        4.5648        4.5648       4.434055      16.11349
  35     3.853        0.1308        0.0000        4.3415        4.3415       4.210716       2.11952
  34     5.035        0.1308        0.0000        4.2288        4.2288       4.098011       0.80512
  33     6.613        0.1309        0.0000        4.1606        4.1606       4.029773       0.36480
  32     8.786        0.1309        0.0000        4.1135        4.1135       3.982599       0.18321
  31     11.80        0.1309        0.0000        4.0735        4.0735       3.942640       0.11187
  30     15.07        0.1309        0.0000        4.0430        4.0430       3.912115       0.07881
  29     18.79        0.1309        0.0000        4.0149        4.0149       3.884024       0.06369
  28     23.16        0.1309        0.0000        3.9868        3.9868       3.855895       0.05439
  27     28.12        0.1309        0.0000        3.9593        3.9594       3.828469       0.04662
  26     33.73        0.1309        0.0000        3.9321        3.9321       3.801207       0.04099
  25     40.54        0.1309        0.0000        3.9027        3.9028       3.771868       0.03640
  24     48.69        0.1309        0.0000        3.8683        3.8684       3.737468       0.03560
  23     57.69        0.1309        0.0001        3.8307        3.8307       3.699837       0.03527
  22     68.43        0.1309        0.0001        3.7865        3.7865       3.655640       0.03475
  21     81.20        0.1309        0.0001        3.7355        3.7356       3.604699       0.03366
  20     96.49        0.1309        0.0001        3.6805        3.6806       3.549688       0.03036
  19     114.6        0.1309        0.0001        3.6183        3.6184       3.487535       0.02902
  18     136.5        0.1309        0.0001        3.5525        3.5527       3.421790       0.02528
  17     162.9        0.1309        0.0001        3.4843        3.4844       3.353532       0.02182
  16     196.4        0.1309        0.0002        3.4099        3.4101       3.279224       0.01870
  15     218.7        0.1309        0.0002        3.3689        3.3691       3.238219       0.01557
  14     243.0        0.1309        0.0002        3.3292        3.3294       3.198554       0.01376
  13     269.0        0.1309        0.0002        3.2880        3.2882       3.157356       0.01336
  12     297.5        0.1309        0.0003        3.2358        3.2361       3.105179       0.01547
  11     328.5        0.1309        0.0003        3.1606        3.1609       3.029962       0.02045
  10     361.9        0.1310        0.0003        3.0520        3.0523       2.921315       0.02749
   9     398.1        0.1311        0.0003        2.9029        2.9033       2.772148       0.03475
   8     437.6        0.1314        0.0003        2.7127        2.7130       2.581623       0.04074
   7     480.5        0.1318        0.0003        2.4866        2.4869       2.355119       0.04448
   6     533.0        0.1327        0.0003        2.1985        2.1988       2.066142       0.04649
   5     589.8        0.1342        0.0003        1.9117        1.9120       1.777876       0.04279
   4     651.6        0.1366        0.0003        1.6406        1.6409       1.504335       0.03741
   3     718.7        0.1405        0.0003        1.3868        1.3871       1.246565       0.03239
   2     792.3        0.1469        0.0003        1.1510        1.1513       1.004377       0.02778
   1     891.5        0.1605        0.0003        0.8865        0.8867       0.726251       0.02367
   0    1013.0        0.1904        0.0002        0.6241        0.6244       0.433936       0.02030



 Wavenumbers:  4000. -  4650. cm-1, ATM      1
 LEVEL PRESSURE   UPWARD FLUX   DIFDOWN FLUX  DIRDOWN FLUX  DOWNWARD FLUX   NET FLUX    HEATING RATE
          mb          W/m2          W/m2          W/m2        W/m2          W/m2       degree/day
  51    .06700        1.6044        0.0000        6.9421        6.9421       5.337622       0.00000
  50    .07753        1.6044        0.0000        6.9421        6.9421       5.337621       0.00083
  49    .09103        1.6044        0.0000        6.9421        6.9421       5.337620       0.00082
  48    0.1069        1.6044        0.0000        6.9421        6.9421       5.337618       0.00080
  47    0.1255        1.6044        0.0000        6.9421        6.9421       5.337617       0.00078
  46    0.1487        1.6044        0.0000        6.9421        6.9421       5.337614       0.00079
  45    0.1794        1.6044        0.0000        6.9421        6.9421       5.337611       0.00081
  44    0.2165        1.6044        0.0000        6.9421        6.9421       5.337608       0.00080
  43    0.2613        1.6044        0.0000        6.9420        6.9421       5.337604       0.00078
  42    0.3336        1.6044        0.0000        6.9420        6.9420       5.337597       0.00080
  41    0.4307        1.6044        0.0000        6.9420        6.9420       5.337588       0.00081
  40    0.5894        1.6044        0.0000        6.9420        6.9420       5.337572       0.00083
  39     1.339        1.6044        0.0000        6.9419        6.9419       5.337479       0.00105
  38     1.782        1.6044        0.0000        6.9418        6.9418       5.337406       0.00139
  37     2.292        1.6044        0.0000        6.9417        6.9417       5.337308       0.00162
  36     2.964        1.6044        0.0000        6.9416        6.9416       5.337161       0.00184
  35     3.853        1.6044        0.0000        6.9414        6.9414       5.336944       0.00206
  34     5.035        1.6044        0.0000        6.9410        6.9411       5.336625       0.00228
  33     6.613        1.6044        0.0000        6.9406        6.9406       5.336155       0.00251
  32     8.786        1.6044        0.0000        6.9399        6.9399       5.335461       0.00269
  31     11.80        1.6044        0.0000        6.9387        6.9388       5.334374       0.00304
  30     15.07        1.6044        0.0001        6.9375        6.9375       5.333101       0.00329
  29     18.79        1.6044        0.0001        6.9359        6.9360       5.331566       0.00348
  28     23.16        1.6044        0.0001        6.9340        6.9341       5.329667       0.00367
  27     28.12        1.6044        0.0001        6.9317        6.9318       5.327374       0.00390
  26     33.73        1.6044        0.0001        6.9288        6.9290       5.324559       0.00423
  25     40.54        1.6044        0.0002        6.9250        6.9252       5.320757       0.00472
  24     48.69        1.6045        0.0002        6.9200        6.9202       5.315719       0.00521
  23     57.69        1.6045        0.0002        6.9141        6.9143       5.309778       0.00557
  22     68.43        1.6046        0.0003        6.9067        6.9070       5.302379       0.00582
  21     81.20        1.6047        0.0003        6.8977        6.8980       5.293318       0.00599
  20     96.49        1.6048        0.0004        6.8868        6.8872       5.282349       0.00605
  19     114.6        1.6051        0.0004        6.8701        6.8705       5.265364       0.00793
  18     136.5        1.6055        0.0005        6.8511        6.8516       5.246053       0.00743
  17     162.9        1.6061        0.0006        6.8291        6.8298       5.223693       0.00715
  16     196.4        1.6069        0.0008        6.8014        6.8021       5.195282       0.00715
  15     218.7        1.6074        0.0008        6.7834        6.7843       5.176839       0.00700
  14     243.0        1.6081        0.0009        6.7640        6.7650       5.156876       0.00692
  13     269.0        1.6089        0.0010        6.7430        6.7440       5.135116       0.00706
  12     297.5        1.6098        0.0011        6.7196        6.7207       5.110922       0.00718
  11     328.5        1.6109        0.0012        6.6929        6.6942       5.083221       0.00753
  10     361.9        1.6124        0.0014        6.6622        6.6636       5.051212       0.00810
   9     398.1        1.6142        0.0015        6.6266        6.6281       5.013949       0.00868
   8     437.6        1.6165        0.0016        6.5849        6.5865       4.970023       0.00939
   7     480.5        1.6194        0.0018        6.5348        6.5366       4.917137       0.01039
   6     533.0        1.6238        0.0020        6.4638        6.4657       4.841905       0.01210
   5     589.8        1.6296        0.0021        6.3769        6.3791       4.749445       0.01372
   4     651.6        1.6372        0.0023        6.2742        6.2766       4.639419       0.01505
   3     718.7        1.6470        0.0025        6.1559        6.1585       4.511420       0.01609
   2     792.3        1.6599        0.0028        6.0243        6.0271       4.367257       0.01653
   1     891.5        1.6812        0.0030        5.8453        5.8483       4.167081       0.01703
   0    1013.0        1.7156        0.0033        5.6221        5.6255       3.909890       0.01786



 Wavenumbers:  4650. -  5150. cm-1, ATM      1
 LEVEL PRESSURE   UPWARD FLUX   DIFDOWN FLUX  DIRDOWN FLUX  DOWNWARD FLUX   NET FLUX    HEATING RATE
          mb          W/m2          W/m2          W/m2        W/m2          W/m2       degree/day
  51    .06700        1.0826        0.0000        6.5710        6.5710       5.488431       0.00000
  50    .07753        1.0826        0.0000        6.5708        6.5708       5.488202       0.18353
  49    .09103        1.0826        0.0000        6.5705        6.5705       5.487916       0.17842
  48    0.1069        1.0826        0.0000        6.5702        6.5702       5.487591       0.17302
  47    0.1255        1.0826        0.0000        6.5698        6.5698       5.487222       0.16750
  46    0.1487        1.0826        0.0000        6.5693        6.5693       5.486762       0.16778
  45    0.1794        1.0826        0.0000        6.5687        6.5687       5.486143       0.16977
  44    0.2165        1.0826        0.0000        6.5680        6.5680       5.485426       0.16313
  43    0.2613        1.0826        0.0000        6.5672        6.5672       5.484597       0.15627
  42    0.3336        1.0826        0.0000        6.5658        6.5658       5.483272       0.15450
  41    0.4307        1.0826        0.0000        6.5642        6.5642       5.481593       0.14597
  40    0.5894        1.0826        0.0000        6.5616        6.5616       5.479042       0.13563
  39     1.339        1.0826        0.0000        6.5521        6.5521       5.469506       0.10736
  38     1.782        1.0826        0.0000        6.5479        6.5479       5.465373       0.07869
  37     2.292        1.0826        0.0000        6.5441        6.5441       5.461532       0.06361
  36     2.964        1.0825        0.0000        6.5401        6.5401       5.457588       0.04951
  35     3.853        1.0825        0.0000        6.5361        6.5362       5.453623       0.03763
  34     5.035        1.0825        0.0000        6.5321        6.5321       5.449584       0.02885
  33     6.613        1.0825        0.0000        6.5277        6.5277       5.445159       0.02366
  32     8.786        1.0825        0.0001        6.5221        6.5222       5.439657       0.02137
  31     11.80        1.0825        0.0001        6.5140        6.5141       5.431586       0.02260
  30     15.07        1.0825        0.0001        6.5047        6.5048       5.422236       0.02414
  29     18.79        1.0825        0.0001        6.4931        6.4933       5.410748       0.02605
  28     23.16        1.0825        0.0001        6.4786        6.4787       5.396191       0.02815
  27     28.12        1.0825        0.0002        6.4607        6.4608       5.378303       0.03041
  26     33.73        1.0825        0.0002        6.4393        6.4395       5.357011       0.03201
  25     40.54        1.0825        0.0002        6.4124        6.4126       5.330098       0.03339
  24     48.69        1.0826        0.0003        6.3790        6.3793       5.296734       0.03453
  23     57.69        1.0826        0.0003        6.3422        6.3426       5.259922       0.03451
  22     68.43        1.0827        0.0004        6.2993        6.2997       5.217014       0.03373
  21     81.20        1.0828        0.0005        6.2508        6.2513       5.168433       0.03210
  20     96.49        1.0830        0.0005        6.1977        6.1982       5.115198       0.02938
  19     114.6        1.0833        0.0006        6.1402        6.1408       5.057510       0.02694
  18     136.5        1.0837        0.0008        6.0802        6.0810       4.997260       0.02317
  17     162.9        1.0843        0.0009        6.0165        6.0174       4.933046       0.02053
  16     196.4        1.0852        0.0011        5.9400        5.9411       4.855835       0.01943
  15     218.7        1.0859        0.0012        5.8910        5.8921       4.806246       0.01883
  14     243.0        1.0867        0.0013        5.8374        5.8387       4.751991       0.01882
  13     269.0        1.0876        0.0014        5.7785        5.7799       4.692270       0.01937
  12     297.5        1.0888        0.0016        5.7132        5.7147       4.625930       0.01968
  11     328.5        1.0902        0.0017        5.6402        5.6419       4.551727       0.02018
  10     361.9        1.0919        0.0019        5.5591        5.5610       4.469065       0.02091
   9     398.1        1.0941        0.0020        5.4691        5.4712       4.377087       0.02143
   8     437.6        1.0968        0.0022        5.3699        5.3721       4.275330       0.02176
   7     480.5        1.1001        0.0024        5.2605        5.2629       4.162749       0.02211
   6     533.0        1.1052        0.0026        5.1215        5.1241       4.018888       0.02314
   5     589.8        1.1119        0.0028        4.9685        4.9713       3.859443       0.02367
   4     651.6        1.1205        0.0030        4.8045        4.8075       3.687010       0.02358
   3     718.7        1.1316        0.0032        4.6324        4.6356       3.504008       0.02300
   2     792.3        1.1460        0.0034        4.4529        4.4563       3.310334       0.02221
   1     891.5        1.1703        0.0037        4.2210        4.2247       3.054414       0.02178
   0    1013.0        1.2087        0.0040        3.9597        3.9637       2.754966       0.02079



 Wavenumbers:  5150. -  6150. cm-1, ATM      1
 LEVEL PRESSURE   UPWARD FLUX   DIFDOWN FLUX  DIRDOWN FLUX  DOWNWARD FLUX   NET FLUX    HEATING RATE
          mb          W/m2          W/m2          W/m2        W/m2          W/m2       degree/day
  51    .06700        2.8550        0.0000       16.4735       16.4735      13.618472       0.00000
  50    .07753        2.8550        0.0000       16.4735       16.4735      13.618472       0.00020
  49    .09103        2.8550        0.0000       16.4735       16.4735      13.618472       0.00019
  48    0.1069        2.8550        0.0000       16.4735       16.4735      13.618471       0.00019
  47    0.1255        2.8550        0.0000       16.4735       16.4735      13.618471       0.00019
  46    0.1487        2.8550        0.0000       16.4735       16.4735      13.618471       0.00019
  45    0.1794        2.8550        0.0000       16.4735       16.4735      13.618470       0.00019
  44    0.2165        2.8550        0.0000       16.4735       16.4735      13.618469       0.00019
  43    0.2613        2.8550        0.0000       16.4735       16.4735      13.618468       0.00019
  42    0.3336        2.8550        0.0000       16.4735       16.4735      13.618466       0.00019
  41    0.4307        2.8550        0.0000       16.4735       16.4735      13.618464       0.00019
  40    0.5894        2.8550        0.0000       16.4735       16.4735      13.618460       0.00020
  39     1.339        2.8550        0.0000       16.4734       16.4734      13.618438       0.00025
  38     1.782        2.8550        0.0000       16.4734       16.4734      13.618420       0.00034
  37     2.292        2.8550        0.0001       16.4733       16.4734      13.618397       0.00039
  36     2.964        2.8557        0.0001       15.3148       15.3149      12.459185      14.55161
  35     3.853        2.8560        0.0001       15.1694       15.1695      12.313525       1.38234
  34     5.035        2.8562        0.0001       15.0983       15.0984      12.242242       0.50922
  33     6.613        2.8563        0.0002       15.0564       15.0565      12.200214       0.22468
  32     8.786        2.8564        0.0002       15.0290       15.0292      12.172794       0.10649
  31     11.80        2.8564        0.0003       15.0079       15.0082      12.151796       0.05879
  30     15.07        2.8565        0.0004       14.9939       14.9943      12.137788       0.03616
  29     18.79        2.8565        0.0005       14.9829       14.9834      12.126882       0.02473
  28     23.16        2.8565        0.0006       14.9730       14.9735      12.117031       0.01905
  27     28.12        2.8565        0.0007       14.9641       14.9648      12.108266       0.01490
  26     33.73        2.8565        0.0008       14.9560       14.9569      12.100344       0.01191
  25     40.54        2.8565        0.0010       14.9477       14.9487      12.092145       0.01017
  24     48.69        2.8566        0.0012       14.9380       14.9392      12.082675       0.00980
  23     57.69        2.8566        0.0014       14.9275       14.9289      12.072325       0.00970
  22     68.43        2.8567        0.0017       14.9152       14.9168      12.060133       0.00958
  21     81.20        2.8568        0.0020       14.9007       14.9027      12.045877       0.00942
  20     96.49        2.8570        0.0024       14.8840       14.8863      12.029353       0.00912
  19     114.6        2.8571        0.0028       14.8647       14.8675      12.010367       0.00887
  18     136.5        2.8574        0.0033       14.8430       14.8463      11.988903       0.00825
  17     162.9        2.8576        0.0039       14.8187       14.8227      11.965026       0.00763
  16     196.4        2.8580        0.0047       14.7897       14.7944      11.936428       0.00720
  15     218.7        2.8582        0.0053       14.7718       14.7770      11.918842       0.00668
  14     243.0        2.8584        0.0059       14.7527       14.7586      11.900125       0.00649
  13     269.0        2.8587        0.0065       14.7313       14.7378      11.879082       0.00683
  12     297.5        2.8590        0.0072       14.7032       14.7104      11.851366       0.00822
  11     328.5        2.8594        0.0079       14.6596       14.6675      11.808156       0.01175
  10     361.9        2.8599        0.0087       14.5881       14.5967      11.736854       0.01804
   9     398.1        2.8606        0.0095       14.4725       14.4820      11.621445       0.02689
   8     437.6        2.8615        0.0103       14.2922       14.3026      11.441015       0.03858
   7     480.5        2.8630        0.0112       14.0225       14.0337      11.170709       0.05309
   6     533.0        2.8655        0.0121       13.5817       13.5938      10.728342       0.07116
   5     589.8        2.8694        0.0130       13.0348       13.0479      10.178481       0.08162
   4     651.6        2.8755        0.0139       12.4249       12.4388       9.563334       0.08412
   3     718.7        2.8849        0.0147       11.7875       11.8022       8.917344       0.08118
   2     792.3        2.8997        0.0154       11.1587       11.1742       8.274497       0.07373
   1     891.5        2.9307        0.0164       10.4571       10.4735       7.542814       0.06226
   0    1013.0        2.9986        0.0175        9.8171        9.8346       6.836013       0.04908



 Wavenumbers:  6150. -  7700. cm-1, ATM      1
 LEVEL PRESSURE   UPWARD FLUX   DIFDOWN FLUX  DIRDOWN FLUX  DOWNWARD FLUX   NET FLUX    HEATING RATE
          mb          W/m2          W/m2          W/m2        W/m2          W/m2       degree/day
  51    .06700        5.2684        0.0000       30.4684       30.4684      25.199986       0.00000
  50    .07753        5.2684        0.0000       30.4684       30.4684      25.199970       0.01303
  49    .09103        5.2684        0.0000       30.4683       30.4683      25.199950       0.01277
  48    0.1069        5.2684        0.0000       30.4683       30.4683      25.199926       0.01250
  47    0.1255        5.2684        0.0000       30.4683       30.4683      25.199899       0.01223
  46    0.1487        5.2684        0.0000       30.4682       30.4682      25.199865       0.01241
  45    0.1794        5.2684        0.0000       30.4682       30.4682      25.199819       0.01276
  44    0.2165        5.2684        0.0000       30.4681       30.4681      25.199764       0.01252
  43    0.2613        5.2684        0.0000       30.4680       30.4681      25.199699       0.01228
  42    0.3336        5.2684        0.0000       30.4679       30.4680      25.199591       0.01256
  41    0.4307        5.2684        0.0000       30.4678       30.4678      25.199448       0.01241
  40    0.5894        5.2683        0.0001       30.4675       30.4676      25.199215       0.01239
  39     1.339        5.2683        0.0001       30.4662       30.4664      25.198116       0.01238
  38     1.782        5.2682        0.0002       30.4655       30.4657      25.197471       0.01227
  37     2.292        5.2682        0.0003       30.4646       30.4649      25.196726       0.01234
  36     2.964        5.2695        0.0003       28.3301       28.3305      23.061010      26.80969
  35     3.853        5.2700        0.0004       28.1531       28.1535      22.883513       1.68447
  34     5.035        5.2703        0.0005       28.0682       28.0687      22.798434       0.60777
  33     6.613        5.2704        0.0007       28.0184       28.0192      22.748748       0.26562
  32     8.786        5.2704        0.0009       27.9861       27.9870      22.716647       0.12467
  31     11.80        5.2703        0.0013       27.9613       27.9626      22.692325       0.06809
  30     15.07        5.2701        0.0016       27.9448       27.9464      22.676305       0.04136
  29     18.79        5.2698        0.0020       27.9318       27.9338      22.663981       0.02794
  28     23.16        5.2695        0.0024       27.9200       27.9224      22.652955       0.02132
  27     28.12        5.2691        0.0030       27.9094       27.9124      22.643267       0.01647
  26     33.73        5.2687        0.0035       27.8998       27.9034      22.634718       0.01285
  25     40.54        5.2681        0.0042       27.8900       27.8943      22.626166       0.01061
  24     48.69        5.2675        0.0051       27.8789       27.8840      22.616524       0.00998
  23     57.69        5.2667        0.0060       27.8668       27.8728      22.606107       0.00976
  22     68.43        5.2659        0.0071       27.8526       27.8598      22.593868       0.00962
  21     81.20        5.2649        0.0085       27.8359       27.8443      22.579454       0.00952
  20     96.49        5.2636        0.0100       27.8161       27.8261      22.562467       0.00938
  19     114.6        5.2622        0.0119       27.7916       27.8035      22.541320       0.00987
  18     136.5        5.2605        0.0141       27.7627       27.7768      22.516307       0.00962
  17     162.9        5.2585        0.0168       27.7283       27.7451      22.486526       0.00952
  16     196.4        5.2560        0.0203       27.6836       27.7038      22.447838       0.00974
  15     218.7        5.2543        0.0225       27.6541       27.6767      22.422351       0.00968
  14     243.0        5.2525        0.0250       27.6220       27.6470      22.394519       0.00965
  13     269.0        5.2506        0.0277       27.5856       27.6133      22.362734       0.01031
  12     297.5        5.2485        0.0306       27.5388       27.5694      22.320908       0.01241
  11     328.5        5.2465        0.0337       27.4693       27.5030      22.256531       0.01750
  10     361.9        5.2446        0.0371       27.3591       27.3962      22.151620       0.02654
   9     398.1        5.2430        0.0406       27.1851       27.2257      21.982655       0.03936
   8     437.6        5.2421        0.0443       26.9140       26.9583      21.716156       0.05698
   7     480.5        5.2425        0.0481       26.5015       26.5496      21.307045       0.08035
   6     533.0        5.2458        0.0524       25.7992       25.8515      20.605732       0.11282
   5     589.8        5.2536        0.0565       24.8762       24.9327      19.679156       0.13753
   4     651.6        5.2681        0.0604       23.7958       23.8562      18.588070       0.14921
   3     718.7        5.2931        0.0641       22.6201       22.6842      17.391070       0.15043
   2     792.3        5.3347        0.0674       21.3920       21.4594      16.124673       0.14524
   1     891.5        5.4228        0.0714       19.8901       19.9615      14.538704       0.13496
   0    1013.0        5.6080        0.0755       18.3249       18.4004      12.792366       0.12126



 Wavenumbers:  7700. -  8050. cm-1, ATM      1
 LEVEL PRESSURE   UPWARD FLUX   DIFDOWN FLUX  DIRDOWN FLUX  DOWNWARD FLUX   NET FLUX    HEATING RATE
          mb          W/m2          W/m2          W/m2        W/m2          W/m2       degree/day
  51    .06700        1.7547        0.0000        7.2006        7.2006       5.445914       0.00000
  50    .07753        1.7547        0.0000        7.2006        7.2006       5.445895       0.01516
  49    .09103        1.7547        0.0000        7.2005        7.2005       5.445871       0.01486
  48    0.1069        1.7547        0.0000        7.2005        7.2005       5.445844       0.01455
  47    0.1255        1.7547        0.0000        7.2005        7.2005       5.445813       0.01424
  46    0.1487        1.7547        0.0000        7.2004        7.2005       5.445773       0.01444
  45    0.1794        1.7547        0.0000        7.2004        7.2004       5.445719       0.01486
  44    0.2165        1.7547        0.0000        7.2003        7.2003       5.445655       0.01458
  43    0.2613        1.7547        0.0000        7.2003        7.2003       5.445579       0.01431
  42    0.3336        1.7547        0.0000        7.2001        7.2001       5.445453       0.01464
  41    0.4307        1.7547        0.0000        7.2000        7.2000       5.445287       0.01448
  40    0.5894        1.7547        0.0000        7.1997        7.1997       5.445015       0.01446
  39     1.339        1.7548        0.0001        7.1984        7.1985       5.443729       0.01448
  38     1.782        1.7548        0.0001        7.1977        7.1978       5.442974       0.01437
  37     2.292        1.7548        0.0001        7.1968        7.1969       5.442100       0.01447
  36     2.964        1.7549        0.0001        7.1957        7.1958       5.440954       0.01439
  35     3.853        1.7549        0.0002        7.1942        7.1944       5.439440       0.01437
  34     5.035        1.7550        0.0002        7.1922        7.1924       5.437430       0.01436
  33     6.613        1.7551        0.0003        7.1896        7.1899       5.434748       0.01434
  32     8.786        1.7553        0.0004        7.1860        7.1864       5.431138       0.01402
  31     11.80        1.7555        0.0005        7.1809        7.1815       5.425987       0.01442
  30     15.07        1.7557        0.0007        7.1755        7.1762       5.420472       0.01424
  29     18.79        1.7560        0.0009        7.1694        7.1702       5.414262       0.01408
  28     23.16        1.7563        0.0010        7.1622        7.1633       5.407036       0.01397
  27     28.12        1.7566        0.0013        7.1541        7.1554       5.398810       0.01398
  26     33.73        1.7570        0.0015        7.1451        7.1466       5.389652       0.01377
  25     40.54        1.7575        0.0018        7.1343        7.1361       5.378654       0.01364
  24     48.69        1.7580        0.0022        7.1214        7.1235       5.365494       0.01362
  23     57.69        1.7587        0.0026        7.1073        7.1098       5.351161       0.01344
  22     68.43        1.7594        0.0030        7.0907        7.0937       5.334256       0.01329
  21     81.20        1.7604        0.0036        7.0711        7.0747       5.314350       0.01315
  20     96.49        1.7615        0.0043        7.0482        7.0524       5.290952       0.01291
  19     114.6        1.7628        0.0051        7.0213        7.0264       5.263590       0.01278
  18     136.5        1.7644        0.0060        6.9902        6.9962       5.231757       0.01224
  17     162.9        1.7664        0.0071        6.9539        6.9610       5.194649       0.01186
  16     196.4        1.7690        0.0085        6.9082        6.9167       5.147754       0.01180
  15     218.7        1.7707        0.0095        6.8789        6.8883       5.117618       0.01144
  14     243.0        1.7726        0.0105        6.8476        6.8581       5.085425       0.01117
  13     269.0        1.7748        0.0116        6.8143        6.8259       5.051158       0.01112
  12     297.5        1.7771        0.0128        6.7791        6.7919       5.014807       0.01078
  11     328.5        1.7797        0.0140        6.7419        6.7559       4.976204       0.01050
  10     361.9        1.7825        0.0154        6.7025        6.7179       4.935354       0.01034
   9     398.1        1.7857        0.0168        6.6610        6.6778       4.892115       0.01007
   8     437.6        1.7892        0.0184        6.6171        6.6355       4.846355       0.00978
   7     480.5        1.7930        0.0201        6.5709        6.5910       4.797988       0.00950
   6     533.0        1.7980        0.0221        6.5150        6.5371       4.739183       0.00946
   5     589.8        1.8035        0.0243        6.4556        6.4800       4.676429       0.00931
   4     651.6        1.8098        0.0267        6.3925        6.4192       4.609368       0.00917
   3     718.7        1.8169        0.0292        6.3253        6.3545       4.537539       0.00903
   2     792.3        1.8250        0.0319        6.2536        6.2854       4.460440       0.00884
   1     891.5        1.8367        0.0354        6.1568        6.1922       4.355554       0.00893
   0    1013.0        1.8520        0.0397        6.0397        6.0793       4.227285       0.00891



 Wavenumbers:  8050. - 12850. cm-1, ATM      1
 LEVEL PRESSURE   UPWARD FLUX   DIFDOWN FLUX  DIRDOWN FLUX  DOWNWARD FLUX   NET FLUX    HEATING RATE
          mb          W/m2          W/m2          W/m2        W/m2          W/m2       degree/day
  51    .06700       28.3509        0.0000      100.8135      100.8135      72.462607       0.00000
  50    .07753       28.3509        0.0000      100.8135      100.8135      72.462607       0.00000
  49    .09103       28.3509        0.0001      100.8134      100.8135      72.462607       0.00000
  48    0.1069       28.3508        0.0001      100.8134      100.8134      72.462607      -0.00000
  47    0.1255       28.3508        0.0001      100.8133      100.8134      72.462607       0.00000
  46    0.1487       28.3508        0.0002      100.8132      100.8134      72.462607      -0.00000
  45    0.1794       28.3507        0.0003      100.8131      100.8133      72.462607       0.00000
  44    0.2165       28.3506        0.0003      100.8129      100.8133      72.462607      -0.00000
  43    0.2613       28.3506        0.0004      100.8127      100.8132      72.462607       0.00000
  42    0.3336       28.3504        0.0006      100.8125      100.8131      72.462607       0.00000
  41    0.4307       28.3503        0.0008      100.8121      100.8129      72.462607      -0.00000
  40    0.5894       28.3500        0.0012      100.8115      100.8126      72.462607       0.00000
  39     1.339       28.3487        0.0028      100.8085      100.8113      72.462607       0.00000
  38     1.782       28.3480        0.0038      100.8068      100.8106      72.462607      -0.00000
  37     2.292       28.3471        0.0049      100.8047      100.8097      72.462607       0.00000
  36     2.964       28.3457        0.0068      100.8015      100.8083      72.462607       0.00000
  35     3.853       28.3441        0.0089      100.7978      100.8067      72.462607       0.00000
  34     5.035       28.3420        0.0115      100.7931      100.8046      72.462607      -0.00000
  33     6.613       28.3392        0.0151      100.7868      100.8019      72.462607       0.00000
  32     8.786       28.3356        0.0198      100.7784      100.7982      72.462607      -0.00000
  31     11.80       28.3303        0.0265      100.7664      100.7930      72.462607       0.00000
  30     15.07       28.3247        0.0338      100.7535      100.7873      72.462607       0.00000
  29     18.79       28.3184        0.0420      100.7390      100.7810      72.462607      -0.00000
  28     23.16       28.3109        0.0516      100.7219      100.7735      72.462607       0.00000
  27     28.12       28.3024        0.0626      100.7024      100.7650      72.462607       0.00000
  26     33.73       28.2929        0.0749      100.6806      100.7555      72.462607       0.00000
  25     40.54       28.2813        0.0898      100.6542      100.7439      72.462607      -0.00000
  24     48.69       28.2674        0.1077      100.6223      100.7300      72.462607       0.00000
  23     57.69       28.2521        0.1275      100.5872      100.7147      72.462607       0.00000
  22     68.43       28.2338        0.1510      100.5454      100.6964      72.462607      -0.00000
  21     81.20       28.2120        0.1791      100.4955      100.6746      72.462607       0.00000
  20     96.49       28.1860        0.2127      100.4359      100.6486      72.462607       0.00000
  19     114.6       28.1558        0.2525      100.3116      100.5641      72.408262       0.02538
  18     136.5       28.1199        0.2998      100.1770      100.4768      72.356927       0.01974
  17     162.9       28.0768        0.3562      100.0289      100.3850      72.308284       0.01555
  16     196.4       28.0204        0.4295       99.8490      100.2785      72.258093       0.01263
  15     218.7       27.9832        0.4777       99.7361      100.2138      72.230594       0.01044
  14     243.0       27.9427        0.5302       99.6167      100.1469      72.204225       0.00915
  13     269.0       27.8987        0.5872       99.4884      100.0756      72.176907       0.00886
  12     297.5       27.8511        0.6489       99.3443       99.9931      72.142067       0.01033
  11     328.5       27.7999        0.7156       99.1724       99.8881      72.088197       0.01465
  10     361.9       27.7452        0.7876       98.9601       99.7477      72.002510       0.02168
   9     398.1       27.6873        0.8651       98.6943       99.5593      71.871995       0.03041
   8     437.6       27.6268        0.9482       98.3607       99.3089      71.682105       0.04060
   7     480.5       27.5646        1.0372       97.9397       98.9769      71.412299       0.05299
   6     533.0       27.4940        1.1463       97.3188       98.4651      70.971034       0.07099
   5     589.8       27.4266        1.2633       96.5361       97.7993      70.372705       0.08881
   4     651.6       27.3665        1.3880       95.5723       96.9603      69.593806       0.10652
   3     718.7       27.3200        1.5204       94.4083       95.9287      68.608691       0.12380
   2     792.3       27.2973        1.6598       93.0216       94.6814      67.384091       0.14045
   1     891.5       27.3212        1.8440       90.9895       92.8335      65.512256       0.15928
   0    1013.0       27.4666        2.0583       88.3626       90.4210      62.954329       0.17761



 Wavenumbers: 12850. - 16000. cm-1, ATM      1
 LEVEL PRESSURE   UPWARD FLUX   DIFDOWN FLUX  DIRDOWN FLUX  DOWNWARD FLUX   NET FLUX    HEATING RATE
          mb          W/m2          W/m2          W/m2        W/m2          W/m2       degree/day
  51    .06700       33.4586        0.0000       63.1686       63.1686      29.709973       0.00000
  50    .07753       33.4586        0.0001       63.1677       63.1678      29.709194       0.62499
  49    .09103       33.4585        0.0001       63.1666       63.1668      29.708222       0.60735
  48    0.1069       33.4585        0.0002       63.1654       63.1656      29.707116       0.58893
  47    0.1255       33.4585        0.0003       63.1640       63.1643      29.705857       0.57045
  46    0.1487       33.4584        0.0004       63.1623       63.1627      29.704288       0.57197
  45    0.1794       33.4584        0.0006       63.1600       63.1606      29.702184       0.57763
  44    0.2165       33.4583        0.0008       63.1573       63.1581      29.699750       0.55364
  43    0.2613       33.4583        0.0010       63.1542       63.1552      29.696943       0.52911
  42    0.3336       33.4582        0.0014       63.1493       63.1507      29.692469       0.52159
  41    0.4307       33.4582        0.0019       63.1431       63.1450      29.686862       0.48756
  40    0.5894       33.4582        0.0027       63.1338       63.1365      29.678367       0.45174
  39     1.339       33.4594        0.0065       63.0955       63.1021      29.642648       0.40213
  38     1.782       33.4612        0.0088       63.0739       63.0827      29.621580       0.40111
  37     2.292       33.4641        0.0114       63.0475       63.0589      29.594810       0.44337
  36     2.964       33.4688        0.0156       63.0079       63.0235      29.554720       0.50325
  35     3.853       33.4775        0.0204       62.9510       62.9714      29.493929       0.57691
  34     5.035       33.4912        0.0266       62.8699       62.8965      29.405297       0.63315
  33     6.613       33.5104        0.0347       62.7592       62.7939      29.283422       0.65154
  32     8.786       33.5354        0.0455       62.6152       62.6607      29.125300       0.61409
  31     11.80       33.5674        0.0610       62.4252       62.4861      28.918750       0.57827
  30     15.07       33.5972        0.0775       62.2393       62.3168      28.719573       0.51424
  29     18.79       33.6269        0.0961       62.0459       62.1419      28.515060       0.46369
  28     23.16       33.6570        0.1177       61.8390       61.9567      28.299764       0.41631
  27     28.12       33.6859        0.1425       61.6243       61.7668      28.080834       0.37217
  26     33.73       33.7107        0.1701       61.4142       61.5843      27.873607       0.31157
  25     40.54       33.7316        0.2034       61.1949       61.3983      27.666667       0.25673
  24     48.69       33.7482        0.2435       60.9647       61.2082      27.459920       0.21395
  23     57.69       33.7581        0.2874       60.7446       61.0320      27.273927       0.17434
  22     68.43       33.7608        0.3398       60.5171       60.8568      27.096024       0.13986
  21     81.20       33.7516        0.4020       60.2908       60.6929      26.941238       0.10228
  20     96.49       33.7293        0.4762       60.0614       60.5376      26.808351       0.07334
  19     114.6       33.7006        0.5647       59.8042       60.3689      26.668254       0.06542
  18     136.5       33.6621        0.6693       59.5115       60.1808      26.518790       0.05747
  17     162.9       33.6120        0.7936       59.1725       59.9661      26.354069       0.05265
  16     196.4       33.5382        0.9542       58.7560       59.7103      26.172110       0.04580
  15     218.7       33.4865        1.0595       58.4913       59.5508      26.064281       0.04094
  14     243.0       33.4290        1.1736       58.2079       59.3815      25.952527       0.03876
  13     269.0       33.3653        1.2970       57.9064       59.2034      25.838105       0.03712
  12     297.5       33.2951        1.4300       57.5860       59.0161      25.720964       0.03474
  11     328.5       33.2189        1.5734       57.2438       58.8172      25.598344       0.03334
  10     361.9       33.1365        1.7273       56.8789       58.6062      25.469686       0.03255
   9     398.1       33.0478        1.8925       56.4897       58.3823      25.334430       0.03151
   8     437.6       32.9529        2.0694       56.0738       58.1432      25.190318       0.03081
   7     480.5       32.8517        2.2584       55.6293       57.8877      25.036012       0.03031
   6     533.0       32.7286        2.4901       55.0816       57.5717      24.843057       0.03104
   5     589.8       32.5984        2.7388       54.4891       57.2280      24.629595       0.03168
   4     651.6       32.4619        3.0049       53.8503       56.8552      24.393367       0.03230
   3     718.7       32.3204        3.2888       53.1635       56.4523      24.131932       0.03286
   2     792.3       32.1762        3.5905       52.4285       56.0190      23.842787       0.03316
   1     891.5       31.9961        3.9938       51.4427       55.4365      23.440408       0.03424
   0    1013.0       31.8078        4.4719       50.2724       54.7443      22.936495       0.03499



 Wavenumbers: 16000. - 22650. cm-1, ATM      1
 LEVEL PRESSURE   UPWARD FLUX   DIFDOWN FLUX  DIRDOWN FLUX  DOWNWARD FLUX   NET FLUX    HEATING RATE
          mb          W/m2          W/m2          W/m2        W/m2          W/m2       degree/day
  51    .06700       74.2216        0.0000      100.7153      100.7153      26.493663       0.00000
  50    .07753       74.2215        0.0003      100.7147      100.7151      26.493546       0.09366
  49    .09103       74.2214        0.0007      100.7140      100.7147      26.493376       0.10623
  48    0.1069       74.2212        0.0012      100.7131      100.7143      26.493149       0.12114
  47    0.1255       74.2210        0.0017      100.7121      100.7138      26.492844       0.13808
  46    0.1487       74.2208        0.0024      100.7108      100.7132      26.492395       0.16362
  45    0.1794       74.2205        0.0033      100.7089      100.7122      26.491693       0.19265
  44    0.2165       74.2203        0.0044      100.7066      100.7110      26.490742       0.21651
  43    0.2613       74.2200        0.0057      100.7037      100.7094      26.489450       0.24341
  42    0.3336       74.2196        0.0079      100.6987      100.7066      26.486995       0.28624
  41    0.4307       74.2192        0.0108      100.6918      100.7025      26.483295       0.32176
  40    0.5894       74.2189        0.0154      100.6797      100.6952      26.476237       0.37530
  39     1.339       74.2229        0.0375      100.6095      100.6470      26.424107       0.58689
  38     1.782       74.2292        0.0505      100.5585      100.6089      26.379712       0.84521
  37     2.292       74.2402        0.0655      100.4903      100.5557      26.315471       1.06401
  36     2.964       74.2583        0.0895      100.3802      100.4697      26.211450       1.30578
  35     3.853       74.2922        0.1171      100.2216      100.3387      26.046518       1.56523
  34     5.035       74.3459        0.1523       99.9943      100.1466      25.800725       1.75584
  33     6.613       74.4220        0.1986       99.6831       99.8817      25.459677       1.82325
  32     8.786       74.5207        0.2605       99.2770       99.5375      25.016819       1.71990
  31     11.80       74.6464        0.3486       98.7384       99.0870      24.440580       1.61329
  30     15.07       74.7634        0.4428       98.2085       98.6513      23.887955       1.42677
  29     18.79       74.8793        0.5487       97.6538       98.2026      23.323310       1.28022
  28     23.16       74.9959        0.6720       97.0559       97.7279      22.731940       1.14352
  27     28.12       75.1075        0.8125       96.4293       97.2418      22.134236       1.01606
  26     33.73       75.2010        0.9691       95.8067       96.7757      21.574734       0.84123
  25     40.54       75.2776        1.1576       95.1437       96.3013      21.023643       0.68369
  24     48.69       75.3349        1.3840       94.4308       95.8149      20.480005       0.56258
  23     57.69       75.3639        1.6317       93.7305       95.3623      19.998378       0.45145
  22     68.43       75.3620        1.9255       92.9844       94.9098      19.547847       0.35418
  21     81.20       75.3098        2.2741       92.2122       94.4863      19.176464       0.24540
  20     96.49       75.2016        2.6875       91.4002       94.0876      18.886028       0.16030
  19     114.6       75.0502        3.1749       90.4962       93.6711      18.620898       0.12380
  18     136.5       74.8561        3.7478       89.4694       93.2172      18.361088       0.09990
  17     162.9       74.6125        4.4230       88.2914       92.7145      18.101983       0.08282
  16     196.4       74.2684        5.2885       86.8501       92.1385      17.870169       0.05835
  15     218.7       74.0328        5.8506       85.9389       91.7894      17.756609       0.04311
  14     243.0       73.7733        6.4559       84.9692       91.4251      17.651801       0.03635
  13     269.0       73.4884        7.1054       83.9408       91.0462      17.557759       0.03051
  12     297.5       73.1775        7.7998       82.8529       90.6526      17.475107       0.02451
  11     328.5       72.8417        8.5414       81.6964       90.2378      17.396152       0.02147
  10     361.9       72.4806        9.3300       80.4720       89.8020      17.321331       0.01893
   9     398.1       72.0933       10.1673       79.1766       89.3439      17.250587       0.01648
   8     437.6       71.6796       11.0536       77.8086       88.8622      17.182592       0.01454
   7     480.5       71.2390       11.9891       76.3679       88.3570      17.118001       0.01269
   6     533.0       70.7013       13.1204       74.6281       87.7485      17.047228       0.01139
   5     589.8       70.1283       14.3153       72.7910       87.1063      16.977982       0.01028
   4     651.6       69.5206       15.5721       70.8577       86.4299      16.909276       0.00940
   3     718.7       68.8782       16.8890       68.8298       85.7187      16.840495       0.00864
   2     792.3       68.2027       18.2615       66.7122       84.9738      16.771028       0.00797
   1     891.5       67.3119       20.0529       63.9398       83.9928      16.680848       0.00767
   0    1013.0       66.2743       22.1140       60.7343       82.8482      16.573954       0.00742



 Wavenumbers: 22650. - 29000. cm-1, ATM      1
 LEVEL PRESSURE   UPWARD FLUX   DIFDOWN FLUX  DIRDOWN FLUX  DOWNWARD FLUX   NET FLUX    HEATING RATE
          mb          W/m2          W/m2          W/m2        W/m2          W/m2       degree/day
  51    .06700       32.0533        0.0000       38.0063       38.0063       5.952963       0.00000
  50    .07753       32.0532        0.0004       38.0057       38.0061       5.952963       0.00000
  49    .09103       32.0529        0.0009       38.0050       38.0059       5.952963      -0.00000
  48    0.1069       32.0527        0.0014       38.0042       38.0056       5.952963       0.00000
  47    0.1255       32.0524        0.0020       38.0033       38.0054       5.952963      -0.00000
  46    0.1487       32.0520        0.0028       38.0022       38.0050       5.952963       0.00000
  45    0.1794       32.0515        0.0039       38.0006       38.0045       5.952963      -0.00000
  44    0.2165       32.0509        0.0052       37.9987       38.0039       5.952963      -0.00000
  43    0.2613       32.0502        0.0067       37.9965       38.0032       5.952963       0.00000
  42    0.3336       32.0491        0.0092       37.9928       38.0021       5.952963       0.00000
  41    0.4307       32.0476        0.0125       37.9880       38.0005       5.952963      -0.00000
  40    0.5894       32.0451        0.0180       37.9800       37.9980       5.952963      -0.00000
  39     1.339       32.0332        0.0437       37.9425       37.9862       5.952963       0.00000
  38     1.782       32.0263        0.0588       37.9204       37.9793       5.952963      -0.00000
  37     2.292       32.0183        0.0763       37.8949       37.9712       5.952963       0.00000
  36     2.964       32.0054        0.1044       37.8540       37.9584       5.952963       0.00000
  35     3.853       31.9906        0.1365       37.8070       37.9436       5.952963      -0.00000
  34     5.035       31.9717        0.1776       37.7470       37.9247       5.952963       0.00000
  33     6.613       31.9469        0.2317       37.6681       37.8998       5.952963       0.00000
  32     8.786       31.9136        0.3040       37.5625       37.8666       5.952963      -0.00000
  31     11.80       31.8662        0.4070       37.4121       37.8192       5.952963       0.00000
  30     15.07       31.8155        0.5171       37.2514       37.7685       5.952963       0.00000
  29     18.79       31.7584        0.6409       37.0705       37.7114       5.952963      -0.00000
  28     23.16       31.6920        0.7848       36.8602       37.6450       5.952963       0.00000
  27     28.12       31.6165        0.9484       36.6210       37.5694       5.952963      -0.00000
  26     33.73       31.5324        1.1303       36.3550       37.4853       5.952963       0.00000
  25     40.54       31.4314        1.3484       36.0360       37.3843       5.952963       0.00000
  24     48.69       31.3106        1.6088       35.6548       37.2635       5.952963       0.00000
  23     57.69       31.1791        1.8917       35.2404       37.1320       5.952963      -0.00000
  22     68.43       31.0241        2.2243       34.7528       36.9771       5.952963       0.00000
  21     81.20       30.8418        2.6145       34.1803       36.7947       5.952963       0.00000
  20     96.49       30.6278        3.0708       33.5100       36.5808       5.952963       0.00000
  19     114.6       30.3784        3.6004       32.7309       36.3313       5.952963      -0.00000
  18     136.5       30.0891        4.2116       31.8305       36.0421       5.952963       0.00000
  17     162.9       29.7534        4.9163       30.7901       35.7064       5.952963       0.00000
  16     196.4       29.3318        5.7944       29.4904       35.2848       5.952963       0.00000
  15     218.7       29.0632        6.3494       28.6668       35.0161       5.952963      -0.00000
  14     243.0       28.7783        6.9340       27.7972       34.7313       5.952963       0.00000
  13     269.0       28.4777        7.5464       26.8843       34.4306       5.952963      -0.00000
  12     297.5       28.1619        8.1840       25.9309       34.1149       5.952963       0.00000
  11     328.5       27.8309        8.8463       24.9375       33.7839       5.952963      -0.00000
  10     361.9       27.4859        9.5294       23.9095       33.4389       5.952963      -0.00000
   9     398.1       27.1273       10.2308       22.8495       33.0803       5.952963       0.00000
   8     437.6       26.7561       10.9472       21.7619       32.7091       5.952963      -0.00000
   7     480.5       26.3737       11.6741       20.6526       32.3266       5.952963      -0.00000
   6     533.0       25.9230       12.5151       19.3609       31.8760       5.952963       0.00000
   5     589.8       25.4610       13.3581       18.0559       31.4140       5.952963      -0.00000
   4     651.6       24.9898       14.1958       16.7469       30.9427       5.952963       0.00000
   3     718.7       24.5115       15.0206       15.4439       30.4645       5.952963       0.00000
   2     792.3       24.0285       15.8251       14.1564       29.9815       5.952963       0.00000
   1     891.5       23.4214       16.7897       12.5846       29.3743       5.952963       0.00000
   0    1013.0       22.7515       17.7860       10.9184       28.7044       5.952963      -0.00000



 Wavenumbers: 29000. - 38000. cm-1, ATM      1
 LEVEL PRESSURE   UPWARD FLUX   DIFDOWN FLUX  DIRDOWN FLUX  DOWNWARD FLUX   NET FLUX    HEATING RATE
          mb          W/m2          W/m2          W/m2        W/m2          W/m2       degree/day
  51    .06700        4.6926        0.0000       13.4026       13.4026       8.710008       0.00000
  50    .07753        4.6924        0.0003       13.3983       13.3986       8.706218       3.03792
  49    .09103        4.6921        0.0007       13.3921       13.3928       8.700710       3.44229
  48    0.1069        4.6918        0.0011       13.3841       13.3851       8.693347       3.91937
  47    0.1255        4.6914        0.0016       13.3734       13.3750       8.683519       4.45560
  46    0.1487        4.6910        0.0022       13.3579       13.3601       8.669104       5.25448
  45    0.1794        4.6904        0.0030       13.3342       13.3372       8.646739       6.13969
  44    0.2165        4.6898        0.0040       13.3025       13.3065       8.616742       6.82377
  43    0.2613        4.6890        0.0051       13.2605       13.2657       8.576699       7.54802
  42    0.3336        4.6877        0.0070       13.1834       13.1904       8.502709       8.62649
  41    0.4307        4.6862        0.0095       13.0730       13.0824       8.396255       9.25592
  40    0.5894        4.6838        0.0133       12.8795       12.8929       8.209111       9.95207
  39     1.339        4.6751        0.0295       11.9153       11.9448       7.269722      10.57582
  38     1.782        4.6717        0.0378       11.4377       11.4755       6.803770       8.87096
  37     2.292        4.6691        0.0466       10.9754       11.0220       6.352836       7.46864
  36     2.964        4.6655        0.0603       10.4669       10.5272       5.861677       6.16553
  35     3.853        4.6652        0.0745        9.9278       10.0023       5.337124       4.97811
  34     5.035        4.6678        0.0914        9.3841        9.4755       4.807738       3.78172
  33     6.613        4.6731        0.1125        8.8585        8.9710       4.297841       2.72591
  32     8.786        4.6806        0.1397        8.3623        8.5020       3.821401       1.85032
  31     11.80        4.6896        0.1769        7.8739        8.0508       3.361268       1.28823
  30     15.07        4.6971        0.2153        7.4954        7.7107       3.013551       0.89774
  29     18.79        4.7039        0.2571        7.1623        7.4194       2.715502       0.67577
  28     23.16        4.7099        0.3042        6.8509        7.1551       2.445218       0.52264
  27     28.12        4.7143        0.3562        6.5627        6.9190       2.204681       0.40890
  26     33.73        4.7146        0.4130        6.3044        6.7174       2.002750       0.30361
  25     40.54        4.7097        0.4799        6.0515        6.5314       1.821687       0.22463
  24     48.69        4.6990        0.5582        5.7982        6.3564       1.657387       0.17002
  23     57.69        4.6828        0.6418        5.5629        6.2047       1.521928       0.12697
  22     68.43        4.6584        0.7385        5.3229        6.0613       1.402908       0.09357
  21     81.20        4.6219        0.8506        5.0814        5.9320       1.310093       0.06133
  20     96.49        4.5717        0.9800        4.8326        5.8126       1.240863       0.03821
  19     114.6        4.5110        1.1265        4.5651        5.6916       1.180570       0.02815
  18     136.5        4.4406        1.2900        4.2747        5.5647       1.124102       0.02171
  17     162.9        4.3598        1.4716        3.9585        5.4301       1.070310       0.01719
  16     196.4        4.2576        1.6886        3.5935        5.2822       1.024529       0.01152
  15     218.7        4.1932        1.8200        3.3762        5.1963       1.003020       0.00817
  14     243.0        4.1261        1.9538        3.1560        5.1098       0.983739       0.00669
  13     269.0        4.0565        2.0888        2.9345        5.0234       0.966906       0.00546
  12     297.5        3.9848        2.2239        2.7133        4.9372       0.952473       0.00428
  11     328.5        3.9118        2.3576        2.4932        4.8508       0.938947       0.00368
  10     361.9        3.8382        2.4884        2.2761        4.7645       0.926367       0.00318
   9     398.1        3.7640        2.6154        2.0633        4.6787       0.914683       0.00272
   8     437.6        3.6900        2.7372        1.8565        4.5936       0.903667       0.00236
   7     480.5        3.6163        2.8524        1.6574        4.5098       0.893419       0.00201
   6     533.0        3.5330        2.9750        1.4405        4.4155       0.882487       0.00176
   5     589.8        3.4512        3.0861        1.2373        4.3234       0.872145       0.00154
   4     651.6        3.3715        3.1842        1.0496        4.2338       0.862286       0.00135
   3     718.7        3.2940        3.2683        0.8786        4.1469       0.852867       0.00118
   2     792.3        3.2190        3.3375        0.7253        4.0629       0.843875       0.00103
   1     891.5        3.1286        3.4028        0.5588        3.9616       0.833035       0.00092
   0    1013.0        3.0329        3.4473        0.4070        3.8543       0.821361       0.00081



 Wavenumbers: 38000. - 50000. cm-1, ATM      1
 LEVEL PRESSURE   UPWARD FLUX   DIFDOWN FLUX  DIRDOWN FLUX  DOWNWARD FLUX   NET FLUX    HEATING RATE
          mb          W/m2          W/m2          W/m2        W/m2          W/m2       degree/day
  51    .06700        0.0052        0.0000        0.8267        0.8267       0.821476       0.00000
  50    .07753        0.0051        0.0001        0.8242        0.8243       0.819144       1.86942
  49    .09103        0.0051        0.0002        0.8207        0.8209       0.815821       2.07718
  48    0.1069        0.0050        0.0002        0.8162        0.8164       0.811462       2.32005
  47    0.1255        0.0049        0.0004        0.8103        0.8106       0.805748       2.59032
  46    0.1487        0.0048        0.0005        0.8018        0.8023       0.797513       3.00180
  45    0.1794        0.0046        0.0007        0.7889        0.7896       0.784957       3.44687
  44    0.2165        0.0044        0.0009        0.7720        0.7729       0.768451       3.75497
  43    0.2613        0.0042        0.0011        0.7500        0.7511       0.746898       4.06256
  42    0.3336        0.0039        0.0015        0.7106        0.7121       0.708210       4.51072
  41    0.4307        0.0035        0.0019        0.6566        0.6584       0.654915       4.63387
  40    0.5894        0.0030        0.0024        0.5680        0.5704       0.567406       4.65358
  39     1.339        0.0015        0.0030        0.2422        0.2452       0.243657       3.64483
  38     1.782        0.0011        0.0026        0.1493        0.1519       0.150833       1.76724
  37     2.292        0.0008        0.0022        0.0924        0.0946       0.093852       0.94374
  36     2.964        0.0005        0.0018        0.0538        0.0556       0.055158       0.48573
  35     3.853        0.0003        0.0014        0.0294        0.0308       0.030468       0.23431
  34     5.035        0.0002        0.0010        0.0153        0.0163       0.016167       0.10216
  33     6.613        0.0001        0.0007        0.0073        0.0080       0.007910       0.04414
  32     8.786        0.0000        0.0005        0.0030        0.0034       0.003392       0.01755
  31     11.80        0.0000        0.0003        0.0010        0.0012       0.001202       0.00613
  30     15.07        0.0000        0.0001        0.0003        0.0005       0.000466       0.00190
  29     18.79        0.0000        0.0001        0.0001        0.0002       0.000184       0.00064
  28     23.16        0.0000        0.0000        0.0000        0.0001       0.000071       0.00022
  27     28.12        0.0000        0.0000        0.0000        0.0000       0.000028       0.00007
  26     33.73        0.0000        0.0000        0.0000        0.0000       0.000012       0.00002
  25     40.54        0.0000        0.0000        0.0000        0.0000       0.000005       0.00001
  24     48.69        0.0000        0.0000        0.0000        0.0000       0.000002       0.00000
  23     57.69        0.0000        0.0000        0.0000        0.0000       0.000001       0.00000
  22     68.43        0.0000        0.0000        0.0000        0.0000       0.000000       0.00000
  21     81.20        0.0000        0.0000        0.0000        0.0000       0.000000       0.00000
  20     96.49        0.0000        0.0000        0.0000        0.0000       0.000000       0.00000
  19     114.6        0.0000        0.0000        0.0000        0.0000       0.000000       0.00000
  18     136.5        0.0000        0.0000        0.0000        0.0000       0.000000       0.00000
  17     162.9        0.0000        0.0000        0.0000        0.0000       0.000000       0.00000
  16     196.4        0.0000        0.0000        0.0000        0.0000       0.000000       0.00000
  15     218.7        0.0000        0.0000        0.0000        0.0000       0.000000       0.00000
  14     243.0        0.0000        0.0000        0.0000        0.0000       0.000000       0.00000
  13     269.0        0.0000        0.0000        0.0000        0.0000       0.000000       0.00000
  12     297.5        0.0000        0.0000        0.0000        0.0000       0.000000       0.00000
  11     328.5        0.0000        0.0000        0.0000        0.0000       0.000000       0.00000
  10     361.9        0.0000        0.0000        0.0000        0.0000       0.000000       0.00000
   9     398.1        0.0000        0.0000        0.0000        0.0000       0.000000       0.00000
   8     437.6        0.0000        0.0000        0.0000        0.0000       0.000000       0.00000
   7     480.5        0.0000        0.0000        0.0000        0.0000       0.000000       0.00000
   6     533.0        0.0000        0.0000        0.0000        0.0000       0.000000       0.00000
   5     589.8        0.0000        0.0000        0.0000        0.0000       0.000000       0.00000
   4     651.6        0.0000        0.0000        0.0000        0.0000       0.000000       0.00000
   3     718.7        0.0000        0.0000        0.0000        0.0000       0.000000       0.00000
   2     792.3        0.0000        0.0000        0.0000        0.0000       0.000000       0.00000
   1     891.5        0.0000        0.0000        0.0000        0.0000       0.000000       0.00000
   0    1013.0        0.0000        0.0000        0.0000        0.0000       0.000000       0.00000



 Wavenumbers:   820. -  2600. cm-1, ATM      1
 LEVEL PRESSURE   UPWARD FLUX   DIFDOWN FLUX  DIRDOWN FLUX  DOWNWARD FLUX   NET FLUX    HEATING RATE
          mb          W/m2          W/m2          W/m2        W/m2          W/m2       degree/day
  51    .06700        0.2821        0.0000        3.8670        3.8670       3.584929       0.00000
  50    .07753        0.2821        0.0000        3.8644        3.8644       3.582330       2.08287
  49    .09103        0.2821        0.0000        3.8638        3.8638       3.581660       0.41878
  48    0.1069        0.2821        0.0000        3.8630        3.8630       3.580911       0.39874
  47    0.1255        0.2821        0.0000        3.8622        3.8622       3.580098       0.36879
  46    0.1487        0.2821        0.0000        3.8613        3.8613       3.579171       0.33798
  45    0.1794        0.2821        0.0000        3.8602        3.8602       3.578062       0.30446
  44    0.2165        0.2821        0.0000        3.8590        3.8590       3.576927       0.25804
  43    0.2613        0.2821        0.0000        3.8579        3.8579       3.575768       0.21851
  42    0.3336        0.2821        0.0000        3.8562        3.8562       3.574083       0.19646
  41    0.4307        0.2821        0.0000        3.8540        3.8540       3.571918       0.18827
  40    0.5894        0.2821        0.0000        3.8505        3.8505       3.568429       0.18550
  39     1.339        0.2821        0.0000        3.8352        3.8352       3.553080       0.17281
  38     1.782        0.2821        0.0000        3.8267        3.8267       3.544601       0.16143
  37     2.292        0.2821        0.0000        3.8172        3.8172       3.535082       0.15766
  36     2.964        0.2968        0.0000        1.2295        1.2295       0.932654      32.66834
  35     3.853        0.3035        0.0000        1.1352        1.1352       0.831698       0.95809
  34     5.035        0.3069        0.0000        1.1019        1.1019       0.794994       0.26220
  33     6.613        0.3088        0.0000        1.0867        1.0867       0.777853       0.09163
  32     8.786        0.3099        0.0000        1.0788        1.0788       0.768918       0.03470
  31     11.80        0.3106        0.0000        1.0741        1.0741       0.763477       0.01523
  30     15.07        0.3109        0.0000        1.0715        1.0715       0.760564       0.00752
  29     18.79        0.3112        0.0000        1.0699        1.0699       0.758707       0.00421
  28     23.16        0.3114        0.0000        1.0687        1.0687       0.757315       0.00269
  27     28.12        0.3115        0.0000        1.0678        1.0678       0.756283       0.00175
  26     33.73        0.3116        0.0000        1.0671        1.0671       0.755508       0.00117
  25     40.54        0.3117        0.0000        1.0665        1.0665       0.754849       0.00082
  24     48.69        0.3118        0.0000        1.0660        1.0660       0.754215       0.00066
  23     57.69        0.3119        0.0000        1.0655        1.0655       0.753627       0.00055
  22     68.43        0.3119        0.0000        1.0650        1.0650       0.753031       0.00047
  21     81.20        0.3120        0.0000        1.0644        1.0644       0.752425       0.00040
  20     96.49        0.3121        0.0000        1.0639        1.0639       0.751808       0.00034
  19     114.6        0.3122        0.0000        1.0634        1.0634       0.751189       0.00029
  18     136.5        0.3123        0.0000        1.0628        1.0628       0.750538       0.00025
  17     162.9        0.3124        0.0000        1.0623        1.0623       0.749923       0.00020
  16     196.4        0.3124        0.0000        1.0618        1.0618       0.749391       0.00013
  15     218.7        0.3125        0.0000        1.0616        1.0617       0.749197       0.00007
  14     243.0        0.3125        0.0000        1.0615        1.0615       0.749042       0.00005
  13     269.0        0.3125        0.0000        1.0614        1.0614       0.748906       0.00004
  12     297.5        0.3125        0.0000        1.0613        1.0613       0.748758       0.00004
  11     328.5        0.3125        0.0000        1.0611        1.0611       0.748574       0.00005
  10     361.9        0.3126        0.0000        1.0609        1.0609       0.748331       0.00006
   9     398.1        0.3126        0.0000        1.0606        1.0606       0.748008       0.00008
   8     437.6        0.3127        0.0000        1.0602        1.0603       0.747582       0.00009
   7     480.5        0.3128        0.0000        1.0598        1.0598       0.747028       0.00011
   6     533.0        0.3129        0.0000        1.0590        1.0591       0.746202       0.00013
   5     589.8        0.3130        0.0000        1.0582        1.0582       0.745162       0.00015
   4     651.6        0.3132        0.0000        1.0568        1.0569       0.743639       0.00021
   3     718.7        0.3135        0.0000        1.0549        1.0550       0.741415       0.00028
   2     792.3        0.3140        0.0000        1.0521        1.0521       0.738094       0.00038
   1     891.5        0.3150        0.0000        1.0467        1.0468       0.731823       0.00053
   0    1013.0        0.3165        0.0000        1.0378        1.0378       0.721276       0.00073

  Modules and versions used in this calculation:

       rrtmg_sw.1col.f90:  $Revision$                    rrtmg_sw_init.f90:  $Revision$        
     rrtmgsw_cldprop.f90:  $Revision$                  rrtmgsw_cldprmc.f90:  NOT USED          
     rrtmg_sw_reftra.f90:  $Revision$                  rrtmg_sw_spcvrt.f90:  NOT USED          
     rrtmg_sw_spcvmc.f90:  NOT USED                    rrtmgsw_setcoef.f90:  NOT USED          
     rrtmg_sw_taumol.f90:  $Revision$                  rrtmg_sw_vrtqdr.f90:  NOT USED          
                rrtatm.f:  NOT USED                             util_xxx.f:  NOT USED          
                 extra.f:  NOT USED                       rrtmg_sw_k_g.f90:  $Revision$        

