

 Wavenumbers:   820. - 50000. cm-1, ATM      1
 LEVEL PRESSURE   UPWARD FLUX   DIFDOWN FLUX  DIRDOWN FLUX  DOWNWARD FLUX   NET FLUX    HEATING RATE
          mb          W/m2          W/m2          W/m2        W/m2          W/m2       degree/day
  51    .06700      174.6158        0.0000      397.8738      397.8738     223.258014       0.00000
  50    .07753      174.6151        0.0011      397.8579      397.8591     223.243955      11.26870
  49    .09103      174.6144        0.0026      397.8425      397.8450     223.230675       8.30021
  48    0.1069      174.6135        0.0042      397.8240      397.8282     223.214761       8.47142
  47    0.1255      174.6125        0.0061      397.8011      397.8073     223.194771       9.06239
  46    0.1487      174.6113        0.0085      397.7696      397.7782     223.166877      10.16772
  45    0.1794      174.6097        0.0118      397.7232      397.7350     223.125306      11.41216
  44    0.2165      174.6078        0.0156      397.6637      397.6793     223.071453      12.25070
  43    0.2613      174.6057        0.0201      397.5872      397.6074     223.001627      13.16178
  42    0.3336      174.6024        0.0276      397.4508      397.4784     222.875936      14.65432
  41    0.4307      174.5983        0.0374      397.2602      397.2976     222.699244      15.36299
  40    0.5894      174.5922        0.0531      396.9364      396.9894     222.397219      16.06130
  39     1.339      174.5739        0.1232      395.4499      395.5731     220.999211      15.73903
  38     1.782      174.5702        0.1624      394.7601      394.9226     220.352406      12.31413
  37     2.292      174.5721        0.2071      394.0949      394.3020     219.729967      10.30921
  36     2.964      174.5254        0.3998      380.3501      380.7499     206.224580     169.53342
  35     3.853      174.5320        0.5236      378.1161      378.6397     204.107749      20.08912
  34     5.035      174.5701        0.6446      376.5055      377.1501     202.580019      10.91347
  33     6.613      174.6350        0.7861      375.0684      375.8546     201.219545       7.27310
  32     8.786      174.7213        0.9665      373.6442      374.6107     199.889408       5.16577
  31     11.80      174.8263        1.2179      372.0593      373.2772     198.450862       4.02748
  30     15.07      174.9161        1.4841      370.6494      372.1335     197.217383       3.18460
  29     18.79      174.9968        1.7816      369.2567      371.0383     196.041499       2.66609
  28     23.16      175.0671        2.1261      367.8024      369.9285     194.861393       2.28194
  27     28.12      175.1192        2.5165      366.3089      368.8254     193.706208       1.96374
  26     33.73      175.1358        2.9502      364.8274      367.7776     192.641863       1.60027
  25     40.54      175.1076        3.4703      363.2337      366.7039     191.596384       1.29703
  24     48.69      175.0276        4.0916      361.4900      365.5816     190.554053       1.07865
  23     57.69      174.8957        4.7675      359.7369      364.5044     189.608746       0.88608
  22     68.43      174.6914        5.5642      357.8189      363.3831     188.691670       0.72094
  21     81.20      174.3828        6.5030      355.7528      362.2557     187.872918       0.54102
  20     96.49      173.9564        7.6070      353.4988      361.1059     187.149434       0.39931
  19     114.6      173.4371        8.8955      350.4623      359.3577     185.920632       0.57376
  18     136.5      172.8094       10.3909      347.2530      357.6439     184.834479       0.41765
  17     162.9      172.0557       12.1284      343.7035      355.8319     183.776167       0.33828
  16     196.4      171.0559       14.3170      339.4241      353.7411     182.685228       0.27460
  15     218.7      170.3967       15.7152      336.7548      352.4700     182.073309       0.23232
  14     243.0      169.6848       17.2017      333.9418      351.1434     181.458598       0.21320
  13     269.0      168.9195       18.7747      330.9668      349.7415     180.821963       0.20652
  12     297.5      168.1014       20.4320      327.7598      348.1918     180.090418       0.21697
  11     328.5      167.2329       22.1748      324.1744      346.3492     179.116320       0.26485
  10     361.9      166.3169       23.9973      320.0607      344.0580     177.741148       0.34793
   9     398.1      165.3540       25.8992      315.2682      341.1674     175.813381       0.44913
   8     437.6      164.3490       27.8747      309.6619      337.5366     173.187634       0.56140
   7     480.5      163.3067       29.9197      303.1334      333.0531     169.746320       0.67586
   6     533.0      162.0803       32.3366      294.5420      326.8786     164.798316       0.79598
   5     589.8      160.8318       34.8261      285.2026      320.0288     159.196979       0.83142
   4     651.6      159.5813       37.3790      275.4213      312.8003     153.219002       0.81750
   3     718.7      158.3573       39.9804      265.3178      305.2982     146.940887       0.78899
   2     792.3      157.2039       42.6149      254.8369      297.4518     140.247867       0.76761
   1     891.5      155.9507       45.9396      241.3977      287.3373     131.386541       0.75406
   0    1013.0      155.0684       49.6102      226.3532      275.9634     120.894960       0.72848



 Wavenumbers:  2600. -  3250. cm-1, ATM      1
 LEVEL PRESSURE   UPWARD FLUX   DIFDOWN FLUX  DIRDOWN FLUX  DOWNWARD FLUX   NET FLUX    HEATING RATE
          mb          W/m2          W/m2          W/m2        W/m2          W/m2       degree/day
  51    .06700        0.3173        0.0000        3.5066        3.5066       3.189341       0.00000
  50    .07753        0.3173        0.0000        3.5066        3.5066       3.189333       0.00640
  49    .09103        0.3173        0.0000        3.5066        3.5066       3.189323       0.00627
  48    0.1069        0.3173        0.0000        3.5066        3.5066       3.189311       0.00613
  47    0.1255        0.3173        0.0000        3.5066        3.5066       3.189298       0.00599
  46    0.1487        0.3173        0.0000        3.5066        3.5066       3.189281       0.00607
  45    0.1794        0.3173        0.0000        3.5065        3.5065       3.189259       0.00624
  44    0.2165        0.3173        0.0000        3.5065        3.5065       3.189232       0.00611
  43    0.2613        0.3173        0.0000        3.5065        3.5065       3.189200       0.00598
  42    0.3336        0.3173        0.0000        3.5064        3.5064       3.189147       0.00615
  41    0.4307        0.3173        0.0000        3.5064        3.5064       3.189076       0.00617
  40    0.5894        0.3173        0.0000        3.5062        3.5062       3.188957       0.00633
  39     1.339        0.3173        0.0000        3.5055        3.5055       3.188259       0.00787
  38     1.782        0.3173        0.0000        3.5050        3.5050       3.187728       0.01010
  37     2.292        0.3173        0.0000        3.5043        3.5043       3.187035       0.01147
  36     2.964        0.3173        0.0000        3.5033        3.5033       3.186045       0.01243
  35     3.853        0.3173        0.0000        3.5019        3.5019       3.184668       0.01307
  34     5.035        0.3173        0.0000        3.5001        3.5001       3.182804       0.01331
  33     6.613        0.3173        0.0000        3.4977        3.4977       3.180391       0.01290
  32     8.786        0.3173        0.0000        3.4947        3.4947       3.177413       0.01157
  31     11.80        0.3173        0.0000        3.4910        3.4910       3.173770       0.01020
  30     15.07        0.3173        0.0000        3.4878        3.4878       3.170540       0.00834
  29     18.79        0.3173        0.0000        3.4847        3.4847       3.167462       0.00698
  28     23.16        0.3173        0.0000        3.4815        3.4815       3.164220       0.00627
  27     28.12        0.3173        0.0000        3.4778        3.4779       3.160577       0.00619
  26     33.73        0.3173        0.0000        3.4733        3.4734       3.156082       0.00676
  25     40.54        0.3173        0.0000        3.4670        3.4670       3.149721       0.00789
  24     48.69        0.3173        0.0000        3.4580        3.4580       3.140766       0.00927
  23     57.69        0.3173        0.0000        3.4469        3.4469       3.129626       0.01044
  22     68.43        0.3173        0.0000        3.4324        3.4325       3.115194       0.01135
  21     81.20        0.3173        0.0000        3.4145        3.4146       3.097269       0.01184
  20     96.49        0.3173        0.0000        3.3932        3.3932       3.075925       0.01178
  19     114.6        0.3174        0.0000        3.3335        3.3335       3.016185       0.02789
  18     136.5        0.3175        0.0001        3.2851        3.2852       2.967732       0.01863
  17     162.9        0.3176        0.0001        3.2445        3.2445       2.926951       0.01304
  16     196.4        0.3178        0.0001        3.2049        3.2050       2.887203       0.01001
  15     218.7        0.3179        0.0001        3.1826        3.1826       2.864766       0.00852
  14     243.0        0.3180        0.0001        3.1598        3.1599       2.841854       0.00795
  13     269.0        0.3182        0.0001        3.1353        3.1354       2.817216       0.00799
  12     297.5        0.3184        0.0001        3.1063        3.1064       2.787989       0.00867
  11     328.5        0.3187        0.0001        3.0678        3.0679       2.749206       0.01054
  10     361.9        0.3191        0.0001        3.0151        3.0152       2.696073       0.01344
   9     398.1        0.3197        0.0001        2.9436        2.9437       2.624055       0.01678
   8     437.6        0.3205        0.0001        2.8490        2.8491       2.528578       0.02041
   7     480.5        0.3217        0.0002        2.7282        2.7284       2.406658       0.02394
   6     533.0        0.3237        0.0002        2.5619        2.5620       2.238293       0.02708
   5     589.8        0.3267        0.0002        2.3815        2.3817       2.054984       0.02721
   4     651.6        0.3310        0.0002        2.1960        2.1962       1.865141       0.02596
   3     718.7        0.3372        0.0002        2.0043        2.0044       1.667277       0.02487
   2     792.3        0.3461        0.0002        1.8025        1.8027       1.456661       0.02416
   1     891.5        0.3630        0.0002        1.5529        1.5531       1.190137       0.02268
   0    1013.0        0.3953        0.0002        1.2960        1.2962       0.900841       0.02009



 Wavenumbers:  3250. -  4000. cm-1, ATM      1
 LEVEL PRESSURE   UPWARD FLUX   DIFDOWN FLUX  DIRDOWN FLUX  DOWNWARD FLUX   NET FLUX    HEATING RATE
          mb          W/m2          W/m2          W/m2        W/m2          W/m2       degree/day
  51    .06700        0.0004        0.0000        5.9117        5.9117       5.911264       0.00000
  50    .07753        0.0004        0.0000        5.9075        5.9075       5.907102       3.33612
  49    .09103        0.0004        0.0000        5.9052        5.9052       5.904813       1.43071
  48    0.1069        0.0004        0.0000        5.9035        5.9035       5.903100       0.91191
  47    0.1255        0.0004        0.0000        5.9019        5.9019       5.901480       0.73438
  46    0.1487        0.0004        0.0000        5.9001        5.9001       5.899745       0.63248
  45    0.1794        0.0004        0.0000        5.8982        5.8982       5.897768       0.54264
  44    0.2165        0.0004        0.0000        5.8962        5.8962       5.895820       0.44317
  43    0.2613        0.0004        0.0000        5.8943        5.8943       5.893871       0.36742
  42    0.3336        0.0004        0.0000        5.8915        5.8915       5.891115       0.32132
  41    0.4307        0.0004        0.0000        5.8881        5.8881       5.887741       0.29332
  40    0.5894        0.0004        0.0000        5.8830        5.8830       5.882635       0.27154
  39     1.339        0.0004        0.0000        5.8641        5.8641       5.863715       0.21300
  38     1.782        0.0004        0.0000        5.8561        5.8561       5.855725       0.15212
  37     2.292        0.0004        0.0000        5.8483        5.8483       5.847938       0.12897
  36     2.964        0.0004        0.0000        3.0317        3.0317       3.031351      35.35669
  35     3.853        0.0004        0.0000        2.7293        2.7293       2.728942       2.86991
  34     5.035        0.0004        0.0000        2.5801        2.5801       2.579670       1.06634
  33     6.613        0.0004        0.0000        2.4924        2.4924       2.491976       0.46881
  32     8.786        0.0004        0.0000        2.4350        2.4351       2.434650       0.22263
  31     11.80        0.0004        0.0000        2.3910        2.3910       2.390605       0.12331
  30     15.07        0.0004        0.0000        2.3616        2.3616       2.361164       0.07601
  29     18.79        0.0004        0.0000        2.3386        2.3386       2.338228       0.05200
  28     23.16        0.0004        0.0000        2.3179        2.3179       2.317490       0.04010
  27     28.12        0.0004        0.0000        2.2995        2.2995       2.299109       0.03125
  26     33.73        0.0004        0.0000        2.2831        2.2831       2.282729       0.02463
  25     40.54        0.0004        0.0000        2.2665        2.2666       2.266174       0.02054
  24     48.69        0.0004        0.0000        2.2478        2.2478       2.247421       0.01941
  23     57.69        0.0004        0.0000        2.2276        2.2276       2.227238       0.01892
  22     68.43        0.0004        0.0000        2.2042        2.2042       2.203850       0.01839
  21     81.20        0.0004        0.0000        2.1774        2.1775       2.177104       0.01767
  20     96.49        0.0004        0.0001        2.1472        2.1473       2.146922       0.01666
  19     114.6        0.0004        0.0001        2.1135        2.1136       2.113245       0.01572
  18     136.5        0.0003        0.0001        2.0763        2.0763       2.075989       0.01433
  17     162.9        0.0003        0.0001        2.0352        2.0353       2.034932       0.01312
  16     196.4        0.0003        0.0001        1.9868        1.9869       1.986596       0.01217
  15     218.7        0.0003        0.0001        1.9576        1.9577       1.957382       0.01109
  14     243.0        0.0003        0.0001        1.9277        1.9278       1.927540       0.01035
  13     269.0        0.0003        0.0001        1.8955        1.8956       1.895314       0.01045
  12     297.5        0.0003        0.0001        1.8541        1.8543       1.854024       0.01225
  11     328.5        0.0003        0.0002        1.7923        1.7924       1.792182       0.01681
  10     361.9        0.0002        0.0002        1.7003        1.7005       1.700226       0.02327
   9     398.1        0.0002        0.0002        1.5744        1.5745       1.574317       0.02933
   8     437.6        0.0002        0.0002        1.4145        1.4147       1.414481       0.03417
   7     480.5        0.0002        0.0002        1.2259        1.2261       1.225869       0.03704
   6     533.0        0.0002        0.0002        0.9846        0.9848       0.984554       0.03882
   5     589.8        0.0002        0.0001        0.7401        0.7402       0.740024       0.03630
   4     651.6        0.0002        0.0001        0.5136        0.5137       0.513436       0.03099
   3     718.7        0.0003        0.0001        0.3259        0.3260       0.325683       0.02360
   2     792.3        0.0004        0.0001        0.1787        0.1787       0.178357       0.01690
   1     891.5        0.0007        0.0000        0.0588        0.0589       0.058117       0.01023
   0    1013.0        0.0024        0.0000        0.0079        0.0079       0.005484       0.00365



 Wavenumbers:  4000. -  4650. cm-1, ATM      1
 LEVEL PRESSURE   UPWARD FLUX   DIFDOWN FLUX  DIRDOWN FLUX  DOWNWARD FLUX   NET FLUX    HEATING RATE
          mb          W/m2          W/m2          W/m2        W/m2          W/m2       degree/day
  51    .06700        1.2505        0.0000        6.9421        6.9421       5.691533       0.00000
  50    .07753        1.2505        0.0000        6.9421        6.9421       5.691532       0.00080
  49    .09103        1.2505        0.0000        6.9421        6.9421       5.691531       0.00078
  48    0.1069        1.2505        0.0000        6.9421        6.9421       5.691530       0.00077
  47    0.1255        1.2505        0.0000        6.9421        6.9421       5.691528       0.00075
  46    0.1487        1.2505        0.0000        6.9421        6.9421       5.691526       0.00076
  45    0.1794        1.2505        0.0000        6.9421        6.9421       5.691523       0.00078
  44    0.2165        1.2505        0.0000        6.9421        6.9421       5.691520       0.00077
  43    0.2613        1.2505        0.0000        6.9421        6.9421       5.691516       0.00075
  42    0.3336        1.2505        0.0000        6.9420        6.9420       5.691509       0.00077
  41    0.4307        1.2505        0.0000        6.9420        6.9420       5.691500       0.00078
  40    0.5894        1.2505        0.0000        6.9420        6.9420       5.691485       0.00080
  39     1.339        1.2505        0.0000        6.9419        6.9419       5.691396       0.00101
  38     1.782        1.2505        0.0000        6.9418        6.9419       5.691326       0.00133
  37     2.292        1.2505        0.0000        6.9418        6.9418       5.691232       0.00156
  36     2.964        1.2505        0.0000        6.9416        6.9416       5.691091       0.00176
  35     3.853        1.2505        0.0000        6.9414        6.9414       5.690883       0.00197
  34     5.035        1.2505        0.0000        6.9411        6.9411       5.690577       0.00219
  33     6.613        1.2505        0.0000        6.9406        6.9406       5.690126       0.00241
  32     8.786        1.2505        0.0000        6.9399        6.9400       5.689460       0.00258
  31     11.80        1.2505        0.0001        6.9389        6.9389       5.688418       0.00292
  30     15.07        1.2505        0.0001        6.9376        6.9377       5.687198       0.00315
  29     18.79        1.2505        0.0001        6.9361        6.9362       5.685727       0.00333
  28     23.16        1.2505        0.0001        6.9343        6.9344       5.683909       0.00352
  27     28.12        1.2504        0.0001        6.9320        6.9322       5.681716       0.00373
  26     33.73        1.2504        0.0001        6.9293        6.9295       5.679025       0.00405
  25     40.54        1.2504        0.0002        6.9256        6.9258       5.675395       0.00450
  24     48.69        1.2504        0.0002        6.9208        6.9210       5.670591       0.00497
  23     57.69        1.2504        0.0002        6.9151        6.9153       5.664932       0.00530
  22     68.43        1.2504        0.0003        6.9080        6.9083       5.657895       0.00553
  21     81.20        1.2504        0.0003        6.8993        6.8996       5.649292       0.00568
  20     96.49        1.2503        0.0004        6.8889        6.8892       5.638894       0.00574
  19     114.6        1.2505        0.0004        6.8552        6.8556       5.605142       0.01576
  18     136.5        1.2507        0.0005        6.8264        6.8269       5.576268       0.01110
  17     162.9        1.2509        0.0006        6.7953        6.7960       5.545037       0.00998
  16     196.4        1.2513        0.0007        6.7572        6.7579       5.506645       0.00966
  15     218.7        1.2515        0.0008        6.7331        6.7339       5.482391       0.00921
  14     243.0        1.2518        0.0009        6.7076        6.7085       5.456664       0.00892
  13     269.0        1.2522        0.0010        6.6799        6.6809       5.428721       0.00906
  12     297.5        1.2527        0.0011        6.6479        6.6490       5.396300       0.00962
  11     328.5        1.2534        0.0012        6.6074        6.6086       5.355229       0.01117
  10     361.9        1.2543        0.0013        6.5538        6.5551       5.300773       0.01378
   9     398.1        1.2556        0.0014        6.4831        6.4845       5.228923       0.01674
   8     437.6        1.2573        0.0016        6.3932        6.3947       5.137420       0.01956
   7     480.5        1.2595        0.0017        6.2833        6.2850       5.025470       0.02199
   6     533.0        1.2630        0.0019        6.1352        6.1371       4.874110       0.02435
   5     589.8        1.2677        0.0020        5.9641        5.9661       4.698424       0.02608
   4     651.6        1.2744        0.0022        5.7572        5.7593       4.484863       0.02921
   3     718.7        1.2841        0.0023        5.5100        5.5123       4.228254       0.03225
   2     792.3        1.2980        0.0024        5.2333        5.2358       3.937749       0.03332
   1     891.5        1.3246        0.0026        4.8835        4.8861       3.561491       0.03202
   0    1013.0        1.3748        0.0028        4.5054        4.5082       3.133316       0.02973



 Wavenumbers:  4650. -  5150. cm-1, ATM      1
 LEVEL PRESSURE   UPWARD FLUX   DIFDOWN FLUX  DIRDOWN FLUX  DOWNWARD FLUX   NET FLUX    HEATING RATE
          mb          W/m2          W/m2          W/m2        W/m2          W/m2       degree/day
  51    .06700        0.8567        0.0000        6.5710        6.5710       5.714269       0.00000
  50    .07753        0.8567        0.0000        6.5708        6.5708       5.714034       0.18851
  49    .09103        0.8567        0.0000        6.5705        6.5705       5.713740       0.18325
  48    0.1069        0.8567        0.0000        6.5701        6.5701       5.713407       0.17768
  47    0.1255        0.8567        0.0000        6.5698        6.5698       5.713027       0.17200
  46    0.1487        0.8567        0.0000        6.5693        6.5693       5.712555       0.17227
  45    0.1794        0.8567        0.0000        6.5686        6.5686       5.711920       0.17430
  44    0.2165        0.8567        0.0000        6.5679        6.5679       5.711184       0.16746
  43    0.2613        0.8567        0.0000        6.5671        6.5671       5.710333       0.16039
  42    0.3336        0.8567        0.0000        6.5657        6.5657       5.708973       0.15855
  41    0.4307        0.8567        0.0000        6.5640        6.5640       5.707250       0.14976
  40    0.5894        0.8567        0.0000        6.5614        6.5614       5.704635       0.13911
  39     1.339        0.8567        0.0000        6.5516        6.5516       5.694863       0.11001
  38     1.782        0.8567        0.0000        6.5473        6.5473       5.690632       0.08054
  37     2.292        0.8567        0.0000        6.5434        6.5434       5.686706       0.06503
  36     2.964        0.8567        0.0000        6.5394        6.5394       5.682680       0.05054
  35     3.853        0.8567        0.0000        6.5353        6.5353       5.678641       0.03833
  34     5.035        0.8567        0.0000        6.5312        6.5312       5.674539       0.02930
  33     6.613        0.8567        0.0001        6.5267        6.5267       5.670059       0.02395
  32     8.786        0.8567        0.0001        6.5211        6.5212       5.664500       0.02159
  31     11.80        0.8567        0.0001        6.5129        6.5130       5.656354       0.02281
  30     15.07        0.8566        0.0001        6.5035        6.5036       5.646920       0.02436
  29     18.79        0.8566        0.0001        6.4918        6.4920       5.635331       0.02627
  28     23.16        0.8566        0.0001        6.4771        6.4773       5.620648       0.02839
  27     28.12        0.8566        0.0002        6.4590        6.4592       5.602610       0.03066
  26     33.73        0.8566        0.0002        6.4375        6.4377       5.581141       0.03228
  25     40.54        0.8566        0.0002        6.4103        6.4106       5.554011       0.03366
  24     48.69        0.8566        0.0003        6.3767        6.3770       5.520389       0.03479
  23     57.69        0.8566        0.0003        6.3395        6.3399       5.483306       0.03476
  22     68.43        0.8566        0.0004        6.2963        6.2967       5.440104       0.03396
  21     81.20        0.8566        0.0005        6.2473        6.2478       5.391224       0.03230
  20     96.49        0.8566        0.0006        6.1938        6.1943       5.337718       0.02953
  19     114.6        0.8567        0.0006        6.1258        6.1264       5.269707       0.03176
  18     136.5        0.8569        0.0008        6.0570        6.0578       5.200848       0.02648
  17     162.9        0.8572        0.0009        5.9854        5.9862       5.129041       0.02295
  16     196.4        0.8576        0.0011        5.9005        5.9015       5.043945       0.02142
  15     218.7        0.8579        0.0012        5.8466        5.8478       4.989923       0.02051
  14     243.0        0.8582        0.0013        5.7884        5.7897       4.931427       0.02029
  13     269.0        0.8586        0.0014        5.7245        5.7259       4.867272       0.02081
  12     297.5        0.8592        0.0015        5.6523        5.6538       4.794638       0.02154
  11     328.5        0.8599        0.0017        5.5676        5.5693       4.709433       0.02317
  10     361.9        0.8609        0.0018        5.4677        5.4696       4.608683       0.02549
   9     398.1        0.8622        0.0020        5.3508        5.3528       4.490578       0.02752
   8     437.6        0.8641        0.0021        5.2146        5.2168       4.352689       0.02948
   7     480.5        0.8666        0.0023        5.0565        5.0588       4.192175       0.03152
   6     533.0        0.8705        0.0024        4.8483        4.8507       3.980195       0.03410
   5     589.8        0.8760        0.0026        4.6197        4.6223       3.746349       0.03471
   4     651.6        0.8835        0.0028        4.3782        4.3809       3.497415       0.03404
   3     718.7        0.8939        0.0029        4.1307        4.1336       3.239671       0.03239
   2     792.3        0.9084        0.0030        3.8771        3.8802       2.971706       0.03073
   1     891.5        0.9349        0.0032        3.5600        3.5632       2.628374       0.02922
   0    1013.0        0.9815        0.0033        3.2154        3.2187       2.237167       0.02716



 Wavenumbers:  5150. -  6150. cm-1, ATM      1
 LEVEL PRESSURE   UPWARD FLUX   DIFDOWN FLUX  DIRDOWN FLUX  DOWNWARD FLUX   NET FLUX    HEATING RATE
          mb          W/m2          W/m2          W/m2        W/m2          W/m2       degree/day
  51    .06700        2.2444        0.0000       16.4735       16.4735      14.229145       0.00000
  50    .07753        2.2444        0.0000       16.4735       16.4735      14.229145       0.00018
  49    .09103        2.2444        0.0000       16.4735       16.4735      14.229144       0.00018
  48    0.1069        2.2444        0.0000       16.4735       16.4735      14.229144       0.00018
  47    0.1255        2.2444        0.0000       16.4735       16.4735      14.229144       0.00017
  46    0.1487        2.2444        0.0000       16.4735       16.4735      14.229143       0.00018
  45    0.1794        2.2444        0.0000       16.4735       16.4735      14.229142       0.00018
  44    0.2165        2.2444        0.0000       16.4735       16.4735      14.229142       0.00018
  43    0.2613        2.2444        0.0000       16.4735       16.4735      14.229141       0.00017
  42    0.3336        2.2444        0.0000       16.4735       16.4735      14.229139       0.00018
  41    0.4307        2.2444        0.0000       16.4735       16.4735      14.229137       0.00018
  40    0.5894        2.2444        0.0000       16.4735       16.4735      14.229134       0.00019
  39     1.339        2.2443        0.0000       16.4734       16.4734      14.229113       0.00024
  38     1.782        2.2443        0.0000       16.4734       16.4734      14.229096       0.00031
  37     2.292        2.2443        0.0001       16.4733       16.4734      14.229074       0.00037
  36     2.964        2.2453        0.0001       13.8741       13.8742      11.628869      32.64044
  35     3.853        2.2458        0.0001       13.5090       13.5092      11.263358       3.46876
  34     5.035        2.2461        0.0002       13.3286       13.3287      11.082579       1.29141
  33     6.613        2.2464        0.0002       13.2211       13.2213      10.974889       0.57571
  32     8.786        2.2465        0.0002       13.1497       13.1499      10.903433       0.27751
  31     11.80        2.2466        0.0003       13.0940       13.0944      10.847739       0.15592
  30     15.07        2.2467        0.0004       13.0564       13.0568      10.810126       0.09711
  29     18.79        2.2467        0.0005       13.0268       13.0273      10.780577       0.06700
  28     23.16        2.2468        0.0005       12.9999       13.0005      10.753702       0.05197
  27     28.12        2.2468        0.0007       12.9759       12.9765      10.729728       0.04075
  26     33.73        2.2468        0.0008       12.9542       12.9550      10.708165       0.03242
  25     40.54        2.2468        0.0009       12.9320       12.9329      10.686071       0.02741
  24     48.69        2.2468        0.0011       12.9064       12.9074      10.660610       0.02635
  23     57.69        2.2469        0.0013       12.8783       12.8796      10.632695       0.02617
  22     68.43        2.2469        0.0015       12.8451       12.8466      10.599677       0.02596
  21     81.20        2.2470        0.0018       12.8062       12.8079      10.560918       0.02561
  20     96.49        2.2471        0.0021       12.7611       12.7631      10.515991       0.02480
  19     114.6        2.2473        0.0024       12.7095       12.7120      10.464677       0.02396
  18     136.5        2.2474        0.0029       12.6523       12.6552      10.407740       0.02189
  17     162.9        2.2476        0.0034       12.5911       12.5945      10.346968       0.01943
  16     196.4        2.2477        0.0041       12.5234       12.5275      10.279807       0.01691
  15     218.7        2.2477        0.0045       12.4860       12.4905      10.242804       0.01405
  14     243.0        2.2476        0.0050       12.4478       12.4528      10.205121       0.01307
  13     269.0        2.2476        0.0055       12.4057       12.4112      10.163602       0.01347
  12     297.5        2.2476        0.0061       12.3493       12.3553      10.107758       0.01656
  11     328.5        2.2476        0.0067       12.2590       12.2657      10.018028       0.02440
  10     361.9        2.2478        0.0073       12.1096       12.1169       9.869117       0.03768
   9     398.1        2.2481        0.0079       11.8774       11.8853       9.637194       0.05403
   8     437.6        2.2486        0.0085       11.5443       11.5528       9.304154       0.07121
   7     480.5        2.2496        0.0091       11.1094       11.1184       8.868855       0.08549
   6     533.0        2.2514        0.0096       10.5300       10.5396       8.288181       0.09341
   5     589.8        2.2545        0.0101        9.9778        9.9880       7.733514       0.08233
   4     651.6        2.2594        0.0107        9.5104        9.5211       7.261698       0.06452
   3     718.7        2.2673        0.0113        9.1203        9.1316       6.864381       0.04993
   2     792.3        2.2800        0.0120        8.7563        8.7683       6.488313       0.04313
   1     891.5        2.3071        0.0129        8.2810        8.2939       5.986768       0.04268
   0    1013.0        2.3673        0.0139        7.7504        7.7643       5.396920       0.04096



 Wavenumbers:  6150. -  7700. cm-1, ATM      1
 LEVEL PRESSURE   UPWARD FLUX   DIFDOWN FLUX  DIRDOWN FLUX  DOWNWARD FLUX   NET FLUX    HEATING RATE
          mb          W/m2          W/m2          W/m2        W/m2          W/m2       degree/day
  51    .06700        3.4113        0.0000       30.4684       30.4684      27.057095       0.00000
  50    .07753        3.4113        0.0000       30.4684       30.4684      27.057079       0.01303
  49    .09103        3.4113        0.0000       30.4683       30.4683      27.057059       0.01277
  48    0.1069        3.4113        0.0000       30.4683       30.4683      27.057035       0.01250
  47    0.1255        3.4113        0.0000       30.4683       30.4683      27.057008       0.01223
  46    0.1487        3.4113        0.0000       30.4682       30.4683      27.056974       0.01241
  45    0.1794        3.4113        0.0000       30.4682       30.4682      27.056928       0.01276
  44    0.2165        3.4113        0.0000       30.4681       30.4681      27.056873       0.01252
  43    0.2613        3.4113        0.0000       30.4681       30.4681      27.056807       0.01228
  42    0.3336        3.4113        0.0000       30.4679       30.4680      27.056700       0.01256
  41    0.4307        3.4113        0.0000       30.4678       30.4678      27.056557       0.01241
  40    0.5894        3.4112        0.0001       30.4675       30.4676      27.056324       0.01239
  39     1.339        3.4112        0.0001       30.4662       30.4664      27.055224       0.01238
  38     1.782        3.4111        0.0002       30.4655       30.4657      27.054580       0.01227
  37     2.292        3.4111        0.0002       30.4647       30.4649      27.053835       0.01234
  36     2.964        3.4120        0.0004       26.2106       26.2111      22.799100      53.40978
  35     3.853        3.4124        0.0006       25.6275       25.6281      22.215617       5.53736
  34     5.035        3.4127        0.0007       25.3487       25.3494      21.936647       1.99284
  33     6.613        3.4128        0.0008       25.1870       25.1878      21.775001       0.86416
  32     8.786        3.4128        0.0010       25.0822       25.0832      21.670411       0.40619
  31     11.80        3.4127        0.0013       25.0023       25.0036      21.590863       0.22271
  30     15.07        3.4126        0.0016       24.9493       24.9509      21.538340       0.13561
  29     18.79        3.4123        0.0020       24.9083       24.9102      21.497903       0.09168
  28     23.16        3.4121        0.0024       24.8715       24.8738      21.461757       0.06990
  27     28.12        3.4117        0.0028       24.8390       24.8419      21.430139       0.05375
  26     33.73        3.4113        0.0033       24.8105       24.8138      21.402461       0.04161
  25     40.54        3.4108        0.0039       24.7820       24.7859      21.375083       0.03397
  24     48.69        3.4102        0.0047       24.7501       24.7547      21.344485       0.03166
  23     57.69        3.4096        0.0055       24.7158       24.7213      21.311698       0.03073
  22     68.43        3.4088        0.0064       24.6760       24.6824      21.273570       0.02997
  21     81.20        3.4079        0.0076       24.6295       24.6371      21.229226       0.02930
  20     96.49        3.4068        0.0089       24.5756       24.5846      21.177771       0.02840
  19     114.6        3.4055        0.0106       24.5128       24.5234      21.117917       0.02795
  18     136.5        3.4039        0.0125       24.4406       24.4531      21.049135       0.02645
  17     162.9        3.4021        0.0147       24.3573       24.3720      20.969965       0.02531
  16     196.4        3.3997        0.0177       24.2531       24.2708      20.871142       0.02487
  15     218.7        3.3981        0.0196       24.1868       24.2064      20.808298       0.02386
  14     243.0        3.3964        0.0217       24.1162       24.1379      20.741559       0.02315
  13     269.0        3.3945        0.0240       24.0366       24.0605      20.666040       0.02450
  12     297.5        3.3926        0.0264       23.9286       23.9550      20.562422       0.03073
  11     328.5        3.3906        0.0290       23.7535       23.7825      20.391881       0.04637
  10     361.9        3.3887        0.0317       23.4608       23.4925      20.103770       0.07290
   9     398.1        3.3871        0.0343       22.9980       23.0323      19.645239       0.10683
   8     437.6        3.3860        0.0369       22.3163       22.3532      18.967236       0.14496
   7     480.5        3.3859        0.0392       21.3873       21.4266      18.040611       0.18199
   6     533.0        3.3880        0.0414       20.0642       20.1056      16.717563       0.21284
   5     589.8        3.3935        0.0432       18.6583       18.7015      15.307977       0.20923
   4     651.6        3.4044        0.0448       17.2844       17.3291      13.924750       0.18916
   3     718.7        3.4236        0.0461       15.9850       16.0312      12.607610       0.16553
   2     792.3        3.4561        0.0474       14.7621       14.8095      11.353391       0.14384
   1     891.5        3.5267        0.0489       13.3861       13.4350       9.908277       0.12297
   0    1013.0        3.6813        0.0505       12.0282       12.0787       8.397463       0.10490



 Wavenumbers:  7700. -  8050. cm-1, ATM      1
 LEVEL PRESSURE   UPWARD FLUX   DIFDOWN FLUX  DIRDOWN FLUX  DOWNWARD FLUX   NET FLUX    HEATING RATE
          mb          W/m2          W/m2          W/m2        W/m2          W/m2       degree/day
  51    .06700        1.6916        0.0000        7.2006        7.2006       5.509028       0.00000
  50    .07753        1.6916        0.0000        7.2006        7.2006       5.509009       0.01509
  49    .09103        1.6916        0.0000        7.2005        7.2005       5.508986       0.01479
  48    0.1069        1.6916        0.0000        7.2005        7.2005       5.508958       0.01447
  47    0.1255        1.6916        0.0000        7.2005        7.2005       5.508927       0.01416
  46    0.1487        1.6916        0.0000        7.2004        7.2005       5.508888       0.01437
  45    0.1794        1.6916        0.0000        7.2004        7.2004       5.508834       0.01479
  44    0.2165        1.6916        0.0000        7.2003        7.2003       5.508770       0.01451
  43    0.2613        1.6916        0.0000        7.2003        7.2003       5.508695       0.01423
  42    0.3336        1.6916        0.0000        7.2001        7.2001       5.508570       0.01456
  41    0.4307        1.6916        0.0000        7.2000        7.2000       5.508404       0.01440
  40    0.5894        1.6916        0.0000        7.1997        7.1997       5.508134       0.01439
  39     1.339        1.6916        0.0001        7.1984        7.1985       5.506854       0.01440
  38     1.782        1.6917        0.0001        7.1977        7.1978       5.506103       0.01430
  37     2.292        1.6917        0.0001        7.1968        7.1969       5.505234       0.01440
  36     2.964        1.6917        0.0002        7.1956        7.1958       5.504093       0.01432
  35     3.853        1.6917        0.0003        7.1940        7.1943       5.502586       0.01430
  34     5.035        1.6918        0.0003        7.1920        7.1924       5.500587       0.01429
  33     6.613        1.6919        0.0004        7.1894        7.1898       5.497918       0.01427
  32     8.786        1.6920        0.0005        7.1858        7.1863       5.494327       0.01395
  31     11.80        1.6922        0.0006        7.1808        7.1814       5.489202       0.01435
  30     15.07        1.6924        0.0008        7.1753        7.1761       5.483715       0.01417
  29     18.79        1.6926        0.0010        7.1692        7.1702       5.477537       0.01401
  28     23.16        1.6929        0.0011        7.1621        7.1633       5.470349       0.01390
  27     28.12        1.6932        0.0014        7.1540        7.1554       5.462165       0.01391
  26     33.73        1.6936        0.0016        7.1450        7.1466       5.453054       0.01370
  25     40.54        1.6940        0.0019        7.1342        7.1361       5.442114       0.01357
  24     48.69        1.6946        0.0023        7.1213        7.1236       5.429022       0.01355
  23     57.69        1.6951        0.0027        7.1072        7.1099       5.414765       0.01336
  22     68.43        1.6958        0.0031        7.0906        7.0938       5.397951       0.01322
  21     81.20        1.6967        0.0037        7.0711        7.0748       5.378151       0.01308
  20     96.49        1.6977        0.0044        7.0482        7.0526       5.354882       0.01284
  19     114.6        1.6989        0.0052        7.0212        7.0264       5.327443       0.01281
  18     136.5        1.7004        0.0061        6.9899        6.9960       5.295569       0.01226
  17     162.9        1.7022        0.0072        6.9535        6.9607       5.258462       0.01186
  16     196.4        1.7046        0.0086        6.9076        6.9162       5.211609       0.01179
  15     218.7        1.7062        0.0095        6.8782        6.8878       5.181535       0.01142
  14     243.0        1.7080        0.0105        6.8469        6.8574       5.149425       0.01114
  13     269.0        1.7099        0.0116        6.8136        6.8252       5.115251       0.01109
  12     297.5        1.7121        0.0128        6.7782        6.7910       5.078925       0.01077
  11     328.5        1.7145        0.0141        6.7407        6.7548       5.040262       0.01051
  10     361.9        1.7172        0.0154        6.7008        6.7163       4.999086       0.01042
   9     398.1        1.7202        0.0169        6.6585        6.6754       4.955174       0.01023
   8     437.6        1.7236        0.0184        6.6132        6.6317       4.908067       0.01007
   7     480.5        1.7275        0.0201        6.5646        6.5847       4.857234       0.00998
   6     533.0        1.7327        0.0221        6.5041        6.5263       4.793596       0.01024
   5     589.8        1.7388        0.0243        6.4376        6.4619       4.723129       0.01046
   4     651.6        1.7461        0.0266        6.3643        6.3909       4.644770       0.01072
   3     718.7        1.7549        0.0291        6.2827        6.3117       4.556823       0.01105
   2     792.3        1.7656        0.0317        6.1912        6.2229       4.457289       0.01142
   1     891.5        1.7823        0.0351        6.0606        6.0957       4.313416       0.01224
   0    1013.0        1.8066        0.0391        5.8911        5.9301       4.123549       0.01318



 Wavenumbers:  8050. - 12850. cm-1, ATM      1
 LEVEL PRESSURE   UPWARD FLUX   DIFDOWN FLUX  DIRDOWN FLUX  DOWNWARD FLUX   NET FLUX    HEATING RATE
          mb          W/m2          W/m2          W/m2        W/m2          W/m2       degree/day
  51    .06700       22.6169        0.0000      100.8135      100.8135      78.196621       0.00000
  50    .07753       22.6169        0.0000      100.8135      100.8135      78.196621       0.00000
  49    .09103       22.6169        0.0001      100.8134      100.8135      78.196621       0.00000
  48    0.1069       22.6168        0.0001      100.8134      100.8134      78.196621      -0.00000
  47    0.1255       22.6168        0.0001      100.8133      100.8134      78.196621       0.00000
  46    0.1487       22.6167        0.0002      100.8132      100.8134      78.196621       0.00000
  45    0.1794       22.6167        0.0002      100.8131      100.8133      78.196621      -0.00000
  44    0.2165       22.6166        0.0003      100.8129      100.8132      78.196621      -0.00000
  43    0.2613       22.6166        0.0004      100.8127      100.8132      78.196621       0.00000
  42    0.3336       22.6164        0.0006      100.8125      100.8130      78.196621      -0.00000
  41    0.4307       22.6163        0.0008      100.8121      100.8129      78.196621       0.00000
  40    0.5894       22.6160        0.0011      100.8115      100.8126      78.196621      -0.00000
  39     1.339       22.6146        0.0028      100.8085      100.8113      78.196621       0.00000
  38     1.782       22.6139        0.0037      100.8068      100.8105      78.196621       0.00000
  37     2.292       22.6130        0.0048      100.8047      100.8096      78.196621       0.00000
  36     2.964       22.6092        0.0096      100.7962      100.8058      78.196621      -0.00000
  35     3.853       22.6066        0.0127      100.7905      100.8032      78.196621      -0.00000
  34     5.035       22.6041        0.0158      100.7848      100.8007      78.196621       0.00000
  33     6.613       22.6010        0.0196      100.7781      100.7977      78.196621      -0.00000
  32     8.786       22.5972        0.0244      100.7694      100.7938      78.196621       0.00000
  31     11.80       22.5917        0.0311      100.7573      100.7884      78.196621      -0.00000
  30     15.07       22.5859        0.0383      100.7443      100.7825      78.196621       0.00000
  29     18.79       22.5794        0.0463      100.7297      100.7760      78.196621      -0.00000
  28     23.16       22.5717        0.0558      100.7126      100.7684      78.196621       0.00000
  27     28.12       22.5630        0.0666      100.6931      100.7596      78.196621       0.00000
  26     33.73       22.5532        0.0786      100.6712      100.7499      78.196621      -0.00000
  25     40.54       22.5414        0.0932      100.6448      100.7380      78.196621      -0.00000
  24     48.69       22.5271        0.1109      100.6129      100.7237      78.196621       0.00000
  23     57.69       22.5114        0.1303      100.5778      100.7080      78.196621      -0.00000
  22     68.43       22.4927        0.1534      100.5359      100.6893      78.196621       0.00000
  21     81.20       22.4703        0.1809      100.4860      100.6669      78.196621      -0.00000
  20     96.49       22.4436        0.2138      100.4264      100.6403      78.196621       0.00000
  19     114.6       22.4163        0.2525       99.9378      100.1903      77.774017       0.19733
  18     136.5       22.3828        0.2985       99.5857       99.8842      77.501357       0.10484
  17     162.9       22.3414        0.3533       99.2767       99.6300      77.288591       0.06801
  16     196.4       22.2858        0.4246       98.9486       99.3732      77.087376       0.05065
  15     218.7       22.2484        0.4714       98.7578       99.2292      76.980830       0.04045
  14     243.0       22.2075        0.5224       98.5627       99.0851      76.877551       0.03582
  13     269.0       22.1631        0.5777       98.3537       98.9314      76.768334       0.03543
  12     297.5       22.1152        0.6374       98.1034       98.7409      76.625710       0.04230
  11     328.5       22.0639        0.7018       97.7620       98.4638      76.399966       0.06138
  10     361.9       22.0096        0.7708       97.2733       98.0441      76.034443       0.09248
   9     398.1       21.9530        0.8442       96.5827       97.4269      75.473912       0.13059
   8     437.6       21.8951        0.9218       95.6335       96.5553      74.660176       0.17398
   7     480.5       21.8380        1.0030       94.3542       95.3572      73.519162       0.22409
   6     533.0       21.7779        1.0993       92.4057       93.5050      71.727078       0.28829
   5     589.8       21.7283        1.1988       90.0315       91.2303      69.501954       0.33028
   4     651.6       21.6969        1.3009       87.3431       88.6440      66.947107       0.34938
   3     718.7       21.6953        1.4051       84.3896       85.7947      64.099406       0.35788
   2     792.3       21.7432        1.5103       81.1446       82.6549      60.911726       0.36559
   1     891.5       21.9136        1.6423       76.8136       78.4559      56.542248       0.37182
   0    1013.0       22.3664        1.7857       71.8646       73.6503      51.283938       0.36511



 Wavenumbers: 12850. - 16000. cm-1, ATM      1
 LEVEL PRESSURE   UPWARD FLUX   DIFDOWN FLUX  DIRDOWN FLUX  DOWNWARD FLUX   NET FLUX    HEATING RATE
          mb          W/m2          W/m2          W/m2        W/m2          W/m2       degree/day
  51    .06700       31.6956        0.0000       63.1686       63.1686      31.472994       0.00000
  50    .07753       31.6956        0.0001       63.1677       63.1678      31.472215       0.62424
  49    .09103       31.6955        0.0001       63.1666       63.1668      31.471245       0.60650
  48    0.1069       31.6955        0.0002       63.1654       63.1656      31.470140       0.58796
  47    0.1255       31.6954        0.0003       63.1640       63.1643      31.468884       0.56935
  46    0.1487       31.6954        0.0004       63.1623       63.1627      31.467319       0.57066
  45    0.1794       31.6953        0.0006       63.1600       63.1606      31.465220       0.57609
  44    0.2165       31.6953        0.0008       63.1573       63.1581      31.462794       0.55191
  43    0.2613       31.6952        0.0010       63.1542       63.1552      31.459997       0.52717
  42    0.3336       31.6951        0.0014       63.1493       63.1507      31.455543       0.51930
  41    0.4307       31.6950        0.0019       63.1431       63.1450      31.449965       0.48499
  40    0.5894       31.6950        0.0027       63.1338       63.1365      31.441527       0.44874
  39     1.339       31.6958        0.0065       63.0955       63.1020      31.406225       0.39744
  38     1.782       31.6971        0.0087       63.0739       63.0826      31.385512       0.39434
  37     2.292       31.6994        0.0113       63.0474       63.0587      31.359257       0.43485
  36     2.964       31.6989        0.0222       62.9967       63.0189      31.320004       0.49275
  35     3.853       31.7045        0.0295       62.9355       62.9650      31.260548       0.56424
  34     5.035       31.7152        0.0368       62.8523       62.8891      31.173914       0.61888
  33     6.613       31.7311        0.0454       62.7406       62.7860      31.054825       0.63665
  32     8.786       31.7520        0.0564       62.5960       62.6524      30.900342       0.59996
  31     11.80       31.7788        0.0719       62.4055       62.4773      30.698562       0.56492
  30     15.07       31.8036        0.0883       62.2194       62.3076      30.503996       0.50233
  29     18.79       31.8282        0.1067       62.0257       62.1324      30.304232       0.45292
  28     23.16       31.8528        0.1281       61.8187       61.9468      30.093956       0.40661
  27     28.12       31.8762        0.1525       61.6039       61.7564      29.880147       0.36346
  26     33.73       31.8956        0.1797       61.3937       61.5734      29.677763       0.30429
  25     40.54       31.9112        0.2126       61.1743       61.3869      29.475647       0.25075
  24     48.69       31.9223        0.2521       60.9439       61.1961      29.273727       0.20896
  23     57.69       31.9272        0.2955       60.7237       61.0193      29.092098       0.17025
  22     68.43       31.9249        0.3471       60.4962       60.8433      28.918388       0.13656
  21     81.20       31.9112        0.4085       60.2698       60.6784      28.767202       0.09990
  20     96.49       31.8847        0.4817       60.0403       60.5220      28.637332       0.07168
  19     114.6       31.8538        0.5690       59.7760       60.3450      28.491219       0.06822
  18     136.5       31.8127        0.6723       59.4763       60.1486      28.335969       0.05970
  17     162.9       31.7595        0.7950       59.1306       59.9256      28.166117       0.05429
  16     196.4       31.6817        0.9535       58.7076       59.6611      27.979403       0.04700
  15     218.7       31.6274        1.0573       58.4395       59.4968      27.869464       0.04174
  14     243.0       31.5668        1.1699       58.1530       59.3229      27.756110       0.03932
  13     269.0       31.4997        1.2916       57.8484       59.1400      27.640290       0.03757
  12     297.5       31.4258        1.4228       57.5238       58.9465      27.520718       0.03546
  11     328.5       31.3457        1.5641       57.1739       58.7381      27.392373       0.03490
  10     361.9       31.2595        1.7159       56.7953       58.5112      27.251728       0.03558
   9     398.1       31.1673        1.8786       56.3832       58.2618      27.094492       0.03663
   8     437.6       31.0700        2.0527       55.9304       57.9830      26.913041       0.03880
   7     480.5       30.9686        2.2383       55.4275       57.6658      26.697219       0.04239
   6     533.0       30.8502        2.4653       54.7740       57.2393      26.389094       0.04957
   5     589.8       30.7325        2.7076       54.0283       56.7359      26.003430       0.05725
   4     651.6       30.6197        2.9651       53.1822       56.1474      25.527628       0.06507
   3     718.7       30.5169        3.2372       52.2370       55.4742      24.957286       0.07168
   2     792.3       30.4313        3.5225       51.1948       54.7173      24.286040       0.07698
   1     891.5       30.3657        3.8969       49.7517       53.6486      23.282881       0.08536
   0    1013.0       30.3858        4.3290       47.9704       52.2994      21.913566       0.09508



 Wavenumbers: 16000. - 22650. cm-1, ATM      1
 LEVEL PRESSURE   UPWARD FLUX   DIFDOWN FLUX  DIRDOWN FLUX  DOWNWARD FLUX   NET FLUX    HEATING RATE
          mb          W/m2          W/m2          W/m2        W/m2          W/m2       degree/day
  51    .06700       73.6875        0.0000      100.7153      100.7153      27.027756       0.00000
  50    .07753       73.6874        0.0003      100.7147      100.7151      27.027639       0.09323
  49    .09103       73.6873        0.0007      100.7140      100.7147      27.027470       0.10574
  48    0.1069       73.6871        0.0012      100.7131      100.7143      27.027244       0.12058
  47    0.1255       73.6869        0.0017      100.7121      100.7138      27.026940       0.13744
  46    0.1487       73.6867        0.0024      100.7108      100.7132      27.026494       0.16286
  45    0.1794       73.6864        0.0033      100.7089      100.7122      27.025795       0.19176
  44    0.2165       73.6861        0.0044      100.7066      100.7110      27.024848       0.21551
  43    0.2613       73.6859        0.0057      100.7037      100.7094      27.023562       0.24229
  42    0.3336       73.6855        0.0079      100.6987      100.7066      27.021118       0.28492
  41    0.4307       73.6851        0.0107      100.6918      100.7025      27.017435       0.32027
  40    0.5894       73.6847        0.0154      100.6797      100.6951      27.010410       0.37357
  39     1.339       73.6884        0.0375      100.6095      100.6470      26.958521       0.58418
  38     1.782       73.6945        0.0504      100.5585      100.6089      26.914331       0.84130
  37     2.292       73.7052        0.0654      100.4903      100.5556      26.850387       1.05909
  36     2.964       73.7030        0.1287      100.3211      100.4498      26.746861       1.29956
  35     3.853       73.7287        0.1710      100.1405      100.3114      26.582748       1.55747
  34     5.035       73.7776        0.2131       99.9027      100.1158      26.338196       1.74698
  33     6.613       73.8503        0.2629       99.5862       99.8492      25.998889       1.81393
  32     8.786       73.9458        0.3266       99.1775       99.5041      25.558314       1.71103
  31     11.80       74.0680        0.4156       98.6375       99.0531      24.985075       1.60489
  30     15.07       74.1818        0.5101       98.1071       98.6172      24.435353       1.41927
  29     18.79       74.2946        0.6161       97.5522       98.1683      23.873702       1.27344
  28     23.16       74.4081        0.7393       96.9543       97.6936      23.285496       1.13740
  27     28.12       74.5164        0.8795       96.3280       97.2075      22.691022       1.01057
  26     33.73       74.6069        1.0358       95.7057       96.7414      22.134570       0.83664
  25     40.54       74.6805        1.2239       95.0431       96.2670      21.586512       0.67993
  24     48.69       74.7346        1.4498       94.3307       95.7805      21.045894       0.55946
  23     57.69       74.7608        1.6969       93.6310       95.3278      20.566967       0.44892
  22     68.43       74.7562        1.9899       92.8854       94.8752      20.118985       0.35217
  21     81.20       74.7017        2.3376       92.1138       94.4514      19.749722       0.24400
  20     96.49       74.5915        2.7500       91.3025       94.0525      19.460957       0.15938
  19     114.6       74.4390        3.2362       90.3982       93.6344      19.195465       0.12397
  18     136.5       74.2437        3.8076       89.3714       93.1790      18.935289       0.10004
  17     162.9       73.9988        4.4811       88.1935       92.6746      18.675842       0.08293
  16     196.4       73.6532        5.3442       86.7525       92.0967      18.443461       0.05849
  15     218.7       73.4169        5.9048       85.8416       91.7464      18.329525       0.04326
  14     243.0       73.1565        6.5085       84.8723       91.3808      18.224340       0.03648
  13     269.0       72.8708        7.1562       83.8444       91.0006      18.129839       0.03066
  12     297.5       72.5591        7.8487       82.7568       90.6055      18.046405       0.02475
  11     328.5       72.2225        8.5883       81.6002       90.1885      17.965955       0.02187
  10     361.9       71.8610        9.3747       80.3747       89.7494      17.888383       0.01963
   9     398.1       71.4735       10.2098       79.0766       89.2865      17.812941       0.01758
   8     437.6       71.0603       11.0938       77.7038       88.7976      17.737312       0.01617
   7     480.5       70.6211       12.0269       76.2548       88.2817      17.660540       0.01508
   6     533.0       70.0870       13.1553       74.4990       87.6543      17.567311       0.01500
   5     589.8       69.5204       14.3472       72.6374       86.9846      17.464248       0.01530
   4     651.6       68.9227       15.6005       70.6697       86.2702      17.347576       0.01596
   3     718.7       68.2955       16.9133       68.5950       85.5083      17.212816       0.01694
   2     792.3       67.6422       18.2807       66.4157       84.6964      17.054115       0.01820
   1     891.5       66.7943       20.0625       63.5419       83.6044      16.810089       0.02077
   0    1013.0       65.8299       22.1091       60.1873       82.2964      16.466513       0.02386



 Wavenumbers: 22650. - 29000. cm-1, ATM      1
 LEVEL PRESSURE   UPWARD FLUX   DIFDOWN FLUX  DIRDOWN FLUX  DOWNWARD FLUX   NET FLUX    HEATING RATE
          mb          W/m2          W/m2          W/m2        W/m2          W/m2       degree/day
  51    .06700       32.0576        0.0000       38.0063       38.0063       5.948722       0.00000
  50    .07753       32.0574        0.0004       38.0057       38.0061       5.948722       0.00000
  49    .09103       32.0572        0.0009       38.0050       38.0059       5.948722       0.00000
  48    0.1069       32.0569        0.0014       38.0042       38.0056       5.948722      -0.00000
  47    0.1255       32.0566        0.0020       38.0033       38.0054       5.948722       0.00000
  46    0.1487       32.0563        0.0028       38.0022       38.0050       5.948722      -0.00000
  45    0.1794       32.0558        0.0039       38.0006       38.0045       5.948722       0.00000
  44    0.2165       32.0552        0.0052       37.9987       38.0039       5.948722      -0.00000
  43    0.2613       32.0545        0.0067       37.9965       38.0032       5.948722       0.00000
  42    0.3336       32.0533        0.0092       37.9928       38.0021       5.948722       0.00000
  41    0.4307       32.0518        0.0125       37.9880       38.0005       5.948722      -0.00000
  40    0.5894       32.0493        0.0180       37.9800       37.9980       5.948722       0.00000
  39     1.339       32.0375        0.0437       37.9425       37.9862       5.948722      -0.00000
  38     1.782       32.0305        0.0588       37.9204       37.9793       5.948722       0.00000
  37     2.292       32.0225        0.0763       37.8949       37.9712       5.948722       0.00000
  36     2.964       31.9886        0.1502       37.7871       37.9373       5.948722       0.00000
  35     3.853       31.9660        0.1994       37.7153       37.9147       5.948722       0.00000
  34     5.035       31.9433        0.2486       37.6434       37.8921       5.948722       0.00000
  33     6.613       31.9166        0.3068       37.5585       37.8653       5.948722      -0.00000
  32     8.786       31.8823        0.3812       37.4498       37.8311       5.948722      -0.00000
  31     11.80       31.8344        0.4853       37.2978       37.7831       5.948722       0.00000
  30     15.07       31.7835        0.5958       37.1364       37.7322       5.948722      -0.00000
  29     18.79       31.7264        0.7197       36.9554       37.6751       5.948722       0.00000
  28     23.16       31.6600        0.8634       36.7453       37.6088       5.948722       0.00000
  27     28.12       31.5846        1.0267       36.5065       37.5333       5.948722      -0.00000
  26     33.73       31.5006        1.2082       36.2411       37.4493       5.948722      -0.00000
  25     40.54       31.3999        1.4257       35.9229       37.3486       5.948722       0.00000
  24     48.69       31.2794        1.6853       35.5428       37.2281       5.948722      -0.00000
  23     57.69       31.1482        1.9673       35.1296       37.0969       5.948722       0.00000
  22     68.43       30.9936        2.2989       34.6434       36.9423       5.948722       0.00000
  21     81.20       30.8118        2.6879       34.0727       36.7605       5.948722       0.00000
  20     96.49       30.5984        3.1427       33.4045       36.5471       5.948722       0.00000
  19     114.6       30.3497        3.6706       32.6278       36.2984       5.948722      -0.00000
  18     136.5       30.0612        4.2797       31.7303       36.0100       5.948722       0.00000
  17     162.9       29.7265        4.9820       30.6932       35.6753       5.948722       0.00000
  16     196.4       29.3062        5.8570       29.3979       35.2549       5.948722      -0.00000
  15     218.7       29.0383        6.4101       28.5769       34.9870       5.948722      -0.00000
  14     243.0       28.7543        6.9927       27.7102       34.7030       5.948722       0.00000
  13     269.0       28.4545        7.6030       26.8003       34.4032       5.948722      -0.00000
  12     297.5       28.1397        8.2384       25.8500       34.0884       5.948722       0.00000
  11     328.5       27.8095        8.8985       24.8597       33.7583       5.948722       0.00000
  10     361.9       27.4654        9.5793       23.8349       33.4142       5.948722      -0.00000
   9     398.1       27.1076       10.2789       22.7774       33.0563       5.948722       0.00000
   8     437.6       26.7373       10.9929       21.6931       32.6860       5.948722       0.00000
   7     480.5       26.3554       11.7184       20.5857       32.3041       5.948722       0.00000
   6     533.0       25.9057       12.5567       19.2978       31.8544       5.948722      -0.00000
   5     589.8       25.4444       13.3974       17.9957       31.3931       5.948722      -0.00000
   4     651.6       24.9727       14.2353       16.6862       30.9215       5.948722       0.00000
   3     718.7       24.4942       15.0597       15.3832       30.4429       5.948722      -0.00000
   2     792.3       24.0110       15.8629       14.0968       29.9597       5.948722       0.00000
   1     891.5       23.4021       16.8286       12.5222       29.3509       5.948722       0.00000
   0    1013.0       22.7296       17.8268       10.8515       28.6783       5.948722      -0.00000



 Wavenumbers: 29000. - 38000. cm-1, ATM      1
 LEVEL PRESSURE   UPWARD FLUX   DIFDOWN FLUX  DIRDOWN FLUX  DOWNWARD FLUX   NET FLUX    HEATING RATE
          mb          W/m2          W/m2          W/m2        W/m2          W/m2       degree/day
  51    .06700        4.7108        0.0000       13.4026       13.4026       8.691781       0.00000
  50    .07753        4.7106        0.0003       13.3983       13.3986       8.687990       3.03851
  49    .09103        4.7103        0.0007       13.3921       13.3928       8.682481       3.44296
  48    0.1069        4.7100        0.0011       13.3841       13.3851       8.675117       3.92014
  47    0.1255        4.7097        0.0016       13.3734       13.3750       8.665287       4.45648
  46    0.1487        4.7092        0.0022       13.3579       13.3601       8.650869       5.25553
  45    0.1794        4.7087        0.0030       13.3342       13.3372       8.628499       6.14093
  44    0.2165        4.7080        0.0040       13.3025       13.3065       8.598496       6.82518
  43    0.2613        4.7072        0.0051       13.2605       13.2657       8.558444       7.54962
  42    0.3336        4.7060        0.0070       13.1834       13.1905       8.484438       8.62839
  41    0.4307        4.7045        0.0095       13.0730       13.0824       8.377959       9.25808
  40    0.5894        4.7021        0.0133       12.8795       12.8929       8.190767       9.95464
  39     1.339        4.6939        0.0295       11.9153       11.9449       7.251001      10.58006
  38     1.782        4.6908        0.0378       11.4377       11.4755       6.784702       8.87758
  37     2.292        4.6888        0.0466       10.9754       11.0220       6.333212       7.47785
  36     2.964        4.6670        0.0859       10.4232       10.5092       5.842203       6.16364
  35     3.853        4.6604        0.1081        9.8720        9.9801       5.319726       4.95840
  34     5.035        4.6603        0.1275        9.3252        9.4527       4.792452       3.76663
  33     6.613        4.6644        0.1489        8.7999        8.9489       4.284444       2.71581
  32     8.786        4.6712        0.1753        8.3061        8.4814       3.810135       1.84205
  31     11.80        4.6799        0.2113        7.8210        8.0322       3.352298       1.28180
  30     15.07        4.6874        0.2485        7.4451        7.6936       3.006178       0.89361
  29     18.79        4.6942        0.2891        7.1145        7.4036       2.709396       0.67290
  28     23.16        4.7002        0.3351        6.8053        7.1404       2.440205       0.52053
  27     28.12        4.7046        0.3860        6.5192        6.9052       2.200586       0.40734
  26     33.73        4.7051        0.4418        6.2627        6.7044       1.999384       0.30251
  25     40.54        4.7003        0.5076        6.0116        6.5192       1.818939       0.22386
  24     48.69        4.6897        0.5849        5.7600        6.3449       1.655165       0.16948
  23     57.69        4.6737        0.6675        5.5263        6.1938       1.520114       0.12659
  22     68.43        4.6496        0.7631        5.2879        6.0510       1.401430       0.09330
  21     81.20        4.6133        0.8741        5.0481        5.9222       1.308868       0.06116
  20     96.49        4.5636        1.0024        4.8009        5.8033       1.239791       0.03813
  19     114.6        4.5032        1.1477        4.5351        5.6829       1.179643       0.02808
  18     136.5        4.4333        1.3099        4.2467        5.5566       1.123301       0.02167
  17     162.9        4.3530        1.4900        3.9326        5.4226       1.069617       0.01716
  16     196.4        4.2515        1.7053        3.5700        5.2754       1.023917       0.01150
  15     218.7        4.1875        1.8357        3.3542        5.1899       1.002441       0.00815
  14     243.0        4.1207        1.9684        3.1354        5.1039       0.983187       0.00668
  13     269.0        4.0515        2.1024        2.9154        5.0178       0.966374       0.00545
  12     297.5        3.9802        2.2365        2.6957        4.9321       0.951957       0.00428
  11     328.5        3.9076        2.3691        2.4770        4.8461       0.938443       0.00367
  10     361.9        3.8343        2.4989        2.2613        4.7602       0.925871       0.00318
   9     398.1        3.7606        2.6249        2.0499        4.6748       0.914194       0.00272
   8     437.6        3.6869        2.7457        1.8444        4.5901       0.903184       0.00235
   7     480.5        3.6135        2.8604        1.6460        4.5064       0.892935       0.00201
   6     533.0        3.5304        2.9822        1.4303        4.4124       0.882005       0.00176
   5     589.8        3.4489        3.0925        1.2280        4.3205       0.871662       0.00154
   4     651.6        3.3693        3.1898        1.0413        4.2311       0.861802       0.00135
   3     718.7        3.2920        3.2731        0.8712        4.1443       0.852381       0.00118
   2     792.3        3.2170        3.3417        0.7187        4.0604       0.843387       0.00103
   1     891.5        3.1265        3.4063        0.5527        3.9590       0.832543       0.00092
   0    1013.0        3.0306        3.4499        0.4016        3.8514       0.820861       0.00081



 Wavenumbers: 38000. - 50000. cm-1, ATM      1
 LEVEL PRESSURE   UPWARD FLUX   DIFDOWN FLUX  DIRDOWN FLUX  DOWNWARD FLUX   NET FLUX    HEATING RATE
          mb          W/m2          W/m2          W/m2        W/m2          W/m2       degree/day
  51    .06700        0.0056        0.0000        0.8267        0.8267       0.821019       0.00000
  50    .07753        0.0056        0.0001        0.8242        0.8243       0.818686       1.86971
  49    .09103        0.0055        0.0002        0.8207        0.8209       0.815362       2.07748
  48    0.1069        0.0054        0.0002        0.8162        0.8164       0.811003       2.32036
  47    0.1255        0.0053        0.0004        0.8103        0.8106       0.805289       2.59064
  46    0.1487        0.0052        0.0005        0.8018        0.8023       0.797053       3.00214
  45    0.1794        0.0051        0.0007        0.7889        0.7896       0.784496       3.44723
  44    0.2165        0.0049        0.0009        0.7720        0.7729       0.767987       3.75536
  43    0.2613        0.0047        0.0011        0.7500        0.7511       0.746433       4.06297
  42    0.3336        0.0044        0.0015        0.7106        0.7121       0.707740       4.51117
  41    0.4307        0.0040        0.0019        0.6566        0.6584       0.654440       4.63435
  40    0.5894        0.0035        0.0024        0.5680        0.5704       0.566921       4.65412
  39     1.339        0.0021        0.0030        0.2422        0.2452       0.243101       3.64563
  38     1.782        0.0017        0.0026        0.1493        0.1519       0.150210       1.76849
  37     2.292        0.0015        0.0022        0.0924        0.0946       0.093116       0.94564
  36     2.964        0.0006        0.0024        0.0528        0.0552       0.054528       0.48439
  35     3.853        0.0003        0.0019        0.0286        0.0305       0.030142       0.23143
  34     5.035        0.0002        0.0014        0.0149        0.0162       0.016042       0.10072
  33     6.613        0.0001        0.0009        0.0071        0.0080       0.007893       0.04356
  32     8.786        0.0000        0.0006        0.0029        0.0035       0.003419       0.01738
  31     11.80        0.0000        0.0003        0.0009        0.0012       0.001232       0.00612
  30     15.07        0.0000        0.0002        0.0003        0.0005       0.000486       0.00192
  29     18.79        0.0000        0.0001        0.0001        0.0002       0.000196       0.00066
  28     23.16        0.0000        0.0000        0.0000        0.0001       0.000078       0.00023
  27     28.12        0.0000        0.0000        0.0000        0.0000       0.000031       0.00008
  26     33.73        0.0000        0.0000        0.0000        0.0000       0.000013       0.00003
  25     40.54        0.0000        0.0000        0.0000        0.0000       0.000005       0.00001
  24     48.69        0.0000        0.0000        0.0000        0.0000       0.000002       0.00000
  23     57.69        0.0000        0.0000        0.0000        0.0000       0.000001       0.00000
  22     68.43        0.0000        0.0000        0.0000        0.0000       0.000000       0.00000
  21     81.20        0.0000        0.0000        0.0000        0.0000       0.000000       0.00000
  20     96.49        0.0000        0.0000        0.0000        0.0000       0.000000       0.00000
  19     114.6        0.0000        0.0000        0.0000        0.0000       0.000000       0.00000
  18     136.5        0.0000        0.0000        0.0000        0.0000       0.000000       0.00000
  17     162.9        0.0000        0.0000        0.0000        0.0000       0.000000       0.00000
  16     196.4        0.0000        0.0000        0.0000        0.0000       0.000000       0.00000
  15     218.7        0.0000        0.0000        0.0000        0.0000       0.000000       0.00000
  14     243.0        0.0000        0.0000        0.0000        0.0000       0.000000       0.00000
  13     269.0        0.0000        0.0000        0.0000        0.0000       0.000000       0.00000
  12     297.5        0.0000        0.0000        0.0000        0.0000       0.000000       0.00000
  11     328.5        0.0000        0.0000        0.0000        0.0000       0.000000       0.00000
  10     361.9        0.0000        0.0000        0.0000        0.0000       0.000000       0.00000
   9     398.1        0.0000        0.0000        0.0000        0.0000       0.000000       0.00000
   8     437.6        0.0000        0.0000        0.0000        0.0000       0.000000       0.00000
   7     480.5        0.0000        0.0000        0.0000        0.0000       0.000000       0.00000
   6     533.0        0.0000        0.0000        0.0000        0.0000       0.000000       0.00000
   5     589.8        0.0000        0.0000        0.0000        0.0000       0.000000       0.00000
   4     651.6        0.0000        0.0000        0.0000        0.0000       0.000000       0.00000
   3     718.7        0.0000        0.0000        0.0000        0.0000       0.000000       0.00000
   2     792.3        0.0000        0.0000        0.0000        0.0000       0.000000       0.00000
   1     891.5        0.0000        0.0000        0.0000        0.0000       0.000000       0.00000
   0    1013.0        0.0000        0.0000        0.0000        0.0000       0.000000       0.00000



 Wavenumbers:   820. -  2600. cm-1, ATM      1
 LEVEL PRESSURE   UPWARD FLUX   DIFDOWN FLUX  DIRDOWN FLUX  DOWNWARD FLUX   NET FLUX    HEATING RATE
          mb          W/m2          W/m2          W/m2        W/m2          W/m2       degree/day
  51    .06700        0.0696        0.0000        3.8670        3.8670       3.797447       0.00000
  50    .07753        0.0696        0.0000        3.8644        3.8644       3.794848       2.08287
  49    .09103        0.0696        0.0000        3.8638        3.8638       3.794178       0.41878
  48    0.1069        0.0696        0.0000        3.8630        3.8630       3.793429       0.39874
  47    0.1255        0.0696        0.0000        3.8622        3.8622       3.792615       0.36879
  46    0.1487        0.0696        0.0000        3.8613        3.8613       3.791688       0.33798
  45    0.1794        0.0696        0.0000        3.8602        3.8602       3.790579       0.30446
  44    0.2165        0.0696        0.0000        3.8590        3.8590       3.789445       0.25804
  43    0.2613        0.0696        0.0000        3.8579        3.8579       3.788286       0.21851
  42    0.3336        0.0696        0.0000        3.8562        3.8562       3.786601       0.19646
  41    0.4307        0.0696        0.0000        3.8540        3.8540       3.784435       0.18827
  40    0.5894        0.0696        0.0000        3.8505        3.8505       3.780947       0.18550
  39     1.339        0.0696        0.0000        3.8352        3.8352       3.765597       0.17281
  38     1.782        0.0696        0.0000        3.8267        3.8267       3.757118       0.16143
  37     2.292        0.0696        0.0000        3.8172        3.8172       3.747599       0.15766
  36     2.964        0.0843        0.0000        0.6767        0.6767       0.592412      39.60713
  35     3.853        0.0906        0.0000        0.5951        0.5951       0.504547       0.83386
  34     5.035        0.0938        0.0000        0.5605        0.5605       0.466671       0.27057
  33     6.613        0.0955        0.0000        0.5433        0.5433       0.447791       0.10093
  32     8.786        0.0965        0.0000        0.5341        0.5341       0.437661       0.03934
  31     11.80        0.0971        0.0000        0.5285        0.5285       0.431402       0.01752
  30     15.07        0.0974        0.0000        0.5254        0.5254       0.428025       0.00872
  29     18.79        0.0976        0.0000        0.5235        0.5235       0.425863       0.00490
  28     23.16        0.0978        0.0000        0.5220        0.5220       0.424240       0.00314
  27     28.12        0.0979        0.0000        0.5209        0.5209       0.423036       0.00205
  26     33.73        0.0980        0.0000        0.5201        0.5201       0.422134       0.00136
  25     40.54        0.0980        0.0000        0.5194        0.5194       0.421369       0.00095
  24     48.69        0.0981        0.0000        0.5188        0.5188       0.420637       0.00076
  23     57.69        0.0982        0.0000        0.5181        0.5181       0.419962       0.00063
  22     68.43        0.0983        0.0000        0.5175        0.5175       0.419283       0.00053
  21     81.20        0.0983        0.0000        0.5169        0.5169       0.418599       0.00045
  20     96.49        0.0984        0.0000        0.5163        0.5163       0.417909       0.00038
  19     114.6        0.0985        0.0000        0.5157        0.5157       0.417250       0.00031
  18     136.5        0.0985        0.0000        0.5151        0.5151       0.416559       0.00027
  17     162.9        0.0986        0.0000        0.5145        0.5145       0.415922       0.00020
  16     196.4        0.0986        0.0000        0.5140        0.5140       0.415402       0.00013
  15     218.7        0.0987        0.0000        0.5139        0.5139       0.415230       0.00007
  14     243.0        0.0987        0.0000        0.5138        0.5138       0.415100       0.00004
  13     269.0        0.0987        0.0000        0.5137        0.5137       0.414988       0.00004
  12     297.5        0.0987        0.0000        0.5135        0.5135       0.414852       0.00004
  11     328.5        0.0987        0.0000        0.5133        0.5134       0.414640       0.00006
  10     361.9        0.0988        0.0000        0.5130        0.5130       0.414272       0.00009
   9     398.1        0.0988        0.0000        0.5124        0.5125       0.413638       0.00015
   8     437.6        0.0989        0.0000        0.5115        0.5115       0.412574       0.00023
   7     480.5        0.0991        0.0000        0.5100        0.5100       0.410869       0.00033
   6     533.0        0.0994        0.0000        0.5070        0.5070       0.407615       0.00052
   5     589.8        0.0999        0.0000        0.5025        0.5025       0.402561       0.00075
   4     651.6        0.1008        0.0000        0.4949        0.4949       0.394096       0.00116
   3     718.7        0.1023        0.0000        0.4829        0.4829       0.380578       0.00170
   2     792.3        0.1046        0.0000        0.4650        0.4650       0.360411       0.00231
   1     891.5        0.1091        0.0000        0.4326        0.4326       0.323478       0.00314
   0    1013.0        0.1170        0.0000        0.3836        0.3836       0.266621       0.00395

  Modules and versions used in this calculation:

       rrtmg_sw.1col.f90:  $Revision$                    rrtmg_sw_init.f90:  $Revision$        
     rrtmgsw_cldprop.f90:  $Revision$                  rrtmgsw_cldprmc.f90:  NOT USED          
     rrtmg_sw_reftra.f90:  $Revision$                  rrtmg_sw_spcvrt.f90:  NOT USED          
     rrtmg_sw_spcvmc.f90:  NOT USED                    rrtmgsw_setcoef.f90:  NOT USED          
     rrtmg_sw_taumol.f90:  $Revision$                  rrtmg_sw_vrtqdr.f90:  NOT USED          
                rrtatm.f:  NOT USED                             util_xxx.f:  NOT USED          
                 extra.f:  NOT USED                       rrtmg_sw_k_g.f90:  $Revision$        

