

 Wavenumbers:   820. - 50000. cm-1, ATM      1
 LEVEL PRESSURE   UPWARD FLUX   DIFDOWN FLUX  DIRDOWN FLUX  DOWNWARD FLUX   NET FLUX    HEATING RATE
          mb          W/m2          W/m2          W/m2        W/m2          W/m2       degree/day
  51    .06700      177.8096        0.0000      397.8738      397.8738     220.064169       0.00000
  50    .07753      177.8090        0.0011      397.8580      397.8591     220.050112      11.26736
  49    .09103      177.8082        0.0026      397.8425      397.8450     220.036834       8.29893
  48    0.1069      177.8073        0.0042      397.8240      397.8282     220.020922       8.47021
  47    0.1255      177.8063        0.0061      397.8011      397.8073     220.000934       9.06126
  46    0.1487      177.8051        0.0085      397.7696      397.7782     219.973043      10.16663
  45    0.1794      177.8035        0.0118      397.7232      397.7350     219.931476      11.41110
  44    0.2165      177.8017        0.0156      397.6637      397.6793     219.877627      12.24973
  43    0.2613      177.7996        0.0202      397.5872      397.6074     219.807807      13.16090
  42    0.3336      177.7963        0.0276      397.4508      397.4784     219.682123      14.65351
  41    0.4307      177.7922        0.0374      397.2603      397.2976     219.505438      15.36230
  40    0.5894      177.7861        0.0531      396.9365      396.9895     219.203424      16.06075
  39     1.339      177.7679        0.1232      395.4501      395.5733     217.805431      15.73886
  38     1.782      177.7642        0.1625      394.7603      394.9228     217.158624      12.31416
  37     2.292      177.7661        0.2072      394.0951      394.3023     216.536200      10.30897
  36     2.964      177.7509        0.3461      382.0429      382.3890     204.638102     149.35709
  35     3.853      177.7694        0.4508      379.9903      380.4410     202.671605      18.66242
  34     5.035      177.8139        0.5633      378.4675      379.0308     201.216923      10.39164
  33     6.613      177.8831        0.7010      377.0813      377.7824     199.899242       7.04433
  32     8.786      177.9730        0.8799      375.6893      376.5692     198.596171       5.06065
  31     11.80      178.0818        1.1310      374.1274      375.2584     197.176605       3.97434
  30     15.07      178.1749        1.3974      372.7321      374.1295     195.954633       3.15489
  29     18.79      178.2588        1.6956      371.3499      373.0455     194.786667       2.64814
  28     23.16      178.3324        2.0408      369.9046      371.9454     193.612955       2.26958
  27     28.12      178.3878        2.4321      368.4182      370.8504     192.462578       1.95556
  26     33.73      178.4075        2.8669      366.9425      369.8093     191.401844       1.59484
  25     40.54      178.3824        3.3881      365.3539      368.7419     190.359518       1.29312
  24     48.69      178.3055        4.0108      363.6156      367.6264     189.320893       1.07481
  23     57.69      178.1765        4.6882      361.8685      366.5567     188.380202       0.88176
  22     68.43      177.9750        5.4865      359.9578      365.4443     187.469347       0.71605
  21     81.20      177.6688        6.4272      357.9003      364.3275     186.658689       0.53567
  20     96.49      177.2445        7.5335      355.6560      363.1895     185.945049       0.39388
  19     114.6      176.7248        8.8246      352.7946      361.6193     184.894436       0.49056
  18     136.5      176.0970       10.3232      349.6762      359.9994     183.902365       0.38147
  17     162.9      175.3437       12.0644      346.1961      358.2605     182.916823       0.31502
  16     196.4      174.3447       14.2576      341.9890      356.2466     181.901954       0.25545
  15     218.7      173.6863       15.6589      339.3607      355.0196     181.333242       0.21592
  14     243.0      172.9755       17.1485      336.5898      353.7383     180.762844       0.19783
  13     269.0      172.2114       18.7250      333.6620      352.3870     180.175573       0.19051
  12     297.5      171.3945       20.3860      330.5214      350.9074     179.512916       0.19654
  11     328.5      170.5272       22.1328      327.0492      349.1820     178.654795       0.23332
  10     361.9      169.6122       23.9598      323.1244      347.0842     177.471980       0.29926
   9     398.1      168.6500       25.8667      318.6168      344.4835     175.833557       0.38172
   8     437.6      167.6448       27.8480      313.3951      341.2431     173.598272       0.47792
   7     480.5      166.6013       29.8993      307.3393      337.2385     170.637258       0.58153
   6     533.0      165.3700       32.3257      299.3415      331.6673     166.297214       0.69818
   5     589.8      164.1123       34.8262      290.5746      325.4009     161.288535       0.74345
   4     651.6      162.8465       37.3904      281.3238      318.7142     155.867664       0.74132
   3     718.7      161.5983       40.0076      271.7360      311.7436     150.145289       0.71914
   2     792.3      160.4108       42.6611      261.8533      304.5144     144.103618       0.69291
   1     891.5      159.0893       46.0167      249.1956      295.2123     136.123001       0.67911
   0    1013.0      158.0669       49.7301      234.8479      284.5779     126.510970       0.66741



 Wavenumbers:  2600. -  3250. cm-1, ATM      1
 LEVEL PRESSURE   UPWARD FLUX   DIFDOWN FLUX  DIRDOWN FLUX  DOWNWARD FLUX   NET FLUX    HEATING RATE
          mb          W/m2          W/m2          W/m2        W/m2          W/m2       degree/day
  51    .06700        0.3825        0.0000        3.5066        3.5066       3.124102       0.00000
  50    .07753        0.3825        0.0000        3.5066        3.5066       3.124094       0.00640
  49    .09103        0.3825        0.0000        3.5066        3.5066       3.124084       0.00627
  48    0.1069        0.3825        0.0000        3.5066        3.5066       3.124072       0.00613
  47    0.1255        0.3825        0.0000        3.5066        3.5066       3.124059       0.00599
  46    0.1487        0.3825        0.0000        3.5066        3.5066       3.124043       0.00607
  45    0.1794        0.3825        0.0000        3.5065        3.5065       3.124020       0.00624
  44    0.2165        0.3825        0.0000        3.5065        3.5065       3.123993       0.00611
  43    0.2613        0.3825        0.0000        3.5065        3.5065       3.123961       0.00598
  42    0.3336        0.3825        0.0000        3.5064        3.5064       3.123908       0.00615
  41    0.4307        0.3825        0.0000        3.5064        3.5064       3.123837       0.00617
  40    0.5894        0.3825        0.0000        3.5062        3.5062       3.123718       0.00633
  39     1.339        0.3825        0.0000        3.5055        3.5055       3.123020       0.00787
  38     1.782        0.3825        0.0000        3.5050        3.5050       3.122489       0.01010
  37     2.292        0.3825        0.0000        3.5043        3.5043       3.121796       0.01147
  36     2.964        0.3825        0.0000        3.5033        3.5033       3.120806       0.01243
  35     3.853        0.3825        0.0000        3.5019        3.5019       3.119429       0.01307
  34     5.035        0.3825        0.0000        3.5001        3.5001       3.117566       0.01331
  33     6.613        0.3825        0.0000        3.4977        3.4977       3.115152       0.01290
  32     8.786        0.3825        0.0000        3.4947        3.4947       3.112174       0.01157
  31     11.80        0.3825        0.0000        3.4910        3.4910       3.108531       0.01020
  30     15.07        0.3825        0.0000        3.4878        3.4878       3.105301       0.00834
  29     18.79        0.3825        0.0000        3.4847        3.4847       3.102223       0.00698
  28     23.16        0.3825        0.0000        3.4815        3.4815       3.098980       0.00627
  27     28.12        0.3825        0.0000        3.4778        3.4779       3.095336       0.00619
  26     33.73        0.3825        0.0000        3.4733        3.4734       3.090841       0.00676
  25     40.54        0.3825        0.0000        3.4670        3.4670       3.084479       0.00789
  24     48.69        0.3825        0.0000        3.4580        3.4580       3.075522       0.00927
  23     57.69        0.3825        0.0000        3.4469        3.4469       3.064380       0.01044
  22     68.43        0.3825        0.0000        3.4324        3.4325       3.049944       0.01135
  21     81.20        0.3825        0.0000        3.4145        3.4146       3.032014       0.01185
  20     96.49        0.3826        0.0000        3.3932        3.3932       3.010663       0.01178
  19     114.6        0.3826        0.0000        3.3441        3.3442       2.961518       0.02295
  18     136.5        0.3827        0.0001        3.3013        3.3014       2.918621       0.01649
  17     162.9        0.3829        0.0001        3.2635        3.2636       2.880679       0.01213
  16     196.4        0.3831        0.0001        3.2264        3.2265       2.843401       0.00938
  15     218.7        0.3832        0.0001        3.2059        3.2060       2.822772       0.00783
  14     243.0        0.3834        0.0001        3.1854        3.1855       2.802113       0.00717
  13     269.0        0.3836        0.0001        3.1638        3.1639       2.780333       0.00707
  12     297.5        0.3839        0.0001        3.1389        3.1390       2.755120       0.00748
  11     328.5        0.3842        0.0001        3.1068        3.1069       2.722681       0.00882
  10     361.9        0.3847        0.0001        3.0641        3.0642       2.679516       0.01092
   9     398.1        0.3853        0.0001        3.0071        3.0073       2.621925       0.01342
   8     437.6        0.3863        0.0001        2.9315        2.9317       2.545419       0.01636
   7     480.5        0.3876        0.0002        2.8330        2.8331       2.445547       0.01961
   6     533.0        0.3897        0.0002        2.6912        2.6914       2.301663       0.02315
   5     589.8        0.3929        0.0002        2.5303        2.5305       2.137606       0.02435
   4     651.6        0.3974        0.0002        2.3623        2.3625       1.965053       0.02360
   3     718.7        0.4040        0.0002        2.1888        2.1890       1.785024       0.02262
   2     792.3        0.4134        0.0002        2.0066        2.0068       1.593400       0.02198
   1     891.5        0.4310        0.0002        1.7737        1.7739       1.342939       0.02131
   0    1013.0        0.4638        0.0002        1.5204        1.5206       1.056828       0.01987



 Wavenumbers:  3250. -  4000. cm-1, ATM      1
 LEVEL PRESSURE   UPWARD FLUX   DIFDOWN FLUX  DIRDOWN FLUX  DOWNWARD FLUX   NET FLUX    HEATING RATE
          mb          W/m2          W/m2          W/m2        W/m2          W/m2       degree/day
  51    .06700        0.0034        0.0000        5.9117        5.9117       5.908210       0.00000
  50    .07753        0.0034        0.0000        5.9075        5.9075       5.904047       3.33612
  49    .09103        0.0034        0.0000        5.9052        5.9052       5.901758       1.43071
  48    0.1069        0.0034        0.0000        5.9035        5.9035       5.900045       0.91191
  47    0.1255        0.0034        0.0000        5.9019        5.9019       5.898425       0.73438
  46    0.1487        0.0034        0.0000        5.9001        5.9001       5.896690       0.63248
  45    0.1794        0.0034        0.0000        5.8982        5.8982       5.894714       0.54263
  44    0.2165        0.0034        0.0000        5.8962        5.8962       5.892765       0.44317
  43    0.2613        0.0034        0.0000        5.8943        5.8943       5.890816       0.36742
  42    0.3336        0.0034        0.0000        5.8915        5.8915       5.888060       0.32131
  41    0.4307        0.0034        0.0000        5.8881        5.8881       5.884687       0.29332
  40    0.5894        0.0034        0.0000        5.8830        5.8830       5.879581       0.27154
  39     1.339        0.0034        0.0000        5.8641        5.8641       5.860661       0.21300
  38     1.782        0.0034        0.0000        5.8561        5.8561       5.852670       0.15212
  37     2.292        0.0034        0.0000        5.8483        5.8483       5.844884       0.12897
  36     2.964        0.0035        0.0000        3.3799        3.3799       3.376481      30.98591
  35     3.853        0.0035        0.0000        3.0963        3.0963       3.092844       2.69177
  34     5.035        0.0035        0.0000        2.9589        2.9589       2.955389       0.98192
  33     6.613        0.0035        0.0000        2.8774        2.8774       2.873915       0.43556
  32     8.786        0.0035        0.0000        2.8233        2.8233       2.819859       0.20993
  31     11.80        0.0035        0.0000        2.7811        2.7811       2.777659       0.11815
  30     15.07        0.0035        0.0000        2.7524        2.7524       2.748957       0.07410
  29     18.79        0.0035        0.0000        2.7296        2.7296       2.726163       0.05168
  28     23.16        0.0035        0.0000        2.7086        2.7086       2.705138       0.04066
  27     28.12        0.0035        0.0000        2.6895        2.6895       2.686013       0.03251
  26     33.73        0.0035        0.0000        2.6719        2.6719       2.668446       0.02641
  25     40.54        0.0035        0.0000        2.6536        2.6536       2.650133       0.02272
  24     48.69        0.0035        0.0000        2.6324        2.6325       2.629005       0.02186
  23     57.69        0.0035        0.0000        2.6096        2.6096       2.606178       0.02140
  22     68.43        0.0035        0.0000        2.5832        2.5832       2.579799       0.02074
  21     81.20        0.0034        0.0001        2.5528        2.5529       2.549452       0.02005
  20     96.49        0.0034        0.0001        2.5181        2.5182       2.514741       0.01916
  19     114.6        0.0034        0.0001        2.4786        2.4786       2.475216       0.01846
  18     136.5        0.0034        0.0001        2.4346        2.4347       2.431296       0.01689
  17     162.9        0.0034        0.0001        2.3861        2.3862       2.382762       0.01551
  16     196.4        0.0034        0.0001        2.3288        2.3290       2.325566       0.01440
  15     218.7        0.0034        0.0001        2.2942        2.2944       2.290975       0.01313
  14     243.0        0.0034        0.0001        2.2589        2.2590       2.255674       0.01224
  13     269.0        0.0034        0.0002        2.2209        2.2211       2.217728       0.01231
  12     297.5        0.0033        0.0002        2.1730        2.1732       2.169843       0.01420
  11     328.5        0.0033        0.0002        2.1027        2.1029       2.099531       0.01912
  10     361.9        0.0033        0.0002        1.9997        1.9999       1.996595       0.02604
   9     398.1        0.0033        0.0002        1.8612        1.8614       1.858094       0.03227
   8     437.6        0.0033        0.0002        1.6890        1.6892       1.685908       0.03681
   7     480.5        0.0034        0.0002        1.4882        1.4884       1.485013       0.03945
   6     533.0        0.0035        0.0002        1.2348        1.2350       1.231578       0.04077
   5     589.8        0.0036        0.0002        0.9846        0.9848       0.981184       0.03717
   4     651.6        0.0039        0.0002        0.7449        0.7450       0.741117       0.03283
   3     718.7        0.0044        0.0001        0.5261        0.5263       0.521835       0.02756
   2     792.3        0.0054        0.0001        0.3428        0.3429       0.337568       0.02113
   1     891.5        0.0079        0.0001        0.1706        0.1707       0.162816       0.01487
   0    1013.0        0.0158        0.0000        0.0517        0.0517       0.035936       0.00881



 Wavenumbers:  4000. -  4650. cm-1, ATM      1
 LEVEL PRESSURE   UPWARD FLUX   DIFDOWN FLUX  DIRDOWN FLUX  DOWNWARD FLUX   NET FLUX    HEATING RATE
          mb          W/m2          W/m2          W/m2        W/m2          W/m2       degree/day
  51    .06700        1.3533        0.0000        6.9421        6.9421       5.588756       0.00000
  50    .07753        1.3533        0.0000        6.9421        6.9421       5.588755       0.00081
  49    .09103        1.3533        0.0000        6.9421        6.9421       5.588754       0.00079
  48    0.1069        1.3533        0.0000        6.9421        6.9421       5.588753       0.00077
  47    0.1255        1.3533        0.0000        6.9421        6.9421       5.588751       0.00075
  46    0.1487        1.3533        0.0000        6.9421        6.9421       5.588749       0.00077
  45    0.1794        1.3533        0.0000        6.9421        6.9421       5.588746       0.00079
  44    0.2165        1.3533        0.0000        6.9421        6.9421       5.588743       0.00077
  43    0.2613        1.3533        0.0000        6.9421        6.9421       5.588739       0.00075
  42    0.3336        1.3533        0.0000        6.9420        6.9420       5.588732       0.00078
  41    0.4307        1.3533        0.0000        6.9420        6.9420       5.588723       0.00078
  40    0.5894        1.3533        0.0000        6.9420        6.9420       5.588708       0.00080
  39     1.339        1.3533        0.0000        6.9419        6.9419       5.588618       0.00102
  38     1.782        1.3533        0.0000        6.9418        6.9419       5.588547       0.00134
  37     2.292        1.3533        0.0000        6.9418        6.9418       5.588453       0.00157
  36     2.964        1.3533        0.0000        6.9416        6.9416       5.588311       0.00177
  35     3.853        1.3533        0.0000        6.9414        6.9414       5.588102       0.00199
  34     5.035        1.3533        0.0000        6.9411        6.9411       5.587793       0.00221
  33     6.613        1.3533        0.0000        6.9406        6.9406       5.587339       0.00243
  32     8.786        1.3533        0.0000        6.9399        6.9400       5.586670       0.00260
  31     11.80        1.3533        0.0001        6.9388        6.9389       5.585620       0.00294
  30     15.07        1.3533        0.0001        6.9376        6.9377       5.584392       0.00317
  29     18.79        1.3533        0.0001        6.9361        6.9362       5.582911       0.00336
  28     23.16        1.3532        0.0001        6.9342        6.9343       5.581080       0.00354
  27     28.12        1.3532        0.0001        6.9320        6.9321       5.578871       0.00375
  26     33.73        1.3532        0.0001        6.9292        6.9294       5.576159       0.00408
  25     40.54        1.3532        0.0002        6.9255        6.9257       5.572501       0.00454
  24     48.69        1.3532        0.0002        6.9207        6.9208       5.567657       0.00501
  23     57.69        1.3532        0.0002        6.9149        6.9151       5.561950       0.00535
  22     68.43        1.3532        0.0003        6.9078        6.9080       5.554850       0.00558
  21     81.20        1.3532        0.0003        6.8990        6.8993       5.546165       0.00574
  20     96.49        1.3532        0.0004        6.8885        6.8888       5.535664       0.00580
  19     114.6        1.3533        0.0004        6.8607        6.8612       5.507825       0.01300
  18     136.5        1.3535        0.0005        6.8349        6.8354       5.481827       0.01000
  17     162.9        1.3538        0.0006        6.8072        6.8078       5.453944       0.00891
  16     196.4        1.3542        0.0007        6.7731        6.7738       5.419599       0.00864
  15     218.7        1.3545        0.0008        6.7514        6.7523       5.397717       0.00831
  14     243.0        1.3549        0.0009        6.7283        6.7292       5.374346       0.00811
  13     269.0        1.3553        0.0010        6.7032        6.7042       5.348922       0.00825
  12     297.5        1.3558        0.0011        6.6745        6.6756       5.319779       0.00864
  11     328.5        1.3565        0.0012        6.6394        6.6406       5.284065       0.00971
  10     361.9        1.3575        0.0013        6.5947        6.5960       5.238508       0.01153
   9     398.1        1.3589        0.0015        6.5368        6.5383       5.179380       0.01378
   8     437.6        1.3608        0.0016        6.4617        6.4633       5.102465       0.01644
   7     480.5        1.3632        0.0017        6.3671        6.3688       5.005578       0.01903
   6     533.0        1.3669        0.0019        6.2357        6.2376       4.870636       0.02171
   5     589.8        1.3718        0.0020        6.0884        6.0905       4.718625       0.02256
   4     651.6        1.3786        0.0022        5.9223        5.9245       4.545936       0.02362
   3     718.7        1.3879        0.0024        5.7254        5.7278       4.339905       0.02589
   2     792.3        1.4010        0.0025        5.4935        5.4961       4.095028       0.02808
   1     891.5        1.4256        0.0027        5.1765        5.1792       3.753613       0.02905
   0    1013.0        1.4715        0.0029        4.8222        4.8252       3.353651       0.02777



 Wavenumbers:  4650. -  5150. cm-1, ATM      1
 LEVEL PRESSURE   UPWARD FLUX   DIFDOWN FLUX  DIRDOWN FLUX  DOWNWARD FLUX   NET FLUX    HEATING RATE
          mb          W/m2          W/m2          W/m2        W/m2          W/m2       degree/day
  51    .06700        0.9215        0.0000        6.5710        6.5710       5.649492       0.00000
  50    .07753        0.9215        0.0000        6.5708        6.5708       5.649259       0.18709
  49    .09103        0.9215        0.0000        6.5705        6.5705       5.648968       0.18187
  48    0.1069        0.9215        0.0000        6.5701        6.5701       5.648636       0.17635
  47    0.1255        0.9215        0.0000        6.5698        6.5698       5.648260       0.17071
  46    0.1487        0.9215        0.0000        6.5693        6.5693       5.647791       0.17099
  45    0.1794        0.9215        0.0000        6.5687        6.5687       5.647161       0.17300
  44    0.2165        0.9215        0.0000        6.5679        6.5679       5.646430       0.16622
  43    0.2613        0.9215        0.0000        6.5671        6.5671       5.645585       0.15921
  42    0.3336        0.9215        0.0000        6.5657        6.5657       5.644235       0.15739
  41    0.4307        0.9215        0.0000        6.5640        6.5640       5.642525       0.14868
  40    0.5894        0.9215        0.0000        6.5614        6.5614       5.639928       0.13813
  39     1.339        0.9215        0.0000        6.5517        6.5517       5.630222       0.10927
  38     1.782        0.9215        0.0000        6.5475        6.5475       5.626019       0.08003
  37     2.292        0.9215        0.0000        6.5436        6.5436       5.622116       0.06464
  36     2.964        0.9215        0.0000        6.5396        6.5396       5.618112       0.05026
  35     3.853        0.9215        0.0000        6.5355        6.5356       5.614093       0.03814
  34     5.035        0.9215        0.0000        6.5314        6.5315       5.610007       0.02919
  33     6.613        0.9215        0.0000        6.5270        6.5270       5.605539       0.02389
  32     8.786        0.9215        0.0001        6.5214        6.5214       5.599992       0.02154
  31     11.80        0.9214        0.0001        6.5132        6.5133       5.591860       0.02277
  30     15.07        0.9214        0.0001        6.5038        6.5039       5.582443       0.02431
  29     18.79        0.9214        0.0001        6.4922        6.4923       5.570873       0.02623
  28     23.16        0.9214        0.0001        6.4775        6.4776       5.556215       0.02834
  27     28.12        0.9214        0.0002        6.4594        6.4596       5.538205       0.03061
  26     33.73        0.9214        0.0002        6.4380        6.4382       5.516771       0.03223
  25     40.54        0.9214        0.0002        6.4108        6.4111       5.489683       0.03361
  24     48.69        0.9214        0.0003        6.3772        6.3775       5.456111       0.03474
  23     57.69        0.9214        0.0003        6.3401        6.3405       5.419081       0.03471
  22     68.43        0.9214        0.0004        6.2969        6.2973       5.375936       0.03392
  21     81.20        0.9214        0.0005        6.2481        6.2486       5.327115       0.03226
  20     96.49        0.9215        0.0005        6.1946        6.1952       5.273663       0.02950
  19     114.6        0.9217        0.0006        6.1311        6.1317       5.210018       0.02972
  18     136.5        0.9219        0.0008        6.0661        6.0668       5.144926       0.02503
  17     162.9        0.9222        0.0009        5.9978        5.9987       5.076484       0.02188
  16     196.4        0.9227        0.0011        5.9166        5.9177       4.994938       0.02053
  15     218.7        0.9231        0.0012        5.8649        5.8660       4.942927       0.01975
  14     243.0        0.9235        0.0013        5.8086        5.8099       4.886374       0.01961
  13     269.0        0.9240        0.0014        5.7469        5.7483       4.824260       0.02015
  12     297.5        0.9247        0.0015        5.6775        5.6791       4.754390       0.02072
  11     328.5        0.9255        0.0017        5.5980        5.5997       4.674182       0.02181
  10     361.9        0.9267        0.0018        5.5050        5.5068       4.580114       0.02380
   9     398.1        0.9283        0.0020        5.3968        5.3988       4.470505       0.02554
   8     437.6        0.9304        0.0022        5.2726        5.2748       4.344401       0.02696
   7     480.5        0.9332        0.0023        5.1299        5.1322       4.199027       0.02855
   6     533.0        0.9375        0.0025        4.9430        4.9455       4.008005       0.03073
   5     589.8        0.9434        0.0027        4.7367        4.7393       3.795951       0.03148
   4     651.6        0.9514        0.0028        4.5163        4.5192       3.567795       0.03120
   3     718.7        0.9621        0.0030        4.2885        4.2915       3.329353       0.02997
   2     792.3        0.9769        0.0032        4.0541        4.0573       3.080333       0.02856
   1     891.5        1.0032        0.0033        3.7600        3.7633       2.760116       0.02725
   0    1013.0        1.0484        0.0035        3.4344        3.4380       2.389577       0.02573



 Wavenumbers:  5150. -  6150. cm-1, ATM      1
 LEVEL PRESSURE   UPWARD FLUX   DIFDOWN FLUX  DIRDOWN FLUX  DOWNWARD FLUX   NET FLUX    HEATING RATE
          mb          W/m2          W/m2          W/m2        W/m2          W/m2       degree/day
  51    .06700        2.3845        0.0000       16.4735       16.4735      14.088999       0.00000
  50    .07753        2.3845        0.0000       16.4735       16.4735      14.088999       0.00019
  49    .09103        2.3845        0.0000       16.4735       16.4735      14.088999       0.00018
  48    0.1069        2.3845        0.0000       16.4735       16.4735      14.088998       0.00018
  47    0.1255        2.3845        0.0000       16.4735       16.4735      14.088998       0.00018
  46    0.1487        2.3845        0.0000       16.4735       16.4735      14.088998       0.00018
  45    0.1794        2.3845        0.0000       16.4735       16.4735      14.088997       0.00018
  44    0.2165        2.3845        0.0000       16.4735       16.4735      14.088996       0.00018
  43    0.2613        2.3845        0.0000       16.4735       16.4735      14.088995       0.00018
  42    0.3336        2.3845        0.0000       16.4735       16.4735      14.088994       0.00018
  41    0.4307        2.3845        0.0000       16.4735       16.4735      14.088992       0.00018
  40    0.5894        2.3845        0.0000       16.4735       16.4735      14.088988       0.00019
  39     1.339        2.3845        0.0000       16.4734       16.4734      14.088967       0.00024
  38     1.782        2.3845        0.0000       16.4734       16.4734      14.088950       0.00032
  37     2.292        2.3845        0.0001       16.4733       16.4734      14.088928       0.00037
  36     2.964        2.3855        0.0001       14.3106       14.3107      11.925195      27.16138
  35     3.853        2.3860        0.0001       13.9856       13.9857      11.599704       3.08897
  34     5.035        2.3863        0.0001       13.8273       13.8274      11.441095       1.13304
  33     6.613        2.3866        0.0002       13.7344       13.7346      11.348032       0.49751
  32     8.786        2.3867        0.0002       13.6735       13.6737      11.287009       0.23699
  31     11.80        2.3868        0.0003       13.6264       13.6267      11.239864       0.13199
  30     15.07        2.3869        0.0004       13.5947       13.5951      11.208194       0.08177
  29     18.79        2.3869        0.0005       13.5699       13.5703      11.183407       0.05620
  28     23.16        2.3869        0.0005       13.5473       13.5479      11.160929       0.04347
  27     28.12        2.3870        0.0007       13.5272       13.5279      11.140920       0.03401
  26     33.73        2.3870        0.0008       13.5091       13.5099      11.122944       0.02703
  25     40.54        2.3870        0.0009       13.4906       13.4915      11.104536       0.02284
  24     48.69        2.3870        0.0011       13.4693       13.4704      11.083353       0.02192
  23     57.69        2.3871        0.0013       13.4459       13.4472      11.060172       0.02173
  22     68.43        2.3871        0.0015       13.4184       13.4199      11.032801       0.02152
  21     81.20        2.3872        0.0018       13.3861       13.3879      11.000721       0.02120
  20     96.49        2.3873        0.0021       13.3488       13.3509      10.963568       0.02051
  19     114.6        2.3875        0.0025       13.3061       13.3086      10.921139       0.01981
  18     136.5        2.3877        0.0030       13.2587       13.2616      10.873995       0.01813
  17     162.9        2.3878        0.0035       13.2077       13.2112      10.823411       0.01617
  16     196.4        2.3880        0.0042       13.1503       13.1545      10.766572       0.01431
  15     218.7        2.3880        0.0047       13.1176       13.1223      10.734273       0.01226
  14     243.0        2.3880        0.0052       13.0838       13.0890      10.700967       0.01155
  13     269.0        2.3881        0.0058       13.0463       13.0520      10.663992       0.01199
  12     297.5        2.3881        0.0064       12.9960       13.0023      10.614243       0.01475
  11     328.5        2.3882        0.0070       12.9155       12.9225      10.534270       0.02174
  10     361.9        2.3884        0.0076       12.7816       12.7892      10.400773       0.03378
   9     398.1        2.3888        0.0083       12.5700       12.5783      10.189455       0.04923
   8     437.6        2.3895        0.0090       12.2566       12.2656       9.876048       0.06701
   7     480.5        2.3907        0.0096       11.8287       11.8383       9.447650       0.08414
   6     533.0        2.3929        0.0102       11.2227       11.2329       8.840036       0.09775
   5     589.8        2.3964        0.0108       10.6015       10.6123       8.215898       0.09264
   4     651.6        2.4021        0.0113       10.0421       10.0535       7.651344       0.07720
   3     718.7        2.4113        0.0119        9.5750        9.5869       7.175633       0.05978
   2     792.3        2.4259        0.0126        9.1852        9.1978       6.771998       0.04629
   1     891.5        2.4563        0.0136        8.7515        8.7650       6.308716       0.03942
   0    1013.0        2.5204        0.0147        8.2515        8.2662       5.745786       0.03909



 Wavenumbers:  6150. -  7700. cm-1, ATM      1
 LEVEL PRESSURE   UPWARD FLUX   DIFDOWN FLUX  DIRDOWN FLUX  DOWNWARD FLUX   NET FLUX    HEATING RATE
          mb          W/m2          W/m2          W/m2        W/m2          W/m2       degree/day
  51    .06700        3.7872        0.0000       30.4684       30.4684      26.681202       0.00000
  50    .07753        3.7872        0.0000       30.4684       30.4684      26.681186       0.01303
  49    .09103        3.7872        0.0000       30.4683       30.4683      26.681166       0.01277
  48    0.1069        3.7872        0.0000       30.4683       30.4683      26.681142       0.01250
  47    0.1255        3.7872        0.0000       30.4683       30.4683      26.681115       0.01223
  46    0.1487        3.7872        0.0000       30.4682       30.4683      26.681081       0.01241
  45    0.1794        3.7872        0.0000       30.4682       30.4682      26.681035       0.01276
  44    0.2165        3.7872        0.0000       30.4681       30.4681      26.680980       0.01252
  43    0.2613        3.7872        0.0000       30.4681       30.4681      26.680915       0.01228
  42    0.3336        3.7872        0.0000       30.4679       30.4680      26.680807       0.01256
  41    0.4307        3.7871        0.0000       30.4678       30.4678      26.680664       0.01241
  40    0.5894        3.7871        0.0001       30.4675       30.4676      26.680431       0.01239
  39     1.339        3.7871        0.0001       30.4662       30.4664      26.679332       0.01238
  38     1.782        3.7870        0.0002       30.4655       30.4657      26.678687       0.01227
  37     2.292        3.7870        0.0002       30.4647       30.4649      26.677942       0.01234
  36     2.964        3.7880        0.0004       26.9193       26.9197      23.131719      44.51581
  35     3.853        3.7885        0.0005       26.4194       26.4198      22.631307       4.74901
  34     5.035        3.7888        0.0006       26.1760       26.1766      22.387772       1.73971
  33     6.613        3.7890        0.0008       26.0356       26.0363      22.247382       0.75053
  32     8.786        3.7890        0.0010       25.9453       25.9463      22.157306       0.34982
  31     11.80        3.7888        0.0013       25.8768       25.8781      22.089249       0.19054
  30     15.07        3.7887        0.0016       25.8316       25.8332      22.044540       0.11543
  29     18.79        3.7884        0.0019       25.7967       25.7987      22.010248       0.07775
  28     23.16        3.7881        0.0023       25.7655       25.7678      21.979685       0.05910
  27     28.12        3.7878        0.0028       25.7380       25.7408      21.953011       0.04534
  26     33.73        3.7874        0.0033       25.7137       25.7171      21.929697       0.03505
  25     40.54        3.7869        0.0040       25.6896       25.6935      21.906662       0.02858
  24     48.69        3.7863        0.0047       25.6625       25.6672      21.880953       0.02660
  23     57.69        3.7856        0.0056       25.6335       25.6390      21.853444       0.02579
  22     68.43        3.7848        0.0066       25.5997       25.6063      21.821488       0.02512
  21     81.20        3.7838        0.0078       25.5604       25.5682      21.784359       0.02453
  20     96.49        3.7827        0.0092       25.5148       25.5240      21.741301       0.02376
  19     114.6        3.7813        0.0109       25.4614       25.4723      21.690996       0.02349
  18     136.5        3.7797        0.0129       25.3999       25.4128      21.633118       0.02226
  17     162.9        3.7778        0.0153       25.3289       25.3442      21.566389       0.02133
  16     196.4        3.7753        0.0184       25.2398       25.2582      21.482870       0.02102
  15     218.7        3.7737        0.0204       25.1829       25.2033      21.429625       0.02022
  14     243.0        3.7719        0.0226       25.1223       25.1449      21.372950       0.01966
  13     269.0        3.7700        0.0250       25.0538       25.0788      21.308798       0.02081
  12     297.5        3.7680        0.0275       24.9617       24.9892      21.221203       0.02598
  11     328.5        3.7659        0.0302       24.8136       24.8438      21.077872       0.03897
  10     361.9        3.7640        0.0331       24.5669       24.5999      20.835946       0.06121
   9     398.1        3.7623        0.0360       24.1746       24.2106      20.448268       0.09032
   8     437.6        3.7613        0.0389       23.5872       23.6260      19.864738       0.12476
   7     480.5        3.7613        0.0415       22.7613       22.8029      19.041586       0.16166
   6     533.0        3.7637        0.0442       21.5249       21.5691      17.805435       0.19886
   5     589.8        3.7698        0.0465       20.1472       20.1937      16.423897       0.20507
   4     651.6        3.7818        0.0484       18.7647       18.8131      15.031379       0.19043
   3     718.7        3.8027        0.0501       17.4377       17.4878      13.685096       0.16919
   2     792.3        3.8381        0.0517       16.1792       16.2309      12.392753       0.14822
   1     891.5        3.9143        0.0536       14.7468       14.8004      10.886026       0.12822
   0    1013.0        4.0786        0.0557       13.3266       13.3823       9.303700       0.10987



 Wavenumbers:  7700. -  8050. cm-1, ATM      1
 LEVEL PRESSURE   UPWARD FLUX   DIFDOWN FLUX  DIRDOWN FLUX  DOWNWARD FLUX   NET FLUX    HEATING RATE
          mb          W/m2          W/m2          W/m2        W/m2          W/m2       degree/day
  51    .06700        1.7165        0.0000        7.2006        7.2006       5.484062       0.00000
  50    .07753        1.7165        0.0000        7.2006        7.2006       5.484044       0.01512
  49    .09103        1.7165        0.0000        7.2005        7.2005       5.484020       0.01481
  48    0.1069        1.7165        0.0000        7.2005        7.2005       5.483993       0.01450
  47    0.1255        1.7165        0.0000        7.2005        7.2005       5.483961       0.01419
  46    0.1487        1.7165        0.0000        7.2004        7.2005       5.483922       0.01440
  45    0.1794        1.7165        0.0000        7.2004        7.2004       5.483868       0.01482
  44    0.2165        1.7165        0.0000        7.2003        7.2003       5.483804       0.01453
  43    0.2613        1.7165        0.0000        7.2003        7.2003       5.483728       0.01426
  42    0.3336        1.7165        0.0000        7.2001        7.2001       5.483603       0.01459
  41    0.4307        1.7165        0.0000        7.2000        7.2000       5.483437       0.01443
  40    0.5894        1.7166        0.0000        7.1997        7.1997       5.483166       0.01441
  39     1.339        1.7166        0.0001        7.1984        7.1985       5.481884       0.01443
  38     1.782        1.7166        0.0001        7.1977        7.1978       5.481132       0.01433
  37     2.292        1.7167        0.0001        7.1968        7.1969       5.480261       0.01443
  36     2.964        1.7167        0.0002        7.1956        7.1958       5.479117       0.01435
  35     3.853        1.7167        0.0002        7.1941        7.1943       5.477608       0.01432
  34     5.035        1.7168        0.0003        7.1921        7.1924       5.475604       0.01431
  33     6.613        1.7169        0.0004        7.1895        7.1898       5.472931       0.01429
  32     8.786        1.7170        0.0005        7.1859        7.1864       5.469333       0.01397
  31     11.80        1.7172        0.0006        7.1808        7.1814       5.464198       0.01438
  30     15.07        1.7175        0.0007        7.1754        7.1762       5.458700       0.01419
  29     18.79        1.7177        0.0009        7.1693        7.1702       5.452510       0.01404
  28     23.16        1.7180        0.0011        7.1622        7.1633       5.445307       0.01393
  27     28.12        1.7183        0.0013        7.1541        7.1554       5.437107       0.01394
  26     33.73        1.7187        0.0016        7.1451        7.1467       5.427978       0.01373
  25     40.54        1.7191        0.0019        7.1343        7.1361       5.417015       0.01360
  24     48.69        1.7197        0.0022        7.1213        7.1236       5.403897       0.01358
  23     57.69        1.7203        0.0026        7.1073        7.1099       5.389610       0.01339
  22     68.43        1.7210        0.0031        7.0907        7.0938       5.372761       0.01325
  21     81.20        1.7219        0.0037        7.0711        7.0748       5.352920       0.01311
  20     96.49        1.7229        0.0043        7.0482        7.0525       5.329600       0.01287
  19     114.6        1.7242        0.0051        7.0213        7.0264       5.302203       0.01279
  18     136.5        1.7258        0.0060        6.9901        6.9961       5.270356       0.01225
  17     162.9        1.7276        0.0071        6.9537        6.9609       5.233259       0.01186
  16     196.4        1.7301        0.0086        6.9079        6.9165       5.186355       0.01181
  15     218.7        1.7318        0.0095        6.8785        6.8880       5.156263       0.01142
  14     243.0        1.7336        0.0105        6.8472        6.8577       5.124127       0.01115
  13     269.0        1.7356        0.0116        6.8139        6.8256       5.089923       0.01110
  12     297.5        1.7379        0.0128        6.7786        6.7914       5.053560       0.01078
  11     328.5        1.7404        0.0141        6.7412        6.7553       5.014904       0.01051
  10     361.9        1.7431        0.0154        6.7016        6.7170       4.973897       0.01038
   9     398.1        1.7462        0.0169        6.6596        6.6765       4.930307       0.01016
   8     437.6        1.7496        0.0184        6.6150        6.6335       4.883855       0.00993
   7     480.5        1.7535        0.0201        6.5675        6.5876       4.834082       0.00978
   6     533.0        1.7586        0.0221        6.5088        6.5309       4.772338       0.00993
   5     589.8        1.7646        0.0243        6.4452        6.4695       4.704994       0.01000
   4     651.6        1.7715        0.0266        6.3760        6.4027       4.631167       0.01010
   3     718.7        1.7797        0.0291        6.3002        6.3293       4.549593       0.01025
   2     792.3        1.7894        0.0317        6.2167        6.2484       4.458996       0.01039
   1     891.5        1.8042        0.0352        6.0996        6.1348       4.330660       0.01092
   0    1013.0        1.8249        0.0393        5.9510        5.9903       4.165401       0.01147



 Wavenumbers:  8050. - 12850. cm-1, ATM      1
 LEVEL PRESSURE   UPWARD FLUX   DIFDOWN FLUX  DIRDOWN FLUX  DOWNWARD FLUX   NET FLUX    HEATING RATE
          mb          W/m2          W/m2          W/m2        W/m2          W/m2       degree/day
  51    .06700       24.1170        0.0000      100.8135      100.8135      76.696503       0.00000
  50    .07753       24.1170        0.0000      100.8135      100.8135      76.696503       0.00000
  49    .09103       24.1170        0.0001      100.8134      100.8135      76.696503       0.00000
  48    0.1069       24.1169        0.0001      100.8134      100.8134      76.696503       0.00000
  47    0.1255       24.1169        0.0001      100.8133      100.8134      76.696503       0.00000
  46    0.1487       24.1169        0.0002      100.8132      100.8134      76.696503       0.00000
  45    0.1794       24.1168        0.0002      100.8131      100.8133      76.696503      -0.00000
  44    0.2165       24.1167        0.0003      100.8129      100.8133      76.696503       0.00000
  43    0.2613       24.1167        0.0004      100.8127      100.8132      76.696503       0.00000
  42    0.3336       24.1165        0.0006      100.8125      100.8130      76.696503       0.00000
  41    0.4307       24.1164        0.0008      100.8121      100.8129      76.696503       0.00000
  40    0.5894       24.1161        0.0011      100.8115      100.8126      76.696503       0.00000
  39     1.339       24.1148        0.0028      100.8085      100.8113      76.696503      -0.00000
  38     1.782       24.1140        0.0038      100.8068      100.8105      76.696503       0.00000
  37     2.292       24.1131        0.0049      100.8047      100.8096      76.696503      -0.00000
  36     2.964       24.1104        0.0083      100.7986      100.8069      76.696503       0.00000
  35     3.853       24.1082        0.0110      100.7938      100.8047      76.696503       0.00000
  34     5.035       24.1059        0.0139      100.7885      100.8024      76.696503      -0.00000
  33     6.613       24.1030        0.0175      100.7820      100.7995      76.696503       0.00000
  32     8.786       24.0992        0.0223      100.7734      100.7957      76.696503      -0.00000
  31     11.80       24.0938        0.0290      100.7613      100.7903      76.696503       0.00000
  30     15.07       24.0881        0.0362      100.7484      100.7846      76.696503       0.00000
  29     18.79       24.0816        0.0443      100.7338      100.7781      76.696503      -0.00000
  28     23.16       24.0740        0.0538      100.7167      100.7705      76.696503       0.00000
  27     28.12       24.0653        0.0646      100.6972      100.7618      76.696503       0.00000
  26     33.73       24.0556        0.0767      100.6754      100.7521      76.696503      -0.00000
  25     40.54       24.0439        0.0914      100.6490      100.7404      76.696503       0.00000
  24     48.69       24.0297        0.1091      100.6171      100.7262      76.696503       0.00000
  23     57.69       24.0141        0.1286      100.5820      100.7106      76.696503       0.00000
  22     68.43       23.9955        0.1519      100.5401      100.6920      76.696503      -0.00000
  21     81.20       23.9733        0.1796      100.4902      100.6698      76.696503       0.00000
  20     96.49       23.9468        0.2127      100.4306      100.6433      76.696503       0.00000
  19     114.6       23.9184        0.2517      100.0821      100.3339      76.415468       0.13122
  18     136.5       23.8839        0.2981       99.7935      100.0915      76.207627       0.07992
  17     162.9       23.8418        0.3534       99.5287       99.8820      76.040216       0.05351
  16     196.4       23.7858        0.4252       99.2461       99.6713      75.885525       0.03894
  15     218.7       23.7484        0.4725       99.0817       99.5541      75.805726       0.03030
  14     243.0       23.7076        0.5239       98.9138       99.4377      75.730079       0.02624
  13     269.0       23.6632        0.5797       98.7350       99.3147      75.651481       0.02550
  12     297.5       23.6154        0.6400       98.5258       99.1658      75.550391       0.02998
  11     328.5       23.5641        0.7052       98.2507       98.9559      75.391767       0.04313
  10     361.9       23.5098        0.7751       97.8699       98.6451      75.135224       0.06491
   9     398.1       23.4530        0.8499       97.3399       98.1898      74.736817       0.09282
   8     437.6       23.3946        0.9295       96.6104       97.5399      74.145263       0.12648
   7     480.5       23.3366        1.0134       95.6232       96.6365      73.299923       0.16602
   6     533.0       23.2747        1.1140       94.1041       95.2181      71.943369       0.21823
   5     589.8       23.2223        1.2191       92.2033       93.4224      70.200111       0.25876
   4     651.6       23.1864        1.3281       89.9679       91.2960      68.109680       0.28587
   3     718.7       23.1779        1.4404       87.4464       88.8868      65.708905       0.30171
   2     792.3       23.2152        1.5551       84.6649       86.2200      63.004807       0.31013
   1     891.5       23.3634        1.7015       80.8921       82.5936      59.230237       0.32120
   0    1013.0       23.7656        1.8643       76.3874       78.2518      54.486210       0.32940



 Wavenumbers: 12850. - 16000. cm-1, ATM      1
 LEVEL PRESSURE   UPWARD FLUX   DIFDOWN FLUX  DIRDOWN FLUX  DOWNWARD FLUX   NET FLUX    HEATING RATE
          mb          W/m2          W/m2          W/m2        W/m2          W/m2       degree/day
  51    .06700       32.3448        0.0000       63.1686       63.1686      30.823755       0.00000
  50    .07753       32.3448        0.0001       63.1677       63.1678      30.822976       0.62451
  49    .09103       32.3448        0.0001       63.1666       63.1668      30.822005       0.60680
  48    0.1069       32.3447        0.0002       63.1654       63.1656      30.820900       0.58830
  47    0.1255       32.3447        0.0003       63.1640       63.1643      30.819643       0.56974
  46    0.1487       32.3446        0.0004       63.1623       63.1627      30.818076       0.57112
  45    0.1794       32.3446        0.0006       63.1600       63.1606      30.815976       0.57664
  44    0.2165       32.3445        0.0008       63.1573       63.1581      30.813547       0.55252
  43    0.2613       32.3445        0.0010       63.1542       63.1552      30.810747       0.52786
  42    0.3336       32.3444        0.0014       63.1493       63.1507      30.806286       0.52011
  41    0.4307       32.3443        0.0019       63.1431       63.1450      30.800697       0.48590
  40    0.5894       32.3443        0.0027       63.1338       63.1365      30.792239       0.44980
  39     1.339       32.3452        0.0065       63.0955       63.1020      30.756789       0.39910
  38     1.782       32.3467        0.0087       63.0739       63.0827      30.735950       0.39674
  37     2.292       32.3493        0.0113       63.0474       63.0588      30.709512       0.43787
  36     2.964       32.3510        0.0193       63.0017       63.0210      30.669962       0.49648
  35     3.853       32.3579        0.0255       62.9424       62.9679      30.610032       0.56875
  34     5.035       32.3697        0.0323       62.8601       62.8924      30.522687       0.62395
  33     6.613       32.3869        0.0406       62.7488       62.7895      30.402608       0.64195
  32     8.786       32.4092        0.0516       62.6045       62.6561      30.246830       0.60499
  31     11.80       32.4378        0.0670       62.4142       62.4812      30.043353       0.56967
  30     15.07       32.4645        0.0834       62.2282       62.3116      29.847146       0.50657
  29     18.79       32.4909        0.1019       62.0347       62.1366      29.645693       0.45676
  28     23.16       32.5175        0.1234       61.8277       61.9511      29.433631       0.41006
  27     28.12       32.5429        0.1479       61.6130       61.7609      29.217999       0.36656
  26     33.73       32.5642        0.1753       61.4028       61.5781      29.013892       0.30688
  25     40.54       32.5817        0.2083       61.1834       61.3918      28.810060       0.25288
  24     48.69       32.5948        0.2481       60.9531       61.2012      28.606423       0.21073
  23     57.69       32.6014        0.2917       60.7330       61.0247      28.423246       0.17170
  22     68.43       32.6009        0.3435       60.5055       60.8490      28.248053       0.13772
  21     81.20       32.5888        0.4053       60.2792       60.6844      28.095606       0.10073
  20     96.49       32.5638        0.4788       60.0497       60.5285      27.964694       0.07225
  19     114.6       32.5337        0.5665       59.7886       60.3551      27.821446       0.06689
  18     136.5       32.4934        0.6703       59.4920       60.1623      27.668932       0.05865
  17     162.9       32.4413        0.7936       59.1492       59.9428      27.501524       0.05351
  16     196.4       32.3647        0.9529       58.7291       59.6820      27.317237       0.04639
  15     218.7       32.3113        1.0572       58.4625       59.5197      27.208470       0.04129
  14     243.0       32.2517        1.1704       58.1774       59.3478      27.096107       0.03897
  13     269.0       32.1856        1.2927       57.8741       59.1668      26.981241       0.03726
  12     297.5       32.1128        1.4246       57.5514       58.9760      26.863121       0.03503
  11     328.5       32.0338        1.5667       57.2049       58.7716      26.737749       0.03409
  10     361.9       31.9487        1.7192       56.8324       58.5516      26.602876       0.03412
   9     398.1       31.8574        1.8829       56.4304       58.3132      26.455831       0.03426
   8     437.6       31.7604        2.0580       55.9937       58.0517      26.291293       0.03518
   7     480.5       31.6585        2.2449       55.5165       57.7614      26.102887       0.03700
   6     533.0       31.5376        2.4737       54.9087       57.3824      25.844816       0.04152
   5     589.8       31.4142        2.7185       54.2288       56.9473      25.533084       0.04627
   4     651.6       31.2915        2.9793       53.4708       56.4501      25.158592       0.05121
   3     718.7       31.1741        3.2560       52.6276       55.8836      24.709554       0.05643
   2     792.3       31.0690        3.5479       51.6934       55.2413      24.172277       0.06162
   1     891.5       30.9668        3.9338       50.4015       54.3353      23.368501       0.06840
   0    1013.0       30.9158        4.3837       48.8270       53.2107      22.294906       0.07455



 Wavenumbers: 16000. - 22650. cm-1, ATM      1
 LEVEL PRESSURE   UPWARD FLUX   DIFDOWN FLUX  DIRDOWN FLUX  DOWNWARD FLUX   NET FLUX    HEATING RATE
          mb          W/m2          W/m2          W/m2        W/m2          W/m2       degree/day
  51    .06700       73.9059        0.0000      100.7153      100.7153      26.809381       0.00000
  50    .07753       73.9058        0.0003      100.7147      100.7151      26.809265       0.09340
  49    .09103       73.9056        0.0007      100.7140      100.7147      26.809095       0.10594
  48    0.1069       73.9055        0.0012      100.7131      100.7143      26.808868       0.12080
  47    0.1255       73.9053        0.0017      100.7121      100.7138      26.808565       0.13770
  46    0.1487       73.9051        0.0024      100.7108      100.7132      26.808117       0.16317
  45    0.1794       73.9048        0.0033      100.7089      100.7122      26.807417       0.19212
  44    0.2165       73.9045        0.0044      100.7066      100.7110      26.806468       0.21592
  43    0.2613       73.9042        0.0057      100.7037      100.7094      26.805180       0.24274
  42    0.3336       73.9039        0.0079      100.6987      100.7066      26.802732       0.28546
  41    0.4307       73.9035        0.0107      100.6918      100.7025      26.799041       0.32088
  40    0.5894       73.9032        0.0154      100.6797      100.6952      26.792003       0.37427
  39     1.339       73.9070        0.0375      100.6095      100.6470      26.740016       0.58528
  38     1.782       73.9131        0.0504      100.5585      100.6089      26.695742       0.84289
  37     2.292       73.9240        0.0654      100.4903      100.5557      26.631677       1.06109
  36     2.964       73.9307        0.1113      100.3474      100.4587      26.527949       1.30210
  35     3.853       73.9601        0.1470      100.1765      100.3236      26.363500       1.56065
  34     5.035       74.0111        0.1861       99.9434      100.1295      26.118439       1.75062
  33     6.613       74.0852        0.2344       99.6293       99.8636      25.778418       1.81776
  32     8.786       74.1820        0.2973       99.2217       99.5189      25.336905       1.71467
  31     11.80       74.3057        0.3858       98.6823       99.0681      24.762435       1.60834
  30     15.07       74.4208        0.4802       98.1522       98.6323      24.211521       1.42235
  29     18.79       74.5349        0.5862       97.5974       98.1835      23.648640       1.27622
  28     23.16       74.6497        0.7094       96.9994       97.7088      23.059135       1.13991
  27     28.12       74.7594        0.8497       96.3730       97.2227      22.463335       1.01282
  26     33.73       74.8510        1.0061       95.7505       96.7567      21.905631       0.83852
  25     40.54       74.9259        1.1944       95.0878       96.2822      21.356328       0.68147
  24     48.69       74.9813        1.4205       94.3752       95.7958      20.814470       0.56074
  23     57.69       75.0086        1.6679       93.6752       95.3431      20.334435       0.44996
  22     68.43       75.0051        1.9612       92.9293       94.8905      19.885408       0.35300
  21     81.20       74.9516        2.3093       92.1575       94.4668      19.515275       0.24458
  20     96.49       74.8422        2.7221       91.3459       94.0680      19.225824       0.15976
  19     114.6       74.6901        3.2089       90.4417       93.6506      18.960535       0.12387
  18     136.5       74.4953        3.7809       89.4149       93.1958      18.700562       0.09997
  17     162.9       74.2508        4.4551       88.2370       92.6921      18.441308       0.08287
  16     196.4       73.9059        5.3193       86.7958       92.1151      18.209211       0.05842
  15     218.7       73.6699        5.8805       85.8848       91.7653      18.095451       0.04319
  14     243.0       73.4098        6.4849       84.9154       91.4002      17.990437       0.03642
  13     269.0       73.1244        7.1333       83.8872       91.0205      17.896139       0.03059
  12     297.5       72.8131        7.8266       82.7995       90.6261      17.813043       0.02465
  11     328.5       72.4768        8.5671       81.6429       90.2100      17.733232       0.02170
  10     361.9       72.1155        9.3544       80.4179       89.7723      17.656830       0.01933
   9     398.1       71.7281       10.1905       79.1210       89.3115      17.583380       0.01711
   8     437.6       71.3148       11.0754       77.7504       88.8258      17.510982       0.01548
   7     480.5       70.8752       12.0095       76.3050       88.3145      17.439357       0.01407
   6     533.0       70.3398       13.1392       74.5563       87.6954      17.355591       0.01348
   5     589.8       69.7710       14.3323       72.7054       87.0377      17.266724       0.01319
   4     651.6       69.1697       15.5871       70.7527       86.3398      17.170088       0.01322
   3     718.7       68.5369       16.9015       68.6981       85.5996      17.062709       0.01349
   2     792.3       67.8754       18.2710       66.5452       84.8162      16.940815       0.01398
   1     891.5       67.0106       20.0576       63.7127       83.7702      16.759588       0.01542
   0    1013.0       66.0174       22.1094       60.4199       82.5293      16.511815       0.01720



 Wavenumbers: 22650. - 29000. cm-1, ATM      1
 LEVEL PRESSURE   UPWARD FLUX   DIFDOWN FLUX  DIRDOWN FLUX  DOWNWARD FLUX   NET FLUX    HEATING RATE
          mb          W/m2          W/m2          W/m2        W/m2          W/m2       degree/day
  51    .06700       32.0556        0.0000       38.0063       38.0063       5.950663       0.00000
  50    .07753       32.0555        0.0004       38.0057       38.0061       5.950663      -0.00000
  49    .09103       32.0552        0.0009       38.0050       38.0059       5.950663       0.00000
  48    0.1069       32.0550        0.0014       38.0042       38.0056       5.950663      -0.00000
  47    0.1255       32.0547        0.0020       38.0033       38.0054       5.950663      -0.00000
  46    0.1487       32.0543        0.0028       38.0022       38.0050       5.950663       0.00000
  45    0.1794       32.0538        0.0039       38.0006       38.0045       5.950663      -0.00000
  44    0.2165       32.0532        0.0052       37.9987       38.0039       5.950663       0.00000
  43    0.2613       32.0525        0.0067       37.9965       38.0032       5.950663      -0.00000
  42    0.3336       32.0514        0.0092       37.9928       38.0021       5.950663       0.00000
  41    0.4307       32.0499        0.0125       37.9880       38.0005       5.950663       0.00000
  40    0.5894       32.0474        0.0180       37.9800       37.9980       5.950663      -0.00000
  39     1.339       32.0355        0.0437       37.9425       37.9862       5.950663      -0.00000
  38     1.782       32.0286        0.0588       37.9204       37.9793       5.950663       0.00000
  37     2.292       32.0206        0.0763       37.8949       37.9712       5.950663       0.00000
  36     2.964       31.9960        0.1298       37.8168       37.9467       5.950663      -0.00000
  35     3.853       31.9768        0.1715       37.7560       37.9275       5.950663       0.00000
  34     5.035       31.9559        0.2171       37.6894       37.9065       5.950663       0.00000
  33     6.613       31.9300        0.2734       37.6072       37.8806       5.950663       0.00000
  32     8.786       31.8962        0.3470       37.4999       37.8468       5.950663       0.00000
  31     11.80       31.8485        0.4505       37.3486       37.7991       5.950663       0.00000
  30     15.07       31.7977        0.5608       37.1875       37.7483       5.950663       0.00000
  29     18.79       31.7406        0.6847       37.0065       37.6912       5.950663       0.00000
  28     23.16       31.6742        0.8285       36.7963       37.6249       5.950663      -0.00000
  27     28.12       31.5987        0.9920       36.5574       37.5493       5.950663       0.00000
  26     33.73       31.5147        1.1736       36.2917       37.4653       5.950663      -0.00000
  25     40.54       31.4138        1.3913       35.9731       37.3645       5.950663       0.00000
  24     48.69       31.2932        1.6513       35.5925       37.2438       5.950663      -0.00000
  23     57.69       31.1619        1.9337       35.1788       37.1125       5.950663       0.00000
  22     68.43       31.0071        2.2658       34.6920       36.9578       5.950663       0.00000
  21     81.20       30.8250        2.6553       34.1204       36.7757       5.950663      -0.00000
  20     96.49       30.6114        3.1107       33.4513       36.5621       5.950663       0.00000
  19     114.6       30.3624        3.6394       32.6736       36.3130       5.950663       0.00000
  18     136.5       30.0735        4.2495       31.7748       36.0242       5.950663      -0.00000
  17     162.9       29.7384        4.9529       30.7362       35.6891       5.950663      -0.00000
  16     196.4       29.3175        5.8292       29.4390       35.2681       5.950663       0.00000
  15     218.7       29.0493        6.3831       28.6168       35.0000       5.950663      -0.00000
  14     243.0       28.7649        6.9667       27.7489       34.7155       5.950663       0.00000
  13     269.0       28.4647        7.5778       26.8376       34.4154       5.950663       0.00000
  12     297.5       28.1495        8.2143       25.8859       34.1002       5.950663      -0.00000
  11     328.5       27.8190        8.8753       24.8943       33.7696       5.950663      -0.00000
  10     361.9       27.4745        9.5571       23.8680       33.4251       5.950663       0.00000
   9     398.1       27.1162       10.2577       22.8091       33.0668       5.950663      -0.00000
   8     437.6       26.7455       10.9728       21.7234       32.6962       5.950663       0.00000
   7     480.5       26.3632       11.6992       20.6147       32.3139       5.950663       0.00000
   6     533.0       25.9132       12.5387       19.3251       31.8638       5.950663       0.00000
   5     589.8       25.4516       13.3802       18.0221       31.4023       5.950663       0.00000
   4     651.6       24.9806       14.2168       16.7145       30.9313       5.950663       0.00000
   3     718.7       24.5021       15.0417       15.4111       30.4527       5.950663       0.00000
   2     792.3       24.0191       15.8452       14.1246       29.9697       5.950663      -0.00000
   1     891.5       23.4110       16.8103       12.5514       29.3617       5.950663       0.00000
   0    1013.0       22.7396       17.8075       10.8828       28.6903       5.950663      -0.00000



 Wavenumbers: 29000. - 38000. cm-1, ATM      1
 LEVEL PRESSURE   UPWARD FLUX   DIFDOWN FLUX  DIRDOWN FLUX  DOWNWARD FLUX   NET FLUX    HEATING RATE
          mb          W/m2          W/m2          W/m2        W/m2          W/m2       degree/day
  51    .06700        4.7027        0.0000       13.4026       13.4026       8.699865       0.00000
  50    .07753        4.7025        0.0003       13.3983       13.3986       8.696075       3.03825
  49    .09103        4.7022        0.0007       13.3921       13.3928       8.690567       3.44266
  48    0.1069        4.7019        0.0011       13.3841       13.3851       8.683203       3.91980
  47    0.1255        4.7016        0.0016       13.3734       13.3750       8.673374       4.45609
  46    0.1487        4.7012        0.0022       13.3579       13.3601       8.658957       5.25506
  45    0.1794        4.7006        0.0030       13.3342       13.3372       8.636589       6.14038
  44    0.2165        4.6999        0.0040       13.3025       13.3065       8.606589       6.82455
  43    0.2613        4.6991        0.0051       13.2605       13.2657       8.566541       7.54891
  42    0.3336        4.6979        0.0070       13.1834       13.1905       8.492542       8.62755
  41    0.4307        4.6964        0.0095       13.0730       13.0824       8.386074       9.25712
  40    0.5894        4.6940        0.0133       12.8795       12.8929       8.198904       9.95350
  39     1.339        4.6856        0.0295       11.9153       11.9449       7.259304      10.57818
  38     1.782        4.6823        0.0378       11.4377       11.4755       6.793160       8.87464
  37     2.292        4.6801        0.0466       10.9754       11.0220       6.341916       7.47377
  36     2.964        4.6663        0.0745       10.4427       10.5173       5.850930       6.16337
  35     3.853        4.6625        0.0932        9.8967        9.9899       5.327329       4.96907
  34     5.035        4.6636        0.1115        9.3510        9.4626       4.798948       3.77454
  33     6.613        4.6683        0.1328        8.8257        8.9585       4.290193       2.71980
  32     8.786        4.6754        0.1595        8.3311        8.4906       3.815250       1.84450
  31     11.80        4.6842        0.1960        7.8446        8.0406       3.356365       1.28473
  30     15.07        4.6917        0.2338        7.4675        7.7012       3.009506       0.89552
  29     18.79        4.6985        0.2749        7.1357        7.4106       2.712142       0.67421
  28     23.16        4.7045        0.3214        6.8256        7.1470       2.442458       0.52148
  27     28.12        4.7089        0.3728        6.5385        6.9113       2.202425       0.40804
  26     33.73        4.7093        0.4290        6.2812        6.7102       2.000895       0.30301
  25     40.54        4.7045        0.4953        6.0293        6.5246       1.820172       0.22421
  24     48.69        4.6939        0.5731        5.7769        6.3500       1.656163       0.16972
  23     57.69        4.6777        0.6561        5.5425        6.1986       1.520928       0.12676
  22     68.43        4.6535        0.7522        5.3034        6.0556       1.402094       0.09342
  21     81.20        4.6171        0.8637        5.0629        5.9265       1.309418       0.06124
  20     96.49        4.5672        0.9925        4.8150        5.8074       1.240262       0.03817
  19     114.6        4.5067        1.1383        4.5484        5.6867       1.180051       0.02811
  18     136.5        4.4365        1.3011        4.2591        5.5602       1.123653       0.02169
  17     162.9        4.3560        1.4819        3.9441        5.4260       1.069922       0.01717
  16     196.4        4.2542        1.6979        3.5805        5.2784       1.024187       0.01151
  15     218.7        4.1900        1.8288        3.3640        5.1927       1.002696       0.00816
  14     243.0        4.1231        1.9620        3.1446        5.1065       0.983430       0.00668
  13     269.0        4.0537        2.0964        2.9239        5.0203       0.966608       0.00546
  12     297.5        3.9822        2.2309        2.7035        4.9344       0.952184       0.00428
  11     328.5        3.9095        2.3640        2.4842        4.8482       0.938665       0.00368
  10     361.9        3.8360        2.4943        2.2678        4.7621       0.926089       0.00318
   9     398.1        3.7621        2.6207        2.0559        4.6765       0.914409       0.00272
   8     437.6        3.6883        2.7419        1.8498        4.5917       0.903396       0.00235
   7     480.5        3.6148        2.8566        1.6514        4.5080       0.893150       0.00201
   6     533.0        3.5316        2.9789        1.4349        4.4138       0.882218       0.00176
   5     589.8        3.4500        3.0895        1.2324        4.3219       0.871875       0.00154
   4     651.6        3.3703        3.1873        1.0450        4.2323       0.862014       0.00135
   3     718.7        3.2928        3.2711        0.8743        4.1454       0.852593       0.00118
   2     792.3        3.2179        3.3399        0.7215        4.0615       0.843600       0.00103
   1     891.5        3.1274        3.4048        0.5554        3.9601       0.832759       0.00092
   0    1013.0        3.0316        3.4487        0.4040        3.8527       0.821085       0.00081



 Wavenumbers: 38000. - 50000. cm-1, ATM      1
 LEVEL PRESSURE   UPWARD FLUX   DIFDOWN FLUX  DIRDOWN FLUX  DOWNWARD FLUX   NET FLUX    HEATING RATE
          mb          W/m2          W/m2          W/m2        W/m2          W/m2       degree/day
  51    .06700        0.0054        0.0000        0.8267        0.8267       0.821221       0.00000
  50    .07753        0.0054        0.0001        0.8242        0.8243       0.818888       1.86958
  49    .09103        0.0053        0.0002        0.8207        0.8209       0.815565       2.07735
  48    0.1069        0.0052        0.0002        0.8162        0.8164       0.811206       2.32022
  47    0.1255        0.0051        0.0004        0.8103        0.8106       0.805492       2.59050
  46    0.1487        0.0050        0.0005        0.8018        0.8023       0.797256       3.00199
  45    0.1794        0.0049        0.0007        0.7889        0.7896       0.784700       3.44707
  44    0.2165        0.0047        0.0009        0.7720        0.7729       0.768192       3.75519
  43    0.2613        0.0045        0.0011        0.7500        0.7511       0.746638       4.06279
  42    0.3336        0.0042        0.0015        0.7106        0.7121       0.707947       4.51097
  41    0.4307        0.0038        0.0019        0.6566        0.6584       0.654649       4.63414
  40    0.5894        0.0033        0.0024        0.5680        0.5704       0.567135       4.65388
  39     1.339        0.0018        0.0030        0.2422        0.2452       0.243347       3.64527
  38     1.782        0.0014        0.0026        0.1493        0.1519       0.150485       1.76794
  37     2.292        0.0012        0.0022        0.0924        0.0946       0.093441       0.94480
  36     2.964        0.0006        0.0022        0.0532        0.0554       0.054803       0.48502
  35     3.853        0.0003        0.0017        0.0289        0.0306       0.030284       0.23269
  34     5.035        0.0002        0.0012        0.0151        0.0163       0.016094       0.10137
  33     6.613        0.0001        0.0008        0.0072        0.0080       0.007899       0.04381
  32     8.786        0.0000        0.0005        0.0029        0.0034       0.003406       0.01745
  31     11.80        0.0000        0.0003        0.0009        0.0012       0.001218       0.00612
  30     15.07        0.0000        0.0002        0.0003        0.0005       0.000477       0.00191
  29     18.79        0.0000        0.0001        0.0001        0.0002       0.000190       0.00065
  28     23.16        0.0000        0.0000        0.0000        0.0001       0.000075       0.00022
  27     28.12        0.0000        0.0000        0.0000        0.0000       0.000030       0.00008
  26     33.73        0.0000        0.0000        0.0000        0.0000       0.000012       0.00003
  25     40.54        0.0000        0.0000        0.0000        0.0000       0.000005       0.00001
  24     48.69        0.0000        0.0000        0.0000        0.0000       0.000002       0.00000
  23     57.69        0.0000        0.0000        0.0000        0.0000       0.000001       0.00000
  22     68.43        0.0000        0.0000        0.0000        0.0000       0.000000       0.00000
  21     81.20        0.0000        0.0000        0.0000        0.0000       0.000000       0.00000
  20     96.49        0.0000        0.0000        0.0000        0.0000       0.000000       0.00000
  19     114.6        0.0000        0.0000        0.0000        0.0000       0.000000       0.00000
  18     136.5        0.0000        0.0000        0.0000        0.0000       0.000000       0.00000
  17     162.9        0.0000        0.0000        0.0000        0.0000       0.000000       0.00000
  16     196.4        0.0000        0.0000        0.0000        0.0000       0.000000       0.00000
  15     218.7        0.0000        0.0000        0.0000        0.0000       0.000000       0.00000
  14     243.0        0.0000        0.0000        0.0000        0.0000       0.000000       0.00000
  13     269.0        0.0000        0.0000        0.0000        0.0000       0.000000       0.00000
  12     297.5        0.0000        0.0000        0.0000        0.0000       0.000000       0.00000
  11     328.5        0.0000        0.0000        0.0000        0.0000       0.000000       0.00000
  10     361.9        0.0000        0.0000        0.0000        0.0000       0.000000       0.00000
   9     398.1        0.0000        0.0000        0.0000        0.0000       0.000000       0.00000
   8     437.6        0.0000        0.0000        0.0000        0.0000       0.000000       0.00000
   7     480.5        0.0000        0.0000        0.0000        0.0000       0.000000       0.00000
   6     533.0        0.0000        0.0000        0.0000        0.0000       0.000000       0.00000
   5     589.8        0.0000        0.0000        0.0000        0.0000       0.000000       0.00000
   4     651.6        0.0000        0.0000        0.0000        0.0000       0.000000       0.00000
   3     718.7        0.0000        0.0000        0.0000        0.0000       0.000000       0.00000
   2     792.3        0.0000        0.0000        0.0000        0.0000       0.000000       0.00000
   1     891.5        0.0000        0.0000        0.0000        0.0000       0.000000       0.00000
   0    1013.0        0.0000        0.0000        0.0000        0.0000       0.000000       0.00000



 Wavenumbers:   820. -  2600. cm-1, ATM      1
 LEVEL PRESSURE   UPWARD FLUX   DIFDOWN FLUX  DIRDOWN FLUX  DOWNWARD FLUX   NET FLUX    HEATING RATE
          mb          W/m2          W/m2          W/m2        W/m2          W/m2       degree/day
  51    .06700        0.1291        0.0000        3.8670        3.8670       3.737956       0.00000
  50    .07753        0.1291        0.0000        3.8644        3.8644       3.735358       2.08287
  49    .09103        0.1291        0.0000        3.8638        3.8638       3.734688       0.41878
  48    0.1069        0.1291        0.0000        3.8630        3.8630       3.733939       0.39874
  47    0.1255        0.1291        0.0000        3.8622        3.8622       3.733125       0.36879
  46    0.1487        0.1291        0.0000        3.8613        3.8613       3.732198       0.33798
  45    0.1794        0.1291        0.0000        3.8602        3.8602       3.731089       0.30446
  44    0.2165        0.1291        0.0000        3.8590        3.8590       3.729955       0.25804
  43    0.2613        0.1291        0.0000        3.8579        3.8579       3.728795       0.21851
  42    0.3336        0.1291        0.0000        3.8562        3.8562       3.727110       0.19646
  41    0.4307        0.1291        0.0000        3.8540        3.8540       3.724945       0.18827
  40    0.5894        0.1291        0.0000        3.8505        3.8505       3.721457       0.18550
  39     1.339        0.1291        0.0000        3.8352        3.8352       3.706107       0.17281
  38     1.782        0.1291        0.0000        3.8267        3.8267       3.697628       0.16143
  37     2.292        0.1291        0.0000        3.8172        3.8172       3.688109       0.15766
  36     2.964        0.1450        0.0000        0.7925        0.7925       0.647550      38.16821
  35     3.853        0.1515        0.0000        0.7217        0.7217       0.570208       0.73399
  34     5.035        0.1548        0.0000        0.6932        0.6932       0.538364       0.22748
  33     6.613        0.1566        0.0000        0.6792        0.6792       0.522668       0.08391
  32     8.786        0.1575        0.0000        0.6718        0.6718       0.514271       0.03261
  31     11.80        0.1581        0.0000        0.6672        0.6672       0.509087       0.01451
  30     15.07        0.1585        0.0000        0.6648        0.6648       0.506291       0.00722
  29     18.79        0.1587        0.0000        0.6632        0.6632       0.504501       0.00406
  28     23.16        0.1588        0.0000        0.6620        0.6620       0.503157       0.00260
  27     28.12        0.1590        0.0000        0.6611        0.6611       0.502160       0.00170
  26     33.73        0.1591        0.0000        0.6605        0.6605       0.501412       0.00112
  25     40.54        0.1591        0.0000        0.6599        0.6599       0.500778       0.00079
  24     48.69        0.1592        0.0000        0.6594        0.6594       0.500171       0.00063
  23     57.69        0.1593        0.0000        0.6589        0.6589       0.499611       0.00052
  22     68.43        0.1593        0.0000        0.6584        0.6584       0.499047       0.00044
  21     81.20        0.1594        0.0000        0.6579        0.6579       0.498477       0.00038
  20     96.49        0.1595        0.0000        0.6574        0.6574       0.497903       0.00032
  19     114.6        0.1596        0.0000        0.6569        0.6569       0.497359       0.00025
  18     136.5        0.1596        0.0000        0.6564        0.6564       0.496788       0.00022
  17     162.9        0.1597        0.0000        0.6559        0.6560       0.496261       0.00017
  16     196.4        0.1597        0.0000        0.6556        0.6556       0.495830       0.00011
  15     218.7        0.1598        0.0000        0.6554        0.6554       0.495686       0.00005
  14     243.0        0.1598        0.0000        0.6553        0.6554       0.495578       0.00004
  13     269.0        0.1598        0.0000        0.6553        0.6553       0.495485       0.00003
  12     297.5        0.1598        0.0000        0.6552        0.6552       0.495375       0.00003
  11     328.5        0.1598        0.0000        0.6550        0.6550       0.495213       0.00004
  10     361.9        0.1598        0.0000        0.6548        0.6548       0.494950       0.00007
   9     398.1        0.1599        0.0000        0.6544        0.6544       0.494523       0.00010
   8     437.6        0.1600        0.0000        0.6538        0.6538       0.493842       0.00015
   7     480.5        0.1601        0.0000        0.6529        0.6529       0.492796       0.00021
   6     533.0        0.1604        0.0000        0.6512        0.6512       0.490865       0.00031
   5     589.8        0.1607        0.0000        0.6486        0.6486       0.487924       0.00044
   4     651.6        0.1614        0.0000        0.6442        0.6442       0.482836       0.00070
   3     718.7        0.1625        0.0000        0.6369        0.6369       0.474427       0.00106
   2     792.3        0.1642        0.0000        0.6255        0.6255       0.461378       0.00150
   1     891.5        0.1676        0.0000        0.6039        0.6039       0.436366       0.00213
   0    1013.0        0.1735        0.0000        0.5689        0.5689       0.395413       0.00284

  Modules and versions used in this calculation:

       rrtmg_sw.1col.f90:  $Revision$                    rrtmg_sw_init.f90:  $Revision$        
     rrtmgsw_cldprop.f90:  $Revision$                  rrtmgsw_cldprmc.f90:  NOT USED          
     rrtmg_sw_reftra.f90:  $Revision$                  rrtmg_sw_spcvrt.f90:  NOT USED          
     rrtmg_sw_spcvmc.f90:  NOT USED                    rrtmgsw_setcoef.f90:  NOT USED          
     rrtmg_sw_taumol.f90:  $Revision$                  rrtmg_sw_vrtqdr.f90:  NOT USED          
                rrtatm.f:  NOT USED                             util_xxx.f:  NOT USED          
                 extra.f:  NOT USED                       rrtmg_sw_k_g.f90:  $Revision$        

