

 Wavenumbers:   820. - 50000. cm-1, ATM      1
 LEVEL PRESSURE   UPWARD FLUX   DIFDOWN FLUX  DIRDOWN FLUX  DOWNWARD FLUX   NET FLUX    HEATING RATE
          mb          W/m2          W/m2          W/m2        W/m2          W/m2       degree/day
  51    .06700      176.7924        0.0000      397.8738      397.8738     221.081377       0.00000
  50    .07753      176.7918        0.0012      397.8580      397.8591     221.067318      11.26857
  49    .09103      176.7910        0.0026      397.8425      397.8451     221.054038       8.30025
  48    0.1069      176.7902        0.0043      397.8240      397.8283     221.038123       8.47166
  47    0.1255      176.7892        0.0062      397.8011      397.8073     221.018132       9.06285
  46    0.1487      176.7880        0.0086      397.7696      397.7782     220.990236      10.16846
  45    0.1794      176.7864        0.0119      397.7232      397.7351     220.948662      11.41321
  44    0.2165      176.7846        0.0158      397.6637      397.6794     220.894802      12.25206
  43    0.2613      176.7826        0.0203      397.5872      397.6076     220.824968      13.16349
  42    0.3336      176.7794        0.0279      397.4508      397.4787     220.699258      14.65651
  41    0.4307      176.7754        0.0377      397.2602      397.2980     220.522536      15.36563
  40    0.5894      176.7695        0.0536      396.9364      396.9900     220.220449      16.06459
  39     1.339      176.7525        0.1244      395.4500      395.5744     218.821933      15.74475
  38     1.782      176.7496        0.1641      394.7602      394.9243     218.174682      12.32261
  37     2.292      176.7527        0.2092      394.0950      394.3043     217.551611      10.31968
  36     2.964      176.7262        0.3632      381.5561      381.9193     205.193142     155.13613
  35     3.853      176.7419        0.4739      379.4487      379.9225     203.180619      19.09921
  34     5.035      176.7871        0.5898      377.9000      378.4897     201.702598      10.55837
  33     6.613      176.8595        0.7300      376.4989      377.2290     200.369434       7.12710
  32     8.786      176.9545        0.9113      375.0969      376.0082     199.053706       5.10981
  31     11.80      177.0707        1.1653      373.5281      374.6934     197.622679       4.00643
  30     15.07      177.1715        1.4348      372.1284      373.5632     196.391682       3.17819
  29     18.79      177.2637        1.7362      370.7431      372.4793     195.215581       2.66658
  28     23.16      177.3465        2.0853      369.2951      371.3804     194.033849       2.28509
  27     28.12      177.4118        2.4810      367.8066      370.2876     192.875803       1.96860
  26     33.73      177.4417        2.9207      366.3292      369.2498     191.808136       1.60527
  25     40.54      177.4278        3.4479      364.7390      368.1869     190.759115       1.30143
  24     48.69      177.3634        4.0779      362.9993      367.0771     189.713724       1.08182
  23     57.69      177.2470        4.7632      361.2503      366.0135     188.766579       0.88781
  22     68.43      177.0594        5.5712      359.3374      364.9086     187.849180       0.72120
  21     81.20      176.7681        6.5234      357.2772      363.8006     187.032479       0.53966
  20     96.49      176.3601        7.6434      355.0301      362.6736     186.313428       0.39686
  19     114.6      175.8597        8.9510      352.1210      361.0719     185.212234       0.51418
  18     136.5      175.2540       10.4690      348.9762      359.4452     184.191180       0.39262
  17     162.9      174.5264       12.2336      345.4770      357.7106     183.184240       0.32186
  16     196.4      173.5595       14.4573      341.2509      355.7082     182.148724       0.26065
  15     218.7      172.9217       15.8786      338.6121      354.4907     181.569010       0.22010
  14     243.0      172.2331       17.3902      335.8306      353.2209     180.987767       0.20159
  13     269.0      171.4928       18.9906      332.8908      351.8814     180.388608       0.19436
  12     297.5      170.7014       20.6775      329.7328      350.4103     179.708955       0.20158
  11     328.5      169.8614       22.4525      326.2304      348.6829     178.821460       0.24131
  10     361.9      168.9756       24.3099      322.2536      346.5635     177.587950       0.31209
   9     398.1      168.0443       26.2497      317.6651      343.9148     175.870527       0.40012
   8     437.6      167.0719       28.2663      312.3316      340.5980     173.526072       0.50126
   7     480.5      166.0628       30.3556      306.1368      336.4924     170.429615       0.60813
   6     533.0      164.8728       32.8289      297.9619      330.7907     165.917933       0.72579
   5     589.8      163.6578       35.3800      289.0230      324.4030     160.745127       0.76781
   4     651.6      162.4352       37.9986      279.6147      317.6133     155.178076       0.76131
   3     718.7      161.2292       40.6745      269.8785      310.5530     149.323853       0.73571
   2     792.3      160.0789       43.3919      259.8288      303.2207     143.141765       0.70902
   1     891.5      158.7890       46.8327      246.9397      293.7724     134.983373       0.69424
   0    1013.0      157.7677       50.6470      232.3725      283.0195     125.251801       0.67571



 Wavenumbers:  2600. -  3250. cm-1, ATM      1
 LEVEL PRESSURE   UPWARD FLUX   DIFDOWN FLUX  DIRDOWN FLUX  DOWNWARD FLUX   NET FLUX    HEATING RATE
          mb          W/m2          W/m2          W/m2        W/m2          W/m2       degree/day
  51    .06700        0.3037        0.0000        3.5066        3.5066       3.202897       0.00000
  50    .07753        0.3037        0.0000        3.5066        3.5066       3.202889       0.00640
  49    .09103        0.3037        0.0000        3.5066        3.5066       3.202879       0.00627
  48    0.1069        0.3037        0.0000        3.5066        3.5066       3.202867       0.00613
  47    0.1255        0.3037        0.0000        3.5066        3.5066       3.202854       0.00599
  46    0.1487        0.3037        0.0000        3.5066        3.5066       3.202837       0.00607
  45    0.1794        0.3037        0.0000        3.5065        3.5065       3.202814       0.00624
  44    0.2165        0.3037        0.0000        3.5065        3.5065       3.202788       0.00611
  43    0.2613        0.3037        0.0000        3.5065        3.5065       3.202756       0.00598
  42    0.3336        0.3037        0.0000        3.5064        3.5064       3.202703       0.00615
  41    0.4307        0.3037        0.0000        3.5064        3.5064       3.202632       0.00617
  40    0.5894        0.3037        0.0000        3.5062        3.5062       3.202513       0.00633
  39     1.339        0.3037        0.0000        3.5055        3.5055       3.201814       0.00787
  38     1.782        0.3037        0.0000        3.5050        3.5050       3.201283       0.01010
  37     2.292        0.3037        0.0000        3.5043        3.5043       3.200591       0.01147
  36     2.964        0.3037        0.0000        3.5033        3.5033       3.199601       0.01243
  35     3.853        0.3037        0.0000        3.5019        3.5019       3.198223       0.01307
  34     5.035        0.3037        0.0000        3.5001        3.5001       3.196360       0.01331
  33     6.613        0.3037        0.0000        3.4977        3.4977       3.193947       0.01290
  32     8.786        0.3037        0.0000        3.4947        3.4947       3.190968       0.01157
  31     11.80        0.3037        0.0000        3.4910        3.4910       3.187325       0.01020
  30     15.07        0.3037        0.0000        3.4878        3.4878       3.184096       0.00834
  29     18.79        0.3037        0.0000        3.4847        3.4847       3.181018       0.00698
  28     23.16        0.3037        0.0000        3.4815        3.4815       3.177776       0.00627
  27     28.12        0.3037        0.0000        3.4778        3.4779       3.174132       0.00619
  26     33.73        0.3037        0.0000        3.4733        3.4734       3.169637       0.00676
  25     40.54        0.3037        0.0000        3.4670        3.4670       3.163276       0.00789
  24     48.69        0.3037        0.0000        3.4580        3.4580       3.154320       0.00927
  23     57.69        0.3037        0.0000        3.4469        3.4469       3.143180       0.01044
  22     68.43        0.3037        0.0000        3.4324        3.4325       3.128747       0.01135
  21     81.20        0.3037        0.0000        3.4145        3.4146       3.110821       0.01185
  20     96.49        0.3037        0.0000        3.3932        3.3932       3.089475       0.01178
  19     114.6        0.3038        0.0000        3.3411        3.3411       3.037312       0.02436
  18     136.5        0.3039        0.0001        3.2967        3.2968       2.992901       0.01708
  17     162.9        0.3040        0.0001        3.2583        3.2583       2.954307       0.01234
  16     196.4        0.3042        0.0001        3.2204        3.2204       2.916267       0.00958
  15     218.7        0.3043        0.0001        3.1994        3.1995       2.895207       0.00800
  14     243.0        0.3044        0.0001        3.1784        3.1785       2.874053       0.00734
  13     269.0        0.3046        0.0001        3.1561        3.1562       2.851637       0.00727
  12     297.5        0.3048        0.0001        3.1301        3.1302       2.825394       0.00778
  11     328.5        0.3050        0.0001        3.0964        3.0965       2.791431       0.00923
  10     361.9        0.3054        0.0001        3.0510        3.0511       2.745663       0.01158
   9     398.1        0.3060        0.0001        2.9899        2.9900       2.684090       0.01435
   8     437.6        0.3067        0.0001        2.9090        2.9092       2.602463       0.01745
   7     480.5        0.3078        0.0002        2.8042        2.8044       2.496631       0.02078
   6     533.0        0.3095        0.0002        2.6542        2.6544       2.344842       0.02442
   5     589.8        0.3121        0.0002        2.4876        2.4878       2.175682       0.02511
   4     651.6        0.3159        0.0002        2.3143        2.3145       1.998634       0.02421
   3     718.7        0.3213        0.0002        2.1341        2.1343       1.813043       0.02332
   2     792.3        0.3290        0.0002        1.9471        1.9473       1.618260       0.02234
   1     891.5        0.3435        0.0002        1.7086        1.7088       1.365251       0.02153
   0    1013.0        0.3708        0.0002        1.4535        1.4537       1.082901       0.01961



 Wavenumbers:  3250. -  4000. cm-1, ATM      1
 LEVEL PRESSURE   UPWARD FLUX   DIFDOWN FLUX  DIRDOWN FLUX  DOWNWARD FLUX   NET FLUX    HEATING RATE
          mb          W/m2          W/m2          W/m2        W/m2          W/m2       degree/day
  51    .06700        0.0050        0.0000        5.9117        5.9117       5.906701       0.00000
  50    .07753        0.0050        0.0000        5.9075        5.9075       5.902539       3.33612
  49    .09103        0.0050        0.0000        5.9052        5.9052       5.900250       1.43071
  48    0.1069        0.0050        0.0000        5.9035        5.9035       5.898537       0.91191
  47    0.1255        0.0050        0.0000        5.9019        5.9019       5.896917       0.73438
  46    0.1487        0.0050        0.0000        5.9001        5.9001       5.895182       0.63248
  45    0.1794        0.0050        0.0000        5.8982        5.8982       5.893205       0.54263
  44    0.2165        0.0050        0.0000        5.8962        5.8962       5.891257       0.44317
  43    0.2613        0.0050        0.0000        5.8943        5.8943       5.889308       0.36742
  42    0.3336        0.0050        0.0000        5.8915        5.8915       5.886552       0.32132
  41    0.4307        0.0050        0.0000        5.8881        5.8881       5.883178       0.29332
  40    0.5894        0.0050        0.0000        5.8830        5.8830       5.878072       0.27154
  39     1.339        0.0050        0.0000        5.8641        5.8641       5.859152       0.21300
  38     1.782        0.0050        0.0000        5.8561        5.8561       5.851162       0.15212
  37     2.292        0.0049        0.0000        5.8483        5.8483       5.843375       0.12897
  36     2.964        0.0050        0.0000        3.2753        3.2753       3.270363      32.29909
  35     3.853        0.0050        0.0000        2.9878        2.9878       2.982790       2.72911
  34     5.035        0.0050        0.0000        2.8465        2.8465       2.841484       1.00943
  33     6.613        0.0050        0.0000        2.7626        2.7626       2.757586       0.44852
  32     8.786        0.0050        0.0000        2.7072        2.7072       2.702180       0.21518
  31     11.80        0.0050        0.0000        2.6641        2.6641       2.659089       0.12064
  30     15.07        0.0050        0.0000        2.6349        2.6349       2.629918       0.07531
  29     18.79        0.0050        0.0000        2.6119        2.6119       2.606911       0.05216
  28     23.16        0.0050        0.0000        2.5908        2.5908       2.585832       0.04076
  27     28.12        0.0050        0.0000        2.5718        2.5718       2.566823       0.03231
  26     33.73        0.0050        0.0000        2.5545        2.5545       2.549539       0.02599
  25     40.54        0.0050        0.0000        2.5367        2.5367       2.531712       0.02212
  24     48.69        0.0050        0.0000        2.5162        2.5162       2.511253       0.02117
  23     57.69        0.0050        0.0000        2.4940        2.4941       2.489067       0.02080
  22     68.43        0.0050        0.0000        2.4683        2.4684       2.463403       0.02018
  21     81.20        0.0050        0.0001        2.4389        2.4390       2.433981       0.01944
  20     96.49        0.0050        0.0001        2.4054        2.4055       2.400515       0.01847
  19     114.6        0.0050        0.0001        2.3674        2.3674       2.362481       0.01776
  18     136.5        0.0050        0.0001        2.3253        2.3253       2.320394       0.01618
  17     162.9        0.0049        0.0001        2.2789        2.2790       2.274069       0.01481
  16     196.4        0.0049        0.0001        2.2241        2.2242       2.219313       0.01378
  15     218.7        0.0049        0.0001        2.1911        2.1913       2.186338       0.01252
  14     243.0        0.0049        0.0001        2.1576        2.1577       2.152780       0.01164
  13     269.0        0.0049        0.0001        2.1214        2.1216       2.116660       0.01172
  12     297.5        0.0049        0.0002        2.0755        2.0756       2.070725       0.01362
  11     328.5        0.0049        0.0002        2.0076        2.0078       2.002926       0.01843
  10     361.9        0.0049        0.0002        1.9080        1.9082       1.903337       0.02520
   9     398.1        0.0049        0.0002        1.7732        1.7733       1.768451       0.03143
   8     437.6        0.0049        0.0002        1.6050        1.6052       1.600297       0.03595
   7     480.5        0.0050        0.0002        1.4074        1.4076       1.402561       0.03883
   6     533.0        0.0052        0.0002        1.1584        1.1586       1.153435       0.04008
   5     589.8        0.0054        0.0002        0.9104        0.9105       0.905070       0.03687
   4     651.6        0.0060        0.0001        0.6727        0.6728       0.666853       0.03258
   3     718.7        0.0069        0.0001        0.4615        0.4616       0.454713       0.02666
   2     792.3        0.0087        0.0001        0.2890        0.2890       0.280352       0.02000
   1     891.5        0.0136        0.0001        0.1306        0.1307       0.117102       0.01389
   0    1013.0        0.0307        0.0000        0.0324        0.0324       0.001692       0.00801



 Wavenumbers:  4000. -  4650. cm-1, ATM      1
 LEVEL PRESSURE   UPWARD FLUX   DIFDOWN FLUX  DIRDOWN FLUX  DOWNWARD FLUX   NET FLUX    HEATING RATE
          mb          W/m2          W/m2          W/m2        W/m2          W/m2       degree/day
  51    .06700        0.7010        0.0000        6.9421        6.9421       6.241067       0.00000
  50    .07753        0.7010        0.0000        6.9421        6.9421       6.241066       0.00080
  49    .09103        0.7010        0.0000        6.9421        6.9421       6.241065       0.00079
  48    0.1069        0.7010        0.0000        6.9421        6.9421       6.241063       0.00077
  47    0.1255        0.7010        0.0000        6.9421        6.9421       6.241062       0.00075
  46    0.1487        0.7010        0.0000        6.9421        6.9421       6.241060       0.00076
  45    0.1794        0.7010        0.0000        6.9421        6.9421       6.241057       0.00079
  44    0.2165        0.7010        0.0000        6.9421        6.9421       6.241053       0.00077
  43    0.2613        0.7010        0.0000        6.9421        6.9421       6.241049       0.00075
  42    0.3336        0.7010        0.0000        6.9420        6.9420       6.241043       0.00078
  41    0.4307        0.7010        0.0000        6.9420        6.9420       6.241034       0.00078
  40    0.5894        0.7010        0.0000        6.9420        6.9420       6.241019       0.00080
  39     1.339        0.7010        0.0000        6.9419        6.9419       6.240929       0.00101
  38     1.782        0.7010        0.0000        6.9418        6.9419       6.240858       0.00134
  37     2.292        0.7010        0.0000        6.9418        6.9418       6.240764       0.00157
  36     2.964        0.7010        0.0000        6.9416        6.9416       6.240623       0.00177
  35     3.853        0.7010        0.0000        6.9414        6.9414       6.240414       0.00198
  34     5.035        0.7010        0.0000        6.9411        6.9411       6.240106       0.00220
  33     6.613        0.7010        0.0000        6.9406        6.9406       6.239653       0.00242
  32     8.786        0.7010        0.0000        6.9399        6.9400       6.238985       0.00259
  31     11.80        0.7010        0.0001        6.9388        6.9389       6.237937       0.00293
  30     15.07        0.7009        0.0001        6.9376        6.9377       6.236712       0.00316
  29     18.79        0.7009        0.0001        6.9361        6.9362       6.235235       0.00335
  28     23.16        0.7009        0.0001        6.9342        6.9343       6.233408       0.00353
  27     28.12        0.7009        0.0001        6.9320        6.9321       6.231205       0.00374
  26     33.73        0.7009        0.0001        6.9293        6.9294       6.228502       0.00406
  25     40.54        0.7009        0.0002        6.9256        6.9257       6.224856       0.00452
  24     48.69        0.7009        0.0002        6.9207        6.9209       6.220029       0.00500
  23     57.69        0.7008        0.0002        6.9150        6.9152       6.214343       0.00533
  22     68.43        0.7008        0.0003        6.9078        6.9081       6.207273       0.00556
  21     81.20        0.7008        0.0003        6.8991        6.8994       6.198628       0.00571
  20     96.49        0.7008        0.0004        6.8886        6.8889       6.188180       0.00577
  19     114.6        0.7008        0.0004        6.8592        6.8596       6.158819       0.01371
  18     136.5        0.7009        0.0005        6.8325        6.8330       6.132132       0.01026
  17     162.9        0.7010        0.0006        6.8040        6.8045       6.103562       0.00913
  16     196.4        0.7011        0.0007        6.7689        6.7696       6.068498       0.00883
  15     218.7        0.7013        0.0008        6.7466        6.7474       6.046160       0.00848
  14     243.0        0.7014        0.0009        6.7228        6.7237       6.022322       0.00827
  13     269.0        0.7016        0.0010        6.6970        6.6980       5.996434       0.00840
  12     297.5        0.7018        0.0011        6.6674        6.6685       5.966667       0.00883
  11     328.5        0.7021        0.0012        6.6308        6.6320       5.929906       0.01000
  10     361.9        0.7026        0.0013        6.5838        6.5851       5.882522       0.01199
   9     398.1        0.7033        0.0014        6.5222        6.5236       5.820393       0.01447
   8     437.6        0.7042        0.0015        6.4427        6.4442       5.740065       0.01717
   7     480.5        0.7053        0.0017        6.3433        6.3450       5.639634       0.01972
   6     533.0        0.7072        0.0018        6.2068        6.2086       5.501451       0.02223
   5     589.8        0.7097        0.0020        6.0539        6.0558       5.346150       0.02305
   4     651.6        0.7131        0.0021        5.8776        5.8797       5.166551       0.02456
   3     718.7        0.7180        0.0023        5.6664        5.6687       4.950744       0.02712
   2     792.3        0.7249        0.0024        5.4206        5.4230       4.698080       0.02898
   1     891.5        0.7380        0.0026        5.0921        5.0946       4.356676       0.02905
   0    1013.0        0.7625        0.0027        4.7322        4.7350       3.972442       0.02668



 Wavenumbers:  4650. -  5150. cm-1, ATM      1
 LEVEL PRESSURE   UPWARD FLUX   DIFDOWN FLUX  DIRDOWN FLUX  DOWNWARD FLUX   NET FLUX    HEATING RATE
          mb          W/m2          W/m2          W/m2        W/m2          W/m2       degree/day
  51    .06700        0.4950        0.0000        6.5710        6.5710       6.076017       0.00000
  50    .07753        0.4950        0.0000        6.5708        6.5708       6.075783       0.18776
  49    .09103        0.4950        0.0000        6.5705        6.5705       6.075491       0.18252
  48    0.1069        0.4950        0.0000        6.5701        6.5701       6.075158       0.17697
  47    0.1255        0.4950        0.0000        6.5698        6.5698       6.074780       0.17131
  46    0.1487        0.4950        0.0000        6.5693        6.5693       6.074310       0.17159
  45    0.1794        0.4950        0.0000        6.5687        6.5687       6.073677       0.17361
  44    0.2165        0.4950        0.0000        6.5679        6.5679       6.072944       0.16680
  43    0.2613        0.4950        0.0000        6.5671        6.5671       6.072096       0.15976
  42    0.3336        0.4950        0.0000        6.5657        6.5657       6.070742       0.15793
  41    0.4307        0.4950        0.0000        6.5640        6.5640       6.069026       0.14918
  40    0.5894        0.4950        0.0000        6.5614        6.5614       6.066420       0.13858
  39     1.339        0.4950        0.0000        6.5516        6.5517       6.056684       0.10961
  38     1.782        0.4950        0.0000        6.5474        6.5474       6.052468       0.08026
  37     2.292        0.4950        0.0000        6.5435        6.5435       6.048555       0.06481
  36     2.964        0.4950        0.0000        6.5395        6.5395       6.044542       0.05039
  35     3.853        0.4949        0.0000        6.5354        6.5355       6.040515       0.03822
  34     5.035        0.4949        0.0000        6.5313        6.5314       6.036422       0.02923
  33     6.613        0.4949        0.0000        6.5268        6.5269       6.031951       0.02391
  32     8.786        0.4949        0.0001        6.5213        6.5213       6.026402       0.02155
  31     11.80        0.4949        0.0001        6.5131        6.5132       6.018268       0.02277
  30     15.07        0.4949        0.0001        6.5036        6.5037       6.008849       0.02432
  29     18.79        0.4949        0.0001        6.4920        6.4922       5.997279       0.02623
  28     23.16        0.4949        0.0001        6.4773        6.4775       5.982620       0.02835
  27     28.12        0.4948        0.0002        6.4593        6.4595       5.964611       0.03062
  26     33.73        0.4948        0.0002        6.4378        6.4380       5.943177       0.03223
  25     40.54        0.4948        0.0002        6.4107        6.4109       5.916092       0.03360
  24     48.69        0.4948        0.0003        6.3770        6.3773       5.882526       0.03474
  23     57.69        0.4948        0.0003        6.3399        6.3403       5.845505       0.03470
  22     68.43        0.4947        0.0004        6.2967        6.2971       5.802378       0.03390
  21     81.20        0.4947        0.0005        6.2479        6.2483       5.753586       0.03224
  20     96.49        0.4947        0.0005        6.1944        6.1949       5.700181       0.02948
  19     114.6        0.4948        0.0006        6.1297        6.1303       5.635505       0.03020
  18     136.5        0.4948        0.0007        6.0637        6.0645       5.569619       0.02533
  17     162.9        0.4950        0.0009        5.9946        5.9955       5.500527       0.02208
  16     196.4        0.4951        0.0010        5.9126        5.9136       5.418474       0.02065
  15     218.7        0.4953        0.0011        5.8603        5.8614       5.366157       0.01986
  14     243.0        0.4954        0.0012        5.8035        5.8048       5.309345       0.01970
  13     269.0        0.4957        0.0014        5.7413        5.7426       5.246988       0.02023
  12     297.5        0.4959        0.0015        5.6712        5.6727       5.176751       0.02083
  11     328.5        0.4963        0.0016        5.5903        5.5919       5.095597       0.02207
  10     361.9        0.4969        0.0018        5.4950        5.4968       4.999910       0.02421
   9     398.1        0.4976        0.0019        5.3846        5.3865       4.888931       0.02586
   8     437.6        0.4986        0.0021        5.2570        5.2591       4.760473       0.02747
   7     480.5        0.5000        0.0022        5.1103        5.1126       4.612522       0.02906
   6     533.0        0.5023        0.0024        4.9173        4.9197       4.417482       0.03138
   5     589.8        0.5053        0.0026        4.7045        4.7071       4.201794       0.03202
   4     651.6        0.5095        0.0027        4.4787        4.4814       3.971962       0.03143
   3     718.7        0.5152        0.0029        4.2446        4.2475       3.732257       0.03012
   2     792.3        0.5231        0.0030        4.0054        4.0084       3.485280       0.02833
   1     891.5        0.5374        0.0032        3.7042        3.7073       3.169962       0.02683
   0    1013.0        0.5622        0.0033        3.3715        3.3748       2.812605       0.02481



 Wavenumbers:  5150. -  6150. cm-1, ATM      1
 LEVEL PRESSURE   UPWARD FLUX   DIFDOWN FLUX  DIRDOWN FLUX  DOWNWARD FLUX   NET FLUX    HEATING RATE
          mb          W/m2          W/m2          W/m2        W/m2          W/m2       degree/day
  51    .06700        1.3334        0.0000       16.4735       16.4735      15.140078       0.00000
  50    .07753        1.3334        0.0000       16.4735       16.4735      15.140078       0.00018
  49    .09103        1.3334        0.0000       16.4735       16.4735      15.140078       0.00018
  48    0.1069        1.3334        0.0000       16.4735       16.4735      15.140077       0.00017
  47    0.1255        1.3334        0.0000       16.4735       16.4735      15.140077       0.00017
  46    0.1487        1.3334        0.0000       16.4735       16.4735      15.140077       0.00017
  45    0.1794        1.3334        0.0000       16.4735       16.4735      15.140076       0.00018
  44    0.2165        1.3334        0.0000       16.4735       16.4735      15.140075       0.00017
  43    0.2613        1.3334        0.0000       16.4735       16.4735      15.140074       0.00017
  42    0.3336        1.3334        0.0000       16.4735       16.4735      15.140073       0.00018
  41    0.4307        1.3334        0.0000       16.4735       16.4735      15.140071       0.00018
  40    0.5894        1.3334        0.0000       16.4735       16.4735      15.140067       0.00018
  39     1.339        1.3334        0.0000       16.4734       16.4734      15.140047       0.00023
  38     1.782        1.3334        0.0000       16.4734       16.4734      15.140030       0.00031
  37     2.292        1.3334        0.0001       16.4733       16.4734      15.140009       0.00036
  36     2.964        1.3340        0.0001       14.1842       14.1843      12.850349      28.74215
  35     3.853        1.3343        0.0001       13.8468       13.8469      12.512572       3.20556
  34     5.035        1.3345        0.0001       13.6822       13.6824      12.347899       1.17636
  33     6.613        1.3346        0.0002       13.5855       13.5857      12.251071       0.51764
  32     8.786        1.3347        0.0002       13.5217       13.5220      12.187287       0.24772
  31     11.80        1.3347        0.0003       13.4723       13.4726      12.137849       0.13841
  30     15.07        1.3347        0.0004       13.4389       13.4393      12.104575       0.08591
  29     18.79        1.3347        0.0004       13.4128       13.4132      12.078504       0.05911
  28     23.16        1.3347        0.0005       13.3890       13.3895      12.054836       0.04577
  27     28.12        1.3347        0.0006       13.3678       13.3684      12.033755       0.03584
  26     33.73        1.3346        0.0008       13.3487       13.3494      12.014810       0.02848
  25     40.54        1.3346        0.0009       13.3291       13.3300      11.995414       0.02406
  24     48.69        1.3345        0.0011       13.3066       13.3076      11.973088       0.02310
  23     57.69        1.3345        0.0013       13.2819       13.2831      11.948643       0.02291
  22     68.43        1.3344        0.0015       13.2527       13.2542      11.919765       0.02270
  21     81.20        1.3344        0.0017       13.2185       13.2203      11.885903       0.02238
  20     96.49        1.3343        0.0021       13.1789       13.1810      11.846673       0.02165
  19     114.6        1.3342        0.0024       13.1337       13.1361      11.801875       0.02092
  18     136.5        1.3342        0.0029       13.0834       13.0863      11.752130       0.01913
  17     162.9        1.3340        0.0034       13.0295       13.0329      11.698860       0.01703
  16     196.4        1.3338        0.0041       12.9691       12.9731      11.639323       0.01499
  15     218.7        1.3337        0.0045       12.9349       12.9394      11.605798       0.01273
  14     243.0        1.3335        0.0050       12.8998       12.9048      11.571341       0.01195
  13     269.0        1.3332        0.0055       12.8609       12.8664      11.533154       0.01239
  12     297.5        1.3330        0.0061       12.8087       12.8147      11.481706       0.01526
  11     328.5        1.3328        0.0067       12.7250       12.7317      11.398873       0.02252
  10     361.9        1.3327        0.0073       12.5860       12.5933      11.260656       0.03497
   9     398.1        1.3326        0.0079       12.3670       12.3749      11.042325       0.05087
   8     437.6        1.3327        0.0085       12.0455       12.0540      10.721335       0.06863
   7     480.5        1.3330        0.0091       11.6121       11.6212      10.288252       0.08506
   6     533.0        1.3338        0.0097       11.0096       11.0193       9.685489       0.09697
   5     589.8        1.3353        0.0102       10.4053       10.4155       9.080176       0.08985
   4     651.6        1.3381        0.0107        9.8726        9.8833       8.545235       0.07315
   3     718.7        1.3427        0.0113        9.4318        9.4431       8.100436       0.05590
   2     792.3        1.3503        0.0119        9.0572        9.0691       7.718808       0.04377
   1     891.5        1.3667        0.0128        8.6169        8.6297       7.262977       0.03879
   0    1013.0        1.4023        0.0138        8.1010        8.1148       6.712508       0.03822



 Wavenumbers:  6150. -  7700. cm-1, ATM      1
 LEVEL PRESSURE   UPWARD FLUX   DIFDOWN FLUX  DIRDOWN FLUX  DOWNWARD FLUX   NET FLUX    HEATING RATE
          mb          W/m2          W/m2          W/m2        W/m2          W/m2       degree/day
  51    .06700        2.1453        0.0000       30.4684       30.4684      28.323100       0.00000
  50    .07753        2.1453        0.0000       30.4684       30.4684      28.323084       0.01303
  49    .09103        2.1453        0.0000       30.4683       30.4683      28.323063       0.01277
  48    0.1069        2.1453        0.0000       30.4683       30.4683      28.323040       0.01250
  47    0.1255        2.1453        0.0000       30.4683       30.4683      28.323013       0.01223
  46    0.1487        2.1453        0.0000       30.4682       30.4683      28.322979       0.01241
  45    0.1794        2.1453        0.0000       30.4682       30.4682      28.322932       0.01276
  44    0.2165        2.1453        0.0000       30.4681       30.4681      28.322877       0.01252
  43    0.2613        2.1453        0.0000       30.4681       30.4681      28.322812       0.01228
  42    0.3336        2.1453        0.0000       30.4679       30.4680      28.322704       0.01256
  41    0.4307        2.1452        0.0000       30.4678       30.4678      28.322562       0.01241
  40    0.5894        2.1452        0.0001       30.4675       30.4676      28.322329       0.01239
  39     1.339        2.1452        0.0001       30.4662       30.4664      28.321229       0.01238
  38     1.782        2.1451        0.0002       30.4655       30.4657      28.320584       0.01227
  37     2.292        2.1451        0.0002       30.4647       30.4649      28.319839       0.01234
  36     2.964        2.1458        0.0004       26.7184       26.7188      24.573042      47.03363
  35     3.853        2.1461        0.0005       26.1894       26.1899      24.043759       5.02299
  34     5.035        2.1463        0.0006       25.9343       25.9349      23.788652       1.82238
  33     6.613        2.1463        0.0008       25.7873       25.7881      23.641798       0.78508
  32     8.786        2.1463        0.0010       25.6927       25.6937      23.547396       0.36662
  31     11.80        2.1461        0.0013       25.6208       25.6220      23.475949       0.20003
  30     15.07        2.1459        0.0016       25.5733       25.5749      23.429001       0.12121
  29     18.79        2.1456        0.0019       25.5367       25.5386      23.392960       0.08172
  28     23.16        2.1453        0.0023       25.5038       25.5061      23.360817       0.06215
  27     28.12        2.1449        0.0027       25.4749       25.4777      23.332749       0.04771
  26     33.73        2.1445        0.0033       25.4495       25.4527      23.308209       0.03690
  25     40.54        2.1440        0.0039       25.4241       25.4279      23.283958       0.03009
  24     48.69        2.1433        0.0046       25.3956       25.4002      23.256884       0.02802
  23     57.69        2.1426        0.0054       25.3651       25.3705      23.227906       0.02716
  22     68.43        2.1418        0.0064       25.3296       25.3360      23.194238       0.02647
  21     81.20        2.1408        0.0075       25.2884       25.2959      23.155113       0.02585
  20     96.49        2.1396        0.0089       25.2404       25.2493      23.109740       0.02504
  19     114.6        2.1381        0.0105       25.1844       25.1950      23.056821       0.02471
  18     136.5        2.1364        0.0124       25.1200       25.1324      22.995967       0.02340
  17     162.9        2.1344        0.0147       25.0455       25.0603      22.925848       0.02241
  16     196.4        2.1318        0.0177       24.9523       24.9700      22.838195       0.02206
  15     218.7        2.1301        0.0196       24.8928       24.9124      22.782359       0.02120
  14     243.0        2.1282        0.0218       24.8294       24.8512      22.722973       0.02060
  13     269.0        2.1262        0.0240       24.7579       24.7819      22.655761       0.02180
  12     297.5        2.1240        0.0265       24.6613       24.6878      22.563815       0.02727
  11     328.5        2.1218        0.0291       24.5057       24.5348      22.413043       0.04099
  10     361.9        2.1195        0.0318       24.2459       24.2777      22.158236       0.06447
   9     398.1        2.1173        0.0346       23.8332       23.8678      21.750441       0.09501
   8     437.6        2.1154        0.0373       23.2168       23.2541      21.138635       0.13081
   7     480.5        2.1141        0.0398       22.3577       22.3974      20.283334       0.16798
   6     533.0        2.1139        0.0422       21.0893       21.1315      19.017594       0.20362
   5     589.8        2.1158        0.0441       19.6986       19.7428      17.626993       0.20641
   4     651.6        2.1209        0.0458       18.3163       18.3621      16.241198       0.18951
   3     718.7        2.1311        0.0473       16.9963       17.0435      14.912382       0.16700
   2     792.3        2.1495        0.0486       15.7468       15.7954      13.645916       0.14525
   1     891.5        2.1905        0.0502       14.3298       14.3800      12.189470       0.12394
   0    1013.0        2.2814        0.0519       12.9288       12.9806      10.699290       0.10347



 Wavenumbers:  7700. -  8050. cm-1, ATM      1
 LEVEL PRESSURE   UPWARD FLUX   DIFDOWN FLUX  DIRDOWN FLUX  DOWNWARD FLUX   NET FLUX    HEATING RATE
          mb          W/m2          W/m2          W/m2        W/m2          W/m2       degree/day
  51    .06700        1.0456        0.0000        7.2006        7.2006       6.154993       0.00000
  50    .07753        1.0456        0.0000        7.2006        7.2006       6.154974       0.01476
  49    .09103        1.0456        0.0000        7.2005        7.2005       6.154951       0.01447
  48    0.1069        1.0456        0.0000        7.2005        7.2005       6.154924       0.01416
  47    0.1255        1.0456        0.0000        7.2005        7.2005       6.154894       0.01386
  46    0.1487        1.0456        0.0000        7.2004        7.2005       6.154855       0.01406
  45    0.1794        1.0456        0.0000        7.2004        7.2004       6.154803       0.01447
  44    0.2165        1.0456        0.0000        7.2003        7.2003       6.154740       0.01419
  43    0.2613        1.0456        0.0000        7.2003        7.2003       6.154666       0.01393
  42    0.3336        1.0456        0.0000        7.2001        7.2001       6.154544       0.01425
  41    0.4307        1.0456        0.0000        7.2000        7.2000       6.154382       0.01409
  40    0.5894        1.0456        0.0000        7.1997        7.1997       6.154117       0.01408
  39     1.339        1.0456        0.0001        7.1984        7.1985       6.152865       0.01409
  38     1.782        1.0456        0.0001        7.1977        7.1978       6.152130       0.01399
  37     2.292        1.0456        0.0001        7.1968        7.1969       6.151280       0.01409
  36     2.964        1.0456        0.0002        7.1956        7.1958       6.150164       0.01401
  35     3.853        1.0456        0.0002        7.1941        7.1943       6.148690       0.01399
  34     5.035        1.0457        0.0003        7.1921        7.1924       6.146733       0.01398
  33     6.613        1.0457        0.0004        7.1895        7.1898       6.144123       0.01396
  32     8.786        1.0457        0.0005        7.1859        7.1863       6.140611       0.01364
  31     11.80        1.0458        0.0006        7.1808        7.1814       6.135598       0.01403
  30     15.07        1.0459        0.0007        7.1754        7.1761       6.130232       0.01385
  29     18.79        1.0460        0.0009        7.1693        7.1702       6.124191       0.01370
  28     23.16        1.0461        0.0011        7.1622        7.1632       6.117162       0.01359
  27     28.12        1.0462        0.0013        7.1541        7.1554       6.109162       0.01360
  26     33.73        1.0463        0.0015        7.1451        7.1466       6.100258       0.01339
  25     40.54        1.0465        0.0018        7.1343        7.1361       6.089569       0.01326
  24     48.69        1.0467        0.0022        7.1213        7.1235       6.076781       0.01323
  23     57.69        1.0469        0.0025        7.1073        7.1098       6.062860       0.01305
  22     68.43        1.0472        0.0030        7.0907        7.0937       6.046447       0.01290
  21     81.20        1.0476        0.0035        7.0712        7.0747       6.027131       0.01276
  20     96.49        1.0480        0.0042        7.0482        7.0524       6.004440       0.01252
  19     114.6        1.0485        0.0049        7.0213        7.0262       5.977777       0.01245
  18     136.5        1.0491        0.0058        6.9901        6.9959       5.946814       0.01191
  17     162.9        1.0498        0.0069        6.9537        6.9606       5.910788       0.01152
  16     196.4        1.0508        0.0083        6.9078        6.9161       5.865310       0.01145
  15     218.7        1.0515        0.0092        6.8785        6.8876       5.836163       0.01107
  14     243.0        1.0522        0.0101        6.8472        6.8573       5.805069       0.01078
  13     269.0        1.0530        0.0112        6.8139        6.8251       5.772009       0.01072
  12     297.5        1.0540        0.0123        6.7786        6.7909       5.736902       0.01041
  11     328.5        1.0550        0.0135        6.7411        6.7546       5.699616       0.01014
  10     361.9        1.0562        0.0148        6.7015        6.7163       5.660095       0.01000
   9     398.1        1.0575        0.0162        6.6593        6.6755       5.618044       0.00980
   8     437.6        1.0590        0.0177        6.6146        6.6323       5.573253       0.00958
   7     480.5        1.0608        0.0193        6.5668        6.5861       5.525301       0.00942
   6     533.0        1.0631        0.0213        6.5076        6.5289       5.465749       0.00958
   5     589.8        1.0660        0.0233        6.4433        6.4666       5.400678       0.00966
   4     651.6        1.0694        0.0256        6.3730        6.3986       5.329201       0.00977
   3     718.7        1.0735        0.0279        6.2957        6.3236       5.250171       0.00993
   2     792.3        1.0785        0.0304        6.2102        6.2406       5.162096       0.01010
   1     891.5        1.0864        0.0337        6.0896        6.1233       5.036926       0.01065
   0    1013.0        1.0978        0.0376        5.9356        5.9732       4.875369       0.01122



 Wavenumbers:  8050. - 12850. cm-1, ATM      1
 LEVEL PRESSURE   UPWARD FLUX   DIFDOWN FLUX  DIRDOWN FLUX  DOWNWARD FLUX   NET FLUX    HEATING RATE
          mb          W/m2          W/m2          W/m2        W/m2          W/m2       degree/day
  51    .06700       23.0530        0.0000      100.8135      100.8135      77.760489       0.00000
  50    .07753       23.0530        0.0000      100.8135      100.8135      77.760489       0.00000
  49    .09103       23.0530        0.0001      100.8134      100.8135      77.760489      -0.00000
  48    0.1069       23.0530        0.0001      100.8134      100.8134      77.760489       0.00000
  47    0.1255       23.0529        0.0001      100.8133      100.8134      77.760489      -0.00000
  46    0.1487       23.0529        0.0002      100.8132      100.8134      77.760489      -0.00000
  45    0.1794       23.0528        0.0002      100.8131      100.8133      77.760489       0.00000
  44    0.2165       23.0528        0.0003      100.8129      100.8133      77.760489       0.00000
  43    0.2613       23.0527        0.0004      100.8127      100.8132      77.760489       0.00000
  42    0.3336       23.0526        0.0006      100.8125      100.8130      77.760489      -0.00000
  41    0.4307       23.0524        0.0008      100.8121      100.8129      77.760489       0.00000
  40    0.5894       23.0521        0.0011      100.8115      100.8126      77.760489       0.00000
  39     1.339       23.0508        0.0028      100.8085      100.8113      77.760489      -0.00000
  38     1.782       23.0500        0.0037      100.8068      100.8105      77.760489       0.00000
  37     2.292       23.0491        0.0049      100.8047      100.8096      77.760489       0.00000
  36     2.964       23.0461        0.0086      100.7980      100.8066      77.760489      -0.00000
  35     3.853       23.0438        0.0114      100.7930      100.8043      77.760489      -0.00000
  34     5.035       23.0414        0.0144      100.7876      100.8019      77.760489       0.00000
  33     6.613       23.0385        0.0180      100.7810      100.7990      77.760489       0.00000
  32     8.786       23.0347        0.0227      100.7724      100.7952      77.760489       0.00000
  31     11.80       23.0293        0.0294      100.7603      100.7898      77.760489      -0.00000
  30     15.07       23.0235        0.0366      100.7474      100.7840      77.760489      -0.00000
  29     18.79       23.0170        0.0447      100.7328      100.7774      77.760489       0.00000
  28     23.16       23.0093        0.0541      100.7157      100.7698      77.760489       0.00000
  27     28.12       23.0006        0.0649      100.6962      100.7611      77.760489      -0.00000
  26     33.73       22.9909        0.0770      100.6743      100.7513      77.760489       0.00000
  25     40.54       22.9790        0.0916      100.6479      100.7395      77.760489       0.00000
  24     48.69       22.9648        0.1093      100.6160      100.7253      77.760489       0.00000
  23     57.69       22.9491        0.1287      100.5809      100.7096      77.760489       0.00000
  22     68.43       22.9304        0.1518      100.5391      100.6909      77.760489      -0.00000
  21     81.20       22.9081        0.1794      100.4892      100.6686      77.760489       0.00000
  20     96.49       22.8814        0.2124      100.4296      100.6419      77.760489      -0.00000
  19     114.6       22.8531        0.2512      100.0433      100.2945      77.441383       0.14900
  18     136.5       22.8187        0.2973       99.7358      100.0332      77.214436       0.08727
  17     162.9       22.7766        0.3523       99.4587       99.8110      77.034434       0.05754
  16     196.4       22.7204        0.4238       99.1644       99.5882      76.867781       0.04195
  15     218.7       22.6829        0.4708       98.9934       99.4643      76.781345       0.03282
  14     243.0       22.6419        0.5220       98.8188       99.3408      76.698859       0.02861
  13     269.0       22.5974        0.5775       98.6325       99.2100      76.612606       0.02798
  12     297.5       22.5494        0.6375       98.4128       99.0503      76.500995       0.03310
  11     328.5       22.4979        0.7023       98.1205       98.8229      76.325003       0.04785
  10     361.9       22.4433        0.7718       97.7110       98.4828      76.039508       0.07223
   9     398.1       22.3862        0.8460       97.1369       97.9829      75.596685       0.10317
   8     437.6       22.3276        0.9248       96.3461       97.2709      74.943360       0.13968
   7     480.5       22.2693        1.0077       95.2775       96.2852      74.015981       0.18213
   6     533.0       22.2070        1.1069       93.6380       94.7449      72.537900       0.23778
   5     589.8       22.1540        1.2101       91.5970       92.8071      70.653100       0.27977
   4     651.6       22.1175        1.3168       89.2240       90.5408      68.423352       0.30492
   3     718.7       22.1082        1.4263       86.5765       88.0028      65.894643       0.31779
   2     792.3       22.1443        1.5379       83.6631       85.2010      63.056651       0.32549
   1     891.5       22.2907        1.6797       79.7176       81.3973      59.106555       0.33613
   0    1013.0       22.6931        1.8360       75.0631       76.8991      54.206074       0.34027



 Wavenumbers: 12850. - 16000. cm-1, ATM      1
 LEVEL PRESSURE   UPWARD FLUX   DIFDOWN FLUX  DIRDOWN FLUX  DOWNWARD FLUX   NET FLUX    HEATING RATE
          mb          W/m2          W/m2          W/m2        W/m2          W/m2       degree/day
  51    .06700       32.8432        0.0000       63.1686       63.1686      30.325413       0.00000
  50    .07753       32.8431        0.0001       63.1677       63.1678      30.324634       0.62456
  49    .09103       32.8431        0.0001       63.1666       63.1668      30.323663       0.60686
  48    0.1069       32.8431        0.0002       63.1654       63.1656      30.322558       0.58837
  47    0.1255       32.8430        0.0003       63.1640       63.1643      30.321301       0.56981
  46    0.1487       32.8430        0.0004       63.1623       63.1627      30.319734       0.57121
  45    0.1794       32.8429        0.0006       63.1600       63.1606      30.317633       0.57674
  44    0.2165       32.8429        0.0008       63.1573       63.1581      30.315203       0.55264
  43    0.2613       32.8428        0.0010       63.1542       63.1552      30.312402       0.52799
  42    0.3336       32.8427        0.0014       63.1493       63.1507      30.307940       0.52027
  41    0.4307       32.8427        0.0019       63.1431       63.1450      30.302350       0.48608
  40    0.5894       32.8426        0.0027       63.1338       63.1365      30.293888       0.45000
  39     1.339       32.8436        0.0065       63.0955       63.1020      30.258409       0.39942
  38     1.782       32.8451        0.0088       63.0739       63.0827      30.237546       0.39720
  37     2.292       32.8477        0.0114       63.0474       63.0588      30.211074       0.43845
  36     2.964       32.8490        0.0201       63.0004       63.0205      30.171468       0.49718
  35     3.853       32.8558        0.0266       62.9407       62.9673      30.111450       0.56958
  34     5.035       32.8677        0.0335       62.8582       62.8917      30.023974       0.62489
  33     6.613       32.8850        0.0420       62.7468       62.7888      29.903712       0.64292
  32     8.786       32.9077        0.0530       62.6024       62.6554      29.747697       0.60591
  31     11.80       32.9366        0.0685       62.4120       62.4805      29.543910       0.57054
  30     15.07       32.9635        0.0849       62.2260       62.3109      29.347403       0.50734
  29     18.79       32.9903        0.1035       62.0325       62.1359      29.145641       0.45746
  28     23.16       33.0172        0.1250       61.8254       61.9505      28.933254       0.41069
  27     28.12       33.0430        0.1496       61.6107       61.7603      28.717292       0.36712
  26     33.73       33.0647        0.1771       61.4005       61.5776      28.512872       0.30735
  25     40.54       33.0826        0.2102       61.1811       61.3913      28.308731       0.25326
  24     48.69       33.0961        0.2500       60.9508       61.2009      28.104788       0.21105
  23     57.69       33.1031        0.2937       60.7307       61.0244      27.921340       0.17195
  22     68.43       33.1029        0.3457       60.5031       60.8488      27.745899       0.13792
  21     81.20       33.0912        0.4076       60.2768       60.6844      27.593253       0.10087
  20     96.49       33.0665        0.4813       60.0473       60.5287      27.462199       0.07233
  19     114.6       33.0370        0.5693       59.7853       60.3547      27.317646       0.06750
  18     136.5       32.9975        0.6734       59.4880       60.1614      27.163984       0.05909
  17     162.9       32.9460        0.7970       59.1445       59.9415      26.995475       0.05386
  16     196.4       32.8703        0.9568       58.7237       59.6804      26.810161       0.04665
  15     218.7       32.8172        1.0614       58.4567       59.5181      26.700836       0.04151
  14     243.0       32.7581        1.1749       58.1712       59.3461      26.588046       0.03912
  13     269.0       32.6924        1.2975       57.8676       59.1652      26.472775       0.03739
  12     297.5       32.6201        1.4298       57.5445       58.9742      26.354150       0.03518
  11     328.5       32.5416        1.5723       57.1972       58.7694      26.227871       0.03433
  10     361.9       32.4570        1.7253       56.8231       58.5484      26.091361       0.03454
   9     398.1       32.3664        1.8894       56.4185       58.3079      25.941560       0.03490
   8     437.6       32.2703        2.0650       55.9779       58.0428      25.772527       0.03614
   7     480.5       32.1697        2.2524       55.4943       57.7467      25.577044       0.03839
   6     533.0       32.0509        2.4817       54.8753       57.3570      25.306062       0.04359
   5     589.8       31.9309        2.7269       54.1789       56.9058      24.974951       0.04915
   4     651.6       31.8131        2.9881       53.3982       56.3863      24.573240       0.05493
   3     718.7       31.7027        3.2650       52.5260       55.7910      24.088306       0.06094
   2     792.3       31.6078        3.5567       51.5567       55.1134      23.505585       0.06683
   1     891.5       31.5210        3.9414       50.2254       54.1668      22.645785       0.07316
   0    1013.0       31.4977        4.3889       48.5966       52.9855      21.487818       0.08040



 Wavenumbers: 16000. - 22650. cm-1, ATM      1
 LEVEL PRESSURE   UPWARD FLUX   DIFDOWN FLUX  DIRDOWN FLUX  DOWNWARD FLUX   NET FLUX    HEATING RATE
          mb          W/m2          W/m2          W/m2        W/m2          W/m2       degree/day
  51    .06700       75.5527        0.0000      100.7153      100.7153      25.162600       0.00000
  50    .07753       75.5526        0.0003      100.7147      100.7151      25.162483       0.09399
  49    .09103       75.5524        0.0007      100.7140      100.7147      25.162312       0.10661
  48    0.1069       75.5523        0.0012      100.7131      100.7143      25.162084       0.12157
  47    0.1255       75.5521        0.0017      100.7121      100.7139      25.161778       0.13857
  46    0.1487       75.5519        0.0024      100.7108      100.7132      25.161328       0.16421
  45    0.1794       75.5516        0.0034      100.7089      100.7122      25.160623       0.19334
  44    0.2165       75.5513        0.0045      100.7066      100.7110      25.159668       0.21729
  43    0.2613       75.5511        0.0058      100.7037      100.7095      25.158372       0.24428
  42    0.3336       75.5507        0.0079      100.6987      100.7066      25.155908       0.28727
  41    0.4307       75.5504        0.0108      100.6918      100.7026      25.152194       0.32291
  40    0.5894       75.5501        0.0155      100.6797      100.6952      25.145112       0.37665
  39     1.339       75.5544        0.0377      100.6095      100.6472      25.092795       0.58900
  38     1.782       75.5609        0.0507      100.5585      100.6092      25.048240       0.84824
  37     2.292       75.5723        0.0658      100.4903      100.5560      24.983768       1.06783
  36     2.964       75.5777        0.1163      100.3408      100.4571      24.879382       1.31036
  35     3.853       75.6075        0.1539      100.1675      100.3214      24.713891       1.57054
  34     5.035       75.6599        0.1940       99.9332      100.1272      24.467273       1.76173
  33     6.613       75.7363        0.2429       99.6185       99.8614      24.125086       1.82934
  32     8.786       75.8362        0.3063       99.2106       99.5170      23.680747       1.72565
  31     11.80       75.9640        0.3955       98.6711       99.0666      23.102572       1.61871
  30     15.07       76.0833        0.4905       98.1409       98.6313      22.548079       1.43159
  29     18.79       76.2016        0.5971       97.5861       98.1831      21.981513       1.28458
  28     23.16       76.3210        0.7210       96.9881       97.7091      21.388116       1.14744
  27     28.12       76.4355        0.8621       96.3617       97.2238      20.788347       1.01957
  26     33.73       76.5318        1.0194       95.7393       96.7587      20.226896       0.84416
  25     40.54       76.6115        1.2088       95.0766       96.2854      19.673871       0.68609
  24     48.69       76.6720        1.4362       94.3641       95.8003      19.128307       0.56457
  23     57.69       76.7041        1.6849       93.6641       95.3491      18.644959       0.45307
  22     68.43       76.7055        1.9800       92.9183       94.8983      18.192804       0.35545
  21     81.20       76.6567        2.3301       92.1466       94.4767      17.820071       0.24630
  20     96.49       76.5519        2.7454       91.3350       94.0804      17.528569       0.16089
  19     114.6       76.4048        3.2351       90.4309       93.6659      17.261168       0.12486
  18     136.5       76.2155        3.8106       89.4040       93.2146      16.999106       0.10077
  17     162.9       75.9773        4.4890       88.2261       92.7151      16.737748       0.08354
  16     196.4       75.6398        5.3585       86.7850       92.1435      16.503716       0.05891
  15     218.7       75.4083        5.9233       85.8740       91.7973      16.388987       0.04356
  14     243.0       75.1531        6.5316       84.9046       91.4362      16.283070       0.03674
  13     269.0       74.8728        7.1843       83.8765       91.0608      16.187940       0.03086
  12     297.5       74.5669        7.8821       82.7888       90.6710      16.104063       0.02488
  11     328.5       74.2365        8.6276       81.6322       90.2599      16.023415       0.02193
  10     361.9       73.8814        9.4204       80.4071       89.8275      15.946062       0.01957
   9     398.1       73.5008       10.2623       79.1099       89.3722      15.871468       0.01738
   8     437.6       73.0947       11.1536       77.7387       88.8924      15.797610       0.01579
   7     480.5       72.6630       12.0946       76.2924       88.3870      15.724031       0.01445
   6     533.0       72.1376       13.2327       74.5419       87.7747      15.637082       0.01399
   5     589.8       71.5798       14.4352       72.6884       87.1235      15.543748       0.01385
   4     651.6       70.9908       15.7000       70.7318       86.4318      15.441033       0.01405
   3     718.7       70.3719       17.0253       68.6722       85.6974      15.325522       0.01452
   2     792.3       69.7261       18.4064       66.5125       84.9189      15.192858       0.01522
   1     891.5       68.8845       20.2085       63.6693       83.8777      14.993287       0.01698
   0    1013.0       67.9223       22.2783       60.3616       82.6399      14.717549       0.01915



 Wavenumbers: 22650. - 29000. cm-1, ATM      1
 LEVEL PRESSURE   UPWARD FLUX   DIFDOWN FLUX  DIRDOWN FLUX  DOWNWARD FLUX   NET FLUX    HEATING RATE
          mb          W/m2          W/m2          W/m2        W/m2          W/m2       degree/day
  51    .06700       34.3509        0.0000       38.0063       38.0063       3.655360       0.00000
  50    .07753       34.3508        0.0004       38.0057       38.0061       3.655360       0.00000
  49    .09103       34.3506        0.0009       38.0050       38.0059       3.655360      -0.00000
  48    0.1069       34.3503        0.0014       38.0042       38.0057       3.655360       0.00000
  47    0.1255       34.3500        0.0021       38.0033       38.0054       3.655360       0.00000
  46    0.1487       34.3497        0.0029       38.0022       38.0050       3.655360      -0.00000
  45    0.1794       34.3492        0.0040       38.0006       38.0046       3.655360       0.00000
  44    0.2165       34.3486        0.0053       37.9987       38.0040       3.655360      -0.00000
  43    0.2613       34.3480        0.0068       37.9965       38.0033       3.655360       0.00000
  42    0.3336       34.3469        0.0094       37.9928       38.0022       3.655360       0.00000
  41    0.4307       34.3454        0.0128       37.9880       38.0008       3.655360      -0.00000
  40    0.5894       34.3430        0.0183       37.9800       37.9984       3.655360       0.00000
  39     1.339       34.3317        0.0446       37.9425       37.9870       3.655360       0.00000
  38     1.782       34.3250        0.0600       37.9204       37.9804       3.655360       0.00000
  37     2.292       34.3173        0.0778       37.8949       37.9727       3.655360      -0.00000
  36     2.964       34.2915        0.1375       37.8094       37.9469       3.655360       0.00000
  35     3.853       34.2723        0.1819       37.7458       37.9277       3.655360       0.00000
  34     5.035       34.2519        0.2293       37.6779       37.9072       3.655360      -0.00000
  33     6.613       34.2268        0.2872       37.5950       37.8822       3.655360       0.00000
  32     8.786       34.1943        0.3623       37.4873       37.8497       3.655360       0.00000
  31     11.80       34.1486        0.4681       37.3359       37.8039       3.655360       0.00000
  30     15.07       34.0999        0.5806       37.1747       37.7553       3.655360       0.00000
  29     18.79       34.0452        0.7068       36.9938       37.7006       3.655360       0.00000
  28     23.16       33.9817        0.8535       36.7836       37.6370       3.655360      -0.00000
  27     28.12       33.9094        1.0201       36.5447       37.5648       3.655360       0.00000
  26     33.73       33.8290        1.2053       36.2791       37.4844       3.655360      -0.00000
  25     40.54       33.7326        1.4274       35.9606       37.3880       3.655360       0.00000
  24     48.69       33.6173        1.6926       35.5801       37.2726       3.655360      -0.00000
  23     57.69       33.4918        1.9807       35.1665       37.1472       3.655360       0.00000
  22     68.43       33.3441        2.3196       34.6798       36.9994       3.655360      -0.00000
  21     81.20       33.1704        2.7172       34.1085       36.8257       3.655360       0.00000
  20     96.49       32.9667        3.1825       33.4396       36.6221       3.655360       0.00000
  19     114.6       32.7295        3.7228       32.6622       36.3849       3.655360       0.00000
  18     136.5       32.4548        4.3466       31.7636       36.1102       3.655360      -0.00000
  17     162.9       32.1365        5.0664       30.7255       35.7919       3.655360       0.00000
  16     196.4       31.7375        5.9642       29.4287       35.3929       3.655360       0.00000
  15     218.7       31.4838        6.5323       28.6068       35.1392       3.655360       0.00000
  14     243.0       31.2151        7.1313       27.7392       34.8705       3.655360      -0.00000
  13     269.0       30.9321        7.7592       26.8282       34.5875       3.655360       0.00000
  12     297.5       30.6354        8.4139       25.8769       34.2908       3.655360       0.00000
  11     328.5       30.3250        9.0948       24.8856       33.9804       3.655360      -0.00000
  10     361.9       30.0023        9.7979       23.8597       33.6576       3.655360       0.00000
   9     398.1       29.6675       10.5217       22.8012       33.3229       3.655360       0.00000
   8     437.6       29.3223       11.2618       21.7158       32.9776       3.655360      -0.00000
   7     480.5       28.9674       12.0153       20.6074       32.6227       3.655360       0.00000
   6     533.0       28.5512       12.8883       19.3183       32.2066       3.655360       0.00000
   5     589.8       28.1265       13.7663       18.0156       31.7819       3.655360       0.00000
   4     651.6       27.6955       14.6425       16.7084       31.3509       3.655360       0.00000
   3     718.7       27.2603       15.5103       15.4054       30.9157       3.655360       0.00000
   2     792.3       26.8239       16.3609       14.1184       30.4793       3.655360      -0.00000
   1     891.5       26.2796       17.3902       12.5448       29.9350       3.655360       0.00000
   0    1013.0       25.6860       18.4655       10.8758       29.3413       3.655360       0.00000



 Wavenumbers: 29000. - 38000. cm-1, ATM      1
 LEVEL PRESSURE   UPWARD FLUX   DIFDOWN FLUX  DIRDOWN FLUX  DOWNWARD FLUX   NET FLUX    HEATING RATE
          mb          W/m2          W/m2          W/m2        W/m2          W/m2       degree/day
  51    .06700        4.8871        0.0000       13.4026       13.4026       8.515476       0.00000
  50    .07753        4.8869        0.0003       13.3983       13.3986       8.511685       3.03848
  49    .09103        4.8866        0.0007       13.3921       13.3928       8.506176       3.44293
  48    0.1069        4.8863        0.0011       13.3841       13.3851       8.498812       3.92011
  47    0.1255        4.8860        0.0016       13.3734       13.3750       8.488982       4.45644
  46    0.1487        4.8856        0.0022       13.3579       13.3601       8.474564       5.25549
  45    0.1794        4.8850        0.0030       13.3342       13.3372       8.452195       6.14089
  44    0.2165        4.8843        0.0040       13.3025       13.3065       8.422192       6.82513
  43    0.2613        4.8836        0.0052       13.2605       13.2657       8.382140       7.54958
  42    0.3336        4.8823        0.0070       13.1834       13.1905       8.308134       8.62835
  41    0.4307        4.8808        0.0095       13.0730       13.0825       8.201656       9.25805
  40    0.5894        4.8785        0.0134       12.8795       12.8929       8.014465       9.95460
  39     1.339        4.8703        0.0297       11.9153       11.9450       7.074707      10.57997
  38     1.782        4.8673        0.0380       11.4377       11.4757       6.608425       8.87726
  37     2.292        4.8653        0.0468       10.9754       11.0222       6.156978       7.47714
  36     2.964        4.8499        0.0778       10.4377       10.5155       5.665631       6.16789
  35     3.853        4.8459        0.0975        9.8902        9.9877       5.141813       4.97112
  34     5.035        4.8473        0.1163        9.3445        9.4608       4.613432       3.77454
  33     6.613        4.8528        0.1377        8.8193        8.9570       4.104299       2.72183
  32     8.786        4.8609        0.1646        8.3245        8.4892       3.628218       1.84893
  31     11.80        4.8712        0.2013        7.8384        8.0396       3.168405       1.28733
  30     15.07        4.8802        0.2392        7.4616        7.7008       2.820616       0.89792
  29     18.79        4.8886        0.2807        7.1302        7.4109       2.522229       0.67653
  28     23.16        4.8964        0.3275        6.8203        7.1478       2.251406       0.52368
  27     28.12        4.9027        0.3793        6.5335        6.9128       2.010162       0.41010
  26     33.73        4.9050        0.4360        6.2765        6.7124       1.807444       0.30479
  25     40.54        4.9022        0.5029        6.0248        6.5277       1.625499       0.22572
  24     48.69        4.8939        0.5815        5.7726        6.3541       1.460226       0.17103
  23     57.69        4.8799        0.6654        5.5384        6.2038       1.323822       0.12786
  22     68.43        4.8582        0.7625        5.2995        6.0620       1.203844       0.09432
  21     81.20        4.8243        0.8753        5.0591        5.9345       1.110187       0.06189
  20     96.49        4.7769        1.0058        4.8114        5.8172       1.040232       0.03861
  19     114.6        4.7193        1.1536        4.5450        5.6986       0.979264       0.02847
  18     136.5        4.6525        1.3187        4.2559        5.5746       0.922091       0.02198
  17     162.9        4.5759        1.5023        3.9412        5.4435       0.867550       0.01743
  16     196.4        4.4788        1.7221        3.5778        5.2999       0.821049       0.01170
  15     218.7        4.4177        1.8554        3.3615        5.2169       0.799166       0.00831
  14     243.0        4.3540        1.9913        3.1423        5.1335       0.779526       0.00681
  13     269.0        4.2881        2.1287        2.9217        5.0505       0.762354       0.00557
  12     297.5        4.2204        2.2665        2.7015        4.9680       0.747608       0.00437
  11     328.5        4.1517        2.4031        2.4824        4.8855       0.733767       0.00376
  10     361.9        4.0826        2.5373        2.2662        4.8034       0.720869       0.00326
   9     398.1        4.0133        2.6678        2.0544        4.7222       0.708867       0.00280
   8     437.6        3.9445        2.7936        1.8484        4.6420       0.697527       0.00242
   7     480.5        3.8765        2.9132        1.6502        4.5634       0.686954       0.00208
   6     533.0        3.7999        3.0416        1.4339        4.4755       0.675644       0.00182
   5     589.8        3.7255        3.1589        1.2315        4.3904       0.664910       0.00159
   4     651.6        3.6536        3.2640        1.0442        4.3083       0.654643       0.00140
   3     718.7        3.5847        3.3558        0.8737        4.2295       0.644797       0.00124
   2     792.3        3.5188        3.4334        0.7208        4.1542       0.635362       0.00108
   1     891.5        3.4408        3.5101        0.5546        4.0647       0.623933       0.00097
   0    1013.0        3.3603        3.5686        0.4032        3.9719       0.611551       0.00086



 Wavenumbers: 38000. - 50000. cm-1, ATM      1
 LEVEL PRESSURE   UPWARD FLUX   DIFDOWN FLUX  DIRDOWN FLUX  DOWNWARD FLUX   NET FLUX    HEATING RATE
          mb          W/m2          W/m2          W/m2        W/m2          W/m2       degree/day
  51    .06700        0.0055        0.0000        0.8267        0.8267       0.821170       0.00000
  50    .07753        0.0054        0.0001        0.8242        0.8243       0.818838       1.86961
  49    .09103        0.0054        0.0002        0.8207        0.8209       0.815514       2.07738
  48    0.1069        0.0053        0.0002        0.8162        0.8164       0.811155       2.32026
  47    0.1255        0.0052        0.0004        0.8103        0.8106       0.805441       2.59053
  46    0.1487        0.0051        0.0005        0.8018        0.8023       0.797205       3.00203
  45    0.1794        0.0049        0.0007        0.7889        0.7896       0.784649       3.44711
  44    0.2165        0.0047        0.0009        0.7720        0.7729       0.768141       3.75523
  43    0.2613        0.0045        0.0011        0.7500        0.7511       0.746587       4.06284
  42    0.3336        0.0042        0.0015        0.7106        0.7121       0.707896       4.51102
  41    0.4307        0.0038        0.0019        0.6566        0.6584       0.654597       4.63419
  40    0.5894        0.0033        0.0024        0.5680        0.5704       0.567082       4.65394
  39     1.339        0.0019        0.0030        0.2422        0.2452       0.243285       3.64536
  38     1.782        0.0015        0.0026        0.1493        0.1519       0.150416       1.76808
  37     2.292        0.0013        0.0022        0.0924        0.0946       0.093359       0.94501
  36     2.964        0.0006        0.0022        0.0531        0.0553       0.054737       0.48483
  35     3.853        0.0003        0.0017        0.0288        0.0306       0.030252       0.23237
  34     5.035        0.0002        0.0012        0.0150        0.0163       0.016082       0.10123
  33     6.613        0.0001        0.0009        0.0071        0.0080       0.007900       0.04374
  32     8.786        0.0000        0.0005        0.0029        0.0035       0.003411       0.01743
  31     11.80        0.0000        0.0003        0.0009        0.0012       0.001222       0.00613
  30     15.07        0.0000        0.0002        0.0003        0.0005       0.000480       0.00192
  29     18.79        0.0000        0.0001        0.0001        0.0002       0.000192       0.00065
  28     23.16        0.0000        0.0000        0.0000        0.0001       0.000076       0.00022
  27     28.12        0.0000        0.0000        0.0000        0.0000       0.000030       0.00008
  26     33.73        0.0000        0.0000        0.0000        0.0000       0.000013       0.00003
  25     40.54        0.0000        0.0000        0.0000        0.0000       0.000005       0.00001
  24     48.69        0.0000        0.0000        0.0000        0.0000       0.000002       0.00000
  23     57.69        0.0000        0.0000        0.0000        0.0000       0.000001       0.00000
  22     68.43        0.0000        0.0000        0.0000        0.0000       0.000000       0.00000
  21     81.20        0.0000        0.0000        0.0000        0.0000       0.000000       0.00000
  20     96.49        0.0000        0.0000        0.0000        0.0000       0.000000       0.00000
  19     114.6        0.0000        0.0000        0.0000        0.0000       0.000000       0.00000
  18     136.5        0.0000        0.0000        0.0000        0.0000       0.000000       0.00000
  17     162.9        0.0000        0.0000        0.0000        0.0000       0.000000       0.00000
  16     196.4        0.0000        0.0000        0.0000        0.0000       0.000000       0.00000
  15     218.7        0.0000        0.0000        0.0000        0.0000       0.000000       0.00000
  14     243.0        0.0000        0.0000        0.0000        0.0000       0.000000       0.00000
  13     269.0        0.0000        0.0000        0.0000        0.0000       0.000000       0.00000
  12     297.5        0.0000        0.0000        0.0000        0.0000       0.000000       0.00000
  11     328.5        0.0000        0.0000        0.0000        0.0000       0.000000       0.00000
  10     361.9        0.0000        0.0000        0.0000        0.0000       0.000000       0.00000
   9     398.1        0.0000        0.0000        0.0000        0.0000       0.000000       0.00000
   8     437.6        0.0000        0.0000        0.0000        0.0000       0.000000       0.00000
   7     480.5        0.0000        0.0000        0.0000        0.0000       0.000000       0.00000
   6     533.0        0.0000        0.0000        0.0000        0.0000       0.000000       0.00000
   5     589.8        0.0000        0.0000        0.0000        0.0000       0.000000       0.00000
   4     651.6        0.0000        0.0000        0.0000        0.0000       0.000000       0.00000
   3     718.7        0.0000        0.0000        0.0000        0.0000       0.000000       0.00000
   2     792.3        0.0000        0.0000        0.0000        0.0000       0.000000       0.00000
   1     891.5        0.0000        0.0000        0.0000        0.0000       0.000000       0.00000
   0    1013.0        0.0000        0.0000        0.0000        0.0000       0.000000       0.00000



 Wavenumbers:   820. -  2600. cm-1, ATM      1
 LEVEL PRESSURE   UPWARD FLUX   DIFDOWN FLUX  DIRDOWN FLUX  DOWNWARD FLUX   NET FLUX    HEATING RATE
          mb          W/m2          W/m2          W/m2        W/m2          W/m2       degree/day
  51    .06700        0.0710        0.0000        3.8670        3.8670       3.796016       0.00000
  50    .07753        0.0710        0.0000        3.8644        3.8644       3.793417       2.08287
  49    .09103        0.0710        0.0000        3.8638        3.8638       3.792747       0.41878
  48    0.1069        0.0710        0.0000        3.8630        3.8630       3.791998       0.39874
  47    0.1255        0.0710        0.0000        3.8622        3.8622       3.791185       0.36879
  46    0.1487        0.0710        0.0000        3.8613        3.8613       3.790258       0.33798
  45    0.1794        0.0710        0.0000        3.8602        3.8602       3.789149       0.30446
  44    0.2165        0.0710        0.0000        3.8590        3.8590       3.788014       0.25804
  43    0.2613        0.0710        0.0000        3.8579        3.8579       3.786855       0.21851
  42    0.3336        0.0710        0.0000        3.8562        3.8562       3.785170       0.19646
  41    0.4307        0.0710        0.0000        3.8540        3.8540       3.783005       0.18827
  40    0.5894        0.0710        0.0000        3.8505        3.8505       3.779516       0.18550
  39     1.339        0.0710        0.0000        3.8352        3.8352       3.764167       0.17281
  38     1.782        0.0710        0.0000        3.8267        3.8267       3.755688       0.16143
  37     2.292        0.0710        0.0000        3.8172        3.8172       3.746169       0.15766
  36     2.964        0.0813        0.0000        0.7587        0.7587       0.677393      38.52241
  35     3.853        0.0855        0.0000        0.6859        0.6859       0.600401       0.73067
  34     5.035        0.0876        0.0000        0.6560        0.6560       0.568331       0.22909
  33     6.613        0.0888        0.0000        0.6412        0.6412       0.552460       0.08485
  32     8.786        0.0894        0.0000        0.6334        0.6334       0.543956       0.03302
  31     11.80        0.0898        0.0000        0.6285        0.6285       0.538705       0.01470
  30     15.07        0.0900        0.0000        0.6259        0.6259       0.535872       0.00732
  29     18.79        0.0902        0.0000        0.6242        0.6242       0.534058       0.00411
  28     23.16        0.0903        0.0000        0.6230        0.6230       0.532696       0.00263
  27     28.12        0.0903        0.0000        0.6220        0.6220       0.531685       0.00172
  26     33.73        0.0904        0.0000        0.6213        0.6213       0.530927       0.00114
  25     40.54        0.0904        0.0000        0.6207        0.6207       0.530285       0.00080
  24     48.69        0.0905        0.0000        0.6202        0.6202       0.529670       0.00064
  23     57.69        0.0905        0.0000        0.6196        0.6196       0.529103       0.00053
  22     68.43        0.0906        0.0000        0.6191        0.6191       0.528532       0.00045
  21     81.20        0.0906        0.0000        0.6186        0.6186       0.527956       0.00038
  20     96.49        0.0907        0.0000        0.6180        0.6180       0.527375       0.00032
  19     114.6        0.0907        0.0000        0.6175        0.6175       0.526823       0.00026
  18     136.5        0.0908        0.0000        0.6170        0.6170       0.526246       0.00022
  17     162.9        0.0908        0.0000        0.6165        0.6165       0.525712       0.00017
  16     196.4        0.0908        0.0000        0.6161        0.6161       0.525276       0.00011
  15     218.7        0.0908        0.0000        0.6160        0.6160       0.525132       0.00005
  14     243.0        0.0909        0.0000        0.6159        0.6159       0.525023       0.00004
  13     269.0        0.0909        0.0000        0.6158        0.6158       0.524929       0.00003
  12     297.5        0.0909        0.0000        0.6157        0.6157       0.524817       0.00003
  11     328.5        0.0909        0.0000        0.6155        0.6155       0.524650       0.00005
  10     361.9        0.0909        0.0000        0.6153        0.6153       0.524372       0.00007
   9     398.1        0.0909        0.0000        0.6148        0.6148       0.523913       0.00011
   8     437.6        0.0910        0.0000        0.6142        0.6142       0.523168       0.00016
   7     480.5        0.0911        0.0000        0.6131        0.6131       0.522007       0.00023
   6     533.0        0.0913        0.0000        0.6111        0.6111       0.519841       0.00035
   5     589.8        0.0915        0.0000        0.6080        0.6080       0.516516       0.00049
   4     651.6        0.0920        0.0000        0.6028        0.6028       0.510813       0.00078
   3     718.7        0.0928        0.0000        0.5942        0.5942       0.501477       0.00117
   2     792.3        0.0940        0.0000        0.5811        0.5811       0.487155       0.00164
   1     891.5        0.0964        0.0000        0.5565        0.5565       0.460088       0.00230
   0    1013.0        0.1006        0.0000        0.5172        0.5172       0.416642       0.00302

  Modules and versions used in this calculation:

       rrtmg_sw.1col.f90:  $Revision$                    rrtmg_sw_init.f90:  $Revision$        
     rrtmgsw_cldprop.f90:  $Revision$                  rrtmgsw_cldprmc.f90:  NOT USED          
     rrtmg_sw_reftra.f90:  $Revision$                  rrtmg_sw_spcvrt.f90:  NOT USED          
     rrtmg_sw_spcvmc.f90:  NOT USED                    rrtmgsw_setcoef.f90:  NOT USED          
     rrtmg_sw_taumol.f90:  $Revision$                  rrtmg_sw_vrtqdr.f90:  NOT USED          
                rrtatm.f:  NOT USED                             util_xxx.f:  NOT USED          
                 extra.f:  NOT USED                       rrtmg_sw_k_g.f90:  $Revision$        

