

 Wavenumbers:   820. - 50000. cm-1, ATM      1
 LEVEL PRESSURE   UPWARD FLUX   DIFDOWN FLUX  DIRDOWN FLUX  DOWNWARD FLUX   NET FLUX    HEATING RATE
          mb          W/m2          W/m2          W/m2        W/m2          W/m2       degree/day
  51    .06700      180.1020        0.0000      397.8738      397.8738     217.771786       0.00000
  50    .07753      180.1014        0.0011      397.8580      397.8591     217.757730      11.26598
  49    .09103      180.1006        0.0026      397.8425      397.8450     217.744454       8.29761
  48    0.1069      180.0997        0.0042      397.8240      397.8283     217.728544       8.46896
  47    0.1255      180.0987        0.0061      397.8011      397.8073     217.708560       9.06008
  46    0.1487      180.0975        0.0085      397.7697      397.7782     217.680672      10.16548
  45    0.1794      180.0959        0.0118      397.7232      397.7350     217.639109      11.40998
  44    0.2165      180.0941        0.0156      397.6637      397.6793     217.585264      12.24870
  43    0.2613      180.0920        0.0202      397.5873      397.6074     217.515449      13.15996
  42    0.3336      180.0887        0.0276      397.4509      397.4785     217.389772      14.65265
  41    0.4307      180.0846        0.0374      397.2603      397.2977     217.213097      15.36154
  40    0.5894      180.0785        0.0531      396.9365      396.9896     216.911093      16.06014
  39     1.339      180.0604        0.1233      395.4502      395.5735     215.513118      15.73866
  38     1.782      180.0567        0.1626      394.7605      394.9230     214.866303      12.31431
  37     2.292      180.0587        0.2073      394.0953      394.3026     214.243868      10.30915
  36     2.964      180.0574        0.3192      383.2239      383.5431     203.485681     135.04776
  35     3.853      180.0814        0.4143      381.3133      381.7276     201.646190      17.45711
  34     5.035      180.1289        0.5226      379.8576      380.3801     200.251184       9.96535
  33     6.613      180.2004        0.6585      378.5096      379.1681     198.967644       6.86181
  32     8.786      180.2923        0.8366      377.1419      377.9785     197.686249       4.97648
  31     11.80      180.4032        1.0876      375.5982      376.6858     196.282552       3.92991
  30     15.07      180.4982        1.3542      374.2144      375.5686     195.070399       3.12954
  29     18.79      180.5840        1.6526      372.8407      374.4933     193.909321       2.63252
  28     23.16      180.6595        1.9982      371.4025      373.4008     192.741212       2.25875
  27     28.12      180.7169        2.3901      369.9219      372.3120     191.595062       1.94838
  26     33.73      180.7385        2.8253      368.4506      371.2759     190.537416       1.59020
  25     40.54      180.7153        3.3472      366.8659      370.2131     189.497869       1.28968
  24     48.69      180.6403        3.9706      365.1327      369.1033     188.463060       1.07086
  23     57.69      180.5130        4.6488      363.3911      368.0399     187.526928       0.87748
  22     68.43      180.3132        5.4481      361.4866      366.9347     186.621511       0.71178
  21     81.20      180.0085        6.3898      359.4361      365.8259     185.817398       0.53135
  20     96.49      179.5855        7.4973      357.1996      364.6969     185.111354       0.38969
  19     114.6      179.0658        8.7900      354.4433      363.2332     184.167396       0.44076
  18     136.5      178.4381       10.2902      351.3909      361.6811     183.243020       0.35544
  17     162.9      177.6851       12.0335      347.9600      359.9935     182.308328       0.29877
  16     196.4      176.6869       14.2293      343.7974      358.0268     181.339839       0.24378
  15     218.7      176.0293       15.6322      341.1927      356.8249     180.795616       0.20662
  14     243.0      175.3194       17.1237      338.4453      355.5690     180.249647       0.18936
  13     269.0      174.5563       18.7021      335.5437      354.2458     179.689537       0.18170
  12     297.5      173.7404       20.3652      332.4403      352.8054     179.064991       0.18523
  11     328.5      172.8742       22.1142      329.0339      351.1481     178.273931       0.21509
  10     361.9      171.9602       23.9437      325.2252      349.1689     177.208711       0.26951
   9     398.1      170.9986       25.8535      320.9021      346.7555     175.756934       0.33823
   8     437.6      169.9937       27.8381      315.9478      343.7859     173.792220       0.42007
   7     480.5      168.9495       29.8934      310.2387      340.1321     171.182557       0.51253
   6     533.0      167.7156       32.3255      302.7031      335.0286     167.312987       0.62249
   5     589.8      166.4521       34.8330      294.3870      329.2200     162.767920       0.67464
   4     651.6      165.1761       37.4051      285.5517      322.9568     157.780650       0.68202
   3     718.7      163.9108       40.0319      276.3472      316.3791     152.468277       0.66762
   2     792.3      162.6949       42.6985      266.8468      309.5453     146.850355       0.64431
   1     891.5      161.3161       46.0742      254.7395      300.8137     139.497678       0.62568
   0    1013.0      160.1841       49.8163      241.0054      290.8217     130.637606       0.61520



 Wavenumbers:  2600. -  3250. cm-1, ATM      1
 LEVEL PRESSURE   UPWARD FLUX   DIFDOWN FLUX  DIRDOWN FLUX  DOWNWARD FLUX   NET FLUX    HEATING RATE
          mb          W/m2          W/m2          W/m2        W/m2          W/m2       degree/day
  51    .06700        0.4328        0.0000        3.5066        3.5066       3.073868       0.00000
  50    .07753        0.4328        0.0000        3.5066        3.5066       3.073860       0.00640
  49    .09103        0.4328        0.0000        3.5066        3.5066       3.073850       0.00627
  48    0.1069        0.4328        0.0000        3.5066        3.5066       3.073839       0.00613
  47    0.1255        0.4328        0.0000        3.5066        3.5066       3.073826       0.00599
  46    0.1487        0.4328        0.0000        3.5066        3.5066       3.073809       0.00607
  45    0.1794        0.4328        0.0000        3.5065        3.5065       3.073786       0.00624
  44    0.2165        0.4328        0.0000        3.5065        3.5065       3.073759       0.00611
  43    0.2613        0.4328        0.0000        3.5065        3.5065       3.073728       0.00598
  42    0.3336        0.4328        0.0000        3.5064        3.5064       3.073675       0.00615
  41    0.4307        0.4328        0.0000        3.5064        3.5064       3.073604       0.00617
  40    0.5894        0.4328        0.0000        3.5062        3.5062       3.073485       0.00633
  39     1.339        0.4328        0.0000        3.5055        3.5055       3.072786       0.00787
  38     1.782        0.4328        0.0000        3.5050        3.5050       3.072255       0.01010
  37     2.292        0.4328        0.0000        3.5043        3.5043       3.071563       0.01147
  36     2.964        0.4328        0.0000        3.5033        3.5033       3.070573       0.01243
  35     3.853        0.4328        0.0000        3.5019        3.5019       3.069195       0.01307
  34     5.035        0.4328        0.0000        3.5001        3.5001       3.067332       0.01331
  33     6.613        0.4328        0.0000        3.4977        3.4977       3.064919       0.01290
  32     8.786        0.4328        0.0000        3.4947        3.4947       3.061940       0.01157
  31     11.80        0.4328        0.0000        3.4910        3.4910       3.058297       0.01020
  30     15.07        0.4328        0.0000        3.4878        3.4878       3.055067       0.00834
  29     18.79        0.4328        0.0000        3.4847        3.4847       3.051988       0.00698
  28     23.16        0.4328        0.0000        3.4815        3.4815       3.048745       0.00627
  27     28.12        0.4328        0.0000        3.4778        3.4779       3.045101       0.00620
  26     33.73        0.4328        0.0000        3.4733        3.4734       3.040604       0.00676
  25     40.54        0.4328        0.0000        3.4670        3.4670       3.034241       0.00789
  24     48.69        0.4328        0.0000        3.4580        3.4580       3.025282       0.00927
  23     57.69        0.4328        0.0000        3.4469        3.4469       3.014138       0.01045
  22     68.43        0.4328        0.0000        3.4324        3.4325       2.999698       0.01135
  21     81.20        0.4328        0.0000        3.4145        3.4146       2.981762       0.01185
  20     96.49        0.4328        0.0000        3.3932        3.3932       2.960403       0.01179
  19     114.6        0.4329        0.0000        3.3504        3.3504       2.917514       0.02003
  18     136.5        0.4330        0.0001        3.3113        3.3114       2.878358       0.01506
  17     162.9        0.4332        0.0001        3.2758        3.2758       2.842635       0.01142
  16     196.4        0.4334        0.0001        3.2401        3.2402       2.806761       0.00903
  15     218.7        0.4336        0.0001        3.2204        3.2205       2.786882       0.00755
  14     243.0        0.4338        0.0001        3.2008        3.2009       2.767130       0.00685
  13     269.0        0.4340        0.0001        3.1807        3.1808       2.746737       0.00662
  12     297.5        0.4343        0.0001        3.1578        3.1579       2.723575       0.00687
  11     328.5        0.4347        0.0001        3.1296        3.1297       2.694996       0.00777
  10     361.9        0.4352        0.0001        3.0928        3.0930       2.657747       0.00942
   9     398.1        0.4360        0.0001        3.0448        3.0449       2.608935       0.01137
   8     437.6        0.4370        0.0002        2.9815        2.9817       2.544703       0.01373
   7     480.5        0.4384        0.0002        2.8989        2.8991       2.460695       0.01650
   6     533.0        0.4407        0.0002        2.7769        2.7770       2.336340       0.02000
   5     589.8        0.4440        0.0002        2.6338        2.6340       2.189962       0.02173
   4     651.6        0.4488        0.0002        2.4786        2.4788       2.030045       0.02187
   3     718.7        0.4554        0.0002        2.3189        2.3191       1.863706       0.02090
   2     792.3        0.4650        0.0002        2.1534        2.1537       1.688617       0.02008
   1     891.5        0.4831        0.0002        1.9374        1.9376       1.454556       0.01992
   0    1013.0        0.5161        0.0002        1.6921        1.6923       1.176166       0.01933



 Wavenumbers:  3250. -  4000. cm-1, ATM      1
 LEVEL PRESSURE   UPWARD FLUX   DIFDOWN FLUX  DIRDOWN FLUX  DOWNWARD FLUX   NET FLUX    HEATING RATE
          mb          W/m2          W/m2          W/m2        W/m2          W/m2       degree/day
  51    .06700        0.0140        0.0000        5.9117        5.9117       5.897636       0.00000
  50    .07753        0.0140        0.0000        5.9075        5.9075       5.893474       3.33611
  49    .09103        0.0140        0.0000        5.9052        5.9052       5.891184       1.43070
  48    0.1069        0.0140        0.0000        5.9035        5.9035       5.889471       0.91190
  47    0.1255        0.0140        0.0000        5.9019        5.9019       5.887851       0.73438
  46    0.1487        0.0140        0.0000        5.9001        5.9001       5.886116       0.63248
  45    0.1794        0.0140        0.0000        5.8982        5.8982       5.884140       0.54263
  44    0.2165        0.0140        0.0000        5.8962        5.8962       5.882192       0.44317
  43    0.2613        0.0140        0.0000        5.8943        5.8943       5.880242       0.36742
  42    0.3336        0.0140        0.0000        5.8915        5.8915       5.877486       0.32131
  41    0.4307        0.0140        0.0000        5.8881        5.8881       5.874113       0.29332
  40    0.5894        0.0140        0.0000        5.8830        5.8830       5.869007       0.27154
  39     1.339        0.0140        0.0000        5.8641        5.8641       5.850087       0.21300
  38     1.782        0.0140        0.0000        5.8561        5.8561       5.842097       0.15212
  37     2.292        0.0140        0.0000        5.8483        5.8483       5.834310       0.12897
  36     2.964        0.0141        0.0000        3.6604        3.6604       3.646352      27.46548
  35     3.853        0.0141        0.0000        3.3779        3.3779       3.363791       2.68155
  34     5.035        0.0141        0.0000        3.2463        3.2464       3.232269       0.93954
  33     6.613        0.0141        0.0000        3.1697        3.1697       3.155622       0.40975
  32     8.786        0.0141        0.0000        3.1190        3.1190       3.104890       0.19703
  31     11.80        0.0141        0.0000        3.0792        3.0792       3.065068       0.11149
  30     15.07        0.0141        0.0000        3.0518        3.0518       3.037671       0.07073
  29     18.79        0.0141        0.0000        3.0296        3.0296       3.015543       0.05017
  28     23.16        0.0141        0.0000        3.0088        3.0088       2.994742       0.04022
  27     28.12        0.0141        0.0000        2.9894        2.9894       2.975327       0.03300
  26     33.73        0.0141        0.0000        2.9710        2.9710       2.956947       0.02763
  25     40.54        0.0141        0.0000        2.9515        2.9516       2.937479       0.02415
  24     48.69        0.0141        0.0000        2.9295        2.9295       2.915440       0.02281
  23     57.69        0.0141        0.0000        2.9057        2.9058       2.891689       0.02226
  22     68.43        0.0141        0.0001        2.8780        2.8780       2.863931       0.02182
  21     81.20        0.0141        0.0001        2.8457        2.8457       2.831648       0.02133
  20     96.49        0.0141        0.0001        2.8082        2.8083       2.794231       0.02065
  19     114.6        0.0141        0.0001        2.7658        2.7659       2.751800       0.01981
  18     136.5        0.0140        0.0001        2.7184        2.7185       2.704408       0.01822
  17     162.9        0.0140        0.0001        2.6657        2.6658       2.651728       0.01684
  16     196.4        0.0140        0.0001        2.6029        2.6031       2.589049       0.01578
  15     218.7        0.0140        0.0001        2.5650        2.5651       2.551126       0.01440
  14     243.0        0.0140        0.0002        2.5262        2.5263       2.512346       0.01345
  13     269.0        0.0140        0.0002        2.4845        2.4846       2.470652       0.01353
  12     297.5        0.0140        0.0002        2.4319        2.4321       2.418078       0.01559
  11     328.5        0.0140        0.0002        2.3556        2.3558       2.341818       0.02073
  10     361.9        0.0140        0.0002        2.2453        2.2455       2.231556       0.02790
   9     398.1        0.0140        0.0002        2.0976        2.0978       2.083774       0.03443
   8     437.6        0.0141        0.0002        1.9158        1.9160       1.901923       0.03888
   7     480.5        0.0142        0.0002        1.7056        1.7058       1.691655       0.04130
   6     533.0        0.0145        0.0002        1.4421        1.4423       1.427877       0.04243
   5     589.8        0.0149        0.0002        1.1825        1.1827       1.167753       0.03861
   4     651.6        0.0157        0.0002        0.9384        0.9386       0.922880       0.03349
   3     718.7        0.0171        0.0002        0.7088        0.7089       0.691803       0.02904
   2     792.3        0.0195        0.0001        0.5010        0.5011       0.481607       0.02411
   1     891.5        0.0251        0.0001        0.2952        0.2953       0.270218       0.01799
   0    1013.0        0.0398        0.0001        0.1306        0.1307       0.090807       0.01246



 Wavenumbers:  4000. -  4650. cm-1, ATM      1
 LEVEL PRESSURE   UPWARD FLUX   DIFDOWN FLUX  DIRDOWN FLUX  DOWNWARD FLUX   NET FLUX    HEATING RATE
          mb          W/m2          W/m2          W/m2        W/m2          W/m2       degree/day
  51    .06700        1.4202        0.0000        6.9421        6.9421       5.521828       0.00000
  50    .07753        1.4202        0.0000        6.9421        6.9421       5.521827       0.00081
  49    .09103        1.4202        0.0000        6.9421        6.9421       5.521826       0.00079
  48    0.1069        1.4202        0.0000        6.9421        6.9421       5.521824       0.00078
  47    0.1255        1.4202        0.0000        6.9421        6.9421       5.521822       0.00076
  46    0.1487        1.4202        0.0000        6.9421        6.9421       5.521820       0.00077
  45    0.1794        1.4202        0.0000        6.9421        6.9421       5.521817       0.00079
  44    0.2165        1.4202        0.0000        6.9421        6.9421       5.521814       0.00078
  43    0.2613        1.4202        0.0000        6.9421        6.9421       5.521810       0.00076
  42    0.3336        1.4202        0.0000        6.9420        6.9420       5.521803       0.00078
  41    0.4307        1.4202        0.0000        6.9420        6.9420       5.521794       0.00079
  40    0.5894        1.4202        0.0000        6.9420        6.9420       5.521779       0.00081
  39     1.339        1.4202        0.0000        6.9419        6.9419       5.521688       0.00102
  38     1.782        1.4202        0.0000        6.9418        6.9419       5.521617       0.00135
  37     2.292        1.4202        0.0000        6.9417        6.9418       5.521522       0.00158
  36     2.964        1.4202        0.0000        6.9416        6.9416       5.521380       0.00178
  35     3.853        1.4202        0.0000        6.9414        6.9414       5.521169       0.00200
  34     5.035        1.4202        0.0000        6.9411        6.9411       5.520859       0.00222
  33     6.613        1.4202        0.0000        6.9406        6.9406       5.520402       0.00244
  32     8.786        1.4202        0.0000        6.9399        6.9399       5.519728       0.00262
  31     11.80        1.4202        0.0000        6.9388        6.9389       5.518672       0.00296
  30     15.07        1.4202        0.0001        6.9376        6.9376       5.517436       0.00319
  29     18.79        1.4202        0.0001        6.9361        6.9361       5.515946       0.00338
  28     23.16        1.4202        0.0001        6.9342        6.9343       5.514103       0.00356
  27     28.12        1.4202        0.0001        6.9319        6.9320       5.511879       0.00378
  26     33.73        1.4202        0.0001        6.9292        6.9293       5.509149       0.00410
  25     40.54        1.4201        0.0002        6.9255        6.9256       5.505465       0.00457
  24     48.69        1.4201        0.0002        6.9205        6.9207       5.500585       0.00505
  23     57.69        1.4201        0.0002        6.9147        6.9150       5.494833       0.00539
  22     68.43        1.4201        0.0003        6.9076        6.9078       5.487675       0.00563
  21     81.20        1.4202        0.0003        6.8988        6.8991       5.478916       0.00579
  20     96.49        1.4202        0.0004        6.8881        6.8885       5.468320       0.00585
  19     114.6        1.4204        0.0004        6.8642        6.8646       5.444239       0.01124
  18     136.5        1.4206        0.0005        6.8402        6.8408       5.420170       0.00925
  17     162.9        1.4209        0.0006        6.8143        6.8149       5.393986       0.00837
  16     196.4        1.4214        0.0007        6.7823        6.7831       5.361708       0.00812
  15     218.7        1.4217        0.0008        6.7620        6.7628       5.341066       0.00784
  14     243.0        1.4221        0.0009        6.7401        6.7410       5.318942       0.00767
  13     269.0        1.4226        0.0010        6.7164        6.7174       5.294868       0.00781
  12     297.5        1.4232        0.0011        6.6896        6.6907       5.267516       0.00811
  11     328.5        1.4239        0.0012        6.6574        6.6586       5.234684       0.00893
  10     361.9        1.4250        0.0013        6.6178        6.6191       5.194146       0.01026
   9     398.1        1.4264        0.0015        6.5679        6.5693       5.142897       0.01194
   8     437.6        1.4284        0.0016        6.5040        6.5056       5.077281       0.01403
   7     480.5        1.4310        0.0017        6.4219        6.4236       4.992573       0.01664
   6     533.0        1.4350        0.0019        6.3045        6.3064       4.871381       0.01950
   5     589.8        1.4402        0.0021        6.1698        6.1719       4.731688       0.02073
   4     651.6        1.4471        0.0022        6.0220        6.0243       4.577150       0.02113
   3     718.7        1.4566        0.0024        5.8552        5.8576       4.401042       0.02213
   2     792.3        1.4698        0.0026        5.6591        5.6617       4.191947       0.02398
   1     891.5        1.4940        0.0028        5.3782        5.3810       3.887001       0.02595
   0    1013.0        1.5388        0.0030        5.0428        5.0459       3.507055       0.02638



 Wavenumbers:  4650. -  5150. cm-1, ATM      1
 LEVEL PRESSURE   UPWARD FLUX   DIFDOWN FLUX  DIRDOWN FLUX  DOWNWARD FLUX   NET FLUX    HEATING RATE
          mb          W/m2          W/m2          W/m2        W/m2          W/m2       degree/day
  51    .06700        0.9666        0.0000        6.5710        6.5710       5.604415       0.00000
  50    .07753        0.9666        0.0000        6.5708        6.5708       5.604184       0.18562
  49    .09103        0.9666        0.0000        6.5705        6.5705       5.603895       0.18044
  48    0.1069        0.9666        0.0000        6.5701        6.5701       5.603566       0.17497
  47    0.1255        0.9666        0.0000        6.5698        6.5698       5.603193       0.16939
  46    0.1487        0.9666        0.0000        6.5693        6.5693       5.602727       0.16966
  45    0.1794        0.9666        0.0000        6.5687        6.5687       5.602102       0.17167
  44    0.2165        0.9666        0.0000        6.5680        6.5680       5.601377       0.16496
  43    0.2613        0.9666        0.0000        6.5671        6.5671       5.600539       0.15801
  42    0.3336        0.9666        0.0000        6.5658        6.5658       5.599199       0.15621
  41    0.4307        0.9666        0.0000        6.5641        6.5641       5.597501       0.14758
  40    0.5894        0.9666        0.0000        6.5615        6.5615       5.594923       0.13712
  39     1.339        0.9666        0.0000        6.5518        6.5519       5.585285       0.10851
  38     1.782        0.9666        0.0000        6.5477        6.5477       5.581108       0.07951
  37     2.292        0.9666        0.0000        6.5438        6.5438       5.577229       0.06425
  36     2.964        0.9666        0.0000        6.5398        6.5398       5.573247       0.04999
  35     3.853        0.9666        0.0000        6.5358        6.5358       5.569246       0.03797
  34     5.035        0.9665        0.0000        6.5317        6.5317       5.565174       0.02909
  33     6.613        0.9665        0.0000        6.5272        6.5273       5.560716       0.02383
  32     8.786        0.9665        0.0001        6.5217        6.5217       5.555178       0.02151
  31     11.80        0.9665        0.0001        6.5135        6.5136       5.547056       0.02274
  30     15.07        0.9665        0.0001        6.5041        6.5042       5.537648       0.02429
  29     18.79        0.9665        0.0001        6.4925        6.4926       5.526091       0.02620
  28     23.16        0.9665        0.0001        6.4778        6.4779       5.511448       0.02832
  27     28.12        0.9665        0.0002        6.4598        6.4599       5.493456       0.03058
  26     33.73        0.9665        0.0002        6.4383        6.4385       5.472042       0.03220
  25     40.54        0.9665        0.0002        6.4112        6.4115       5.444980       0.03357
  24     48.69        0.9665        0.0003        6.3776        6.3779       5.411438       0.03471
  23     57.69        0.9665        0.0003        6.3406        6.3409       5.374439       0.03468
  22     68.43        0.9665        0.0004        6.2975        6.2979       5.331328       0.03389
  21     81.20        0.9666        0.0005        6.2487        6.2491       5.282540       0.03224
  20     96.49        0.9667        0.0005        6.1953        6.1958       5.229118       0.02949
  19     114.6        0.9669        0.0006        6.1340        6.1347       5.167797       0.02863
  18     136.5        0.9672        0.0008        6.0710        6.0718       5.104601       0.02430
  17     162.9        0.9675        0.0009        6.0045        6.0054       5.037840       0.02134
  16     196.4        0.9681        0.0011        5.9251        5.9262       4.958045       0.02009
  15     218.7        0.9686        0.0012        5.8744        5.8756       4.907030       0.01937
  14     243.0        0.9691        0.0013        5.8192        5.8205       4.851431       0.01928
  13     269.0        0.9697        0.0014        5.7586        5.7600       4.790320       0.01982
  12     297.5        0.9704        0.0016        5.6907        5.6923       4.721816       0.02032
  11     328.5        0.9714        0.0017        5.6138        5.6155       4.644115       0.02113
  10     361.9        0.9727        0.0018        5.5255        5.5274       4.554679       0.02263
   9     398.1        0.9744        0.0020        5.4236        5.4257       4.451247       0.02410
   8     437.6        0.9767        0.0022        5.3065        5.3087       4.331985       0.02550
   7     480.5        0.9797        0.0023        5.1741        5.1764       4.196706       0.02657
   6     533.0        0.9843        0.0025        5.0010        5.0035       4.019187       0.02856
   5     589.8        0.9905        0.0027        4.8101        4.8128       3.822348       0.02922
   4     651.6        0.9987        0.0029        4.6060        4.6088       3.610137       0.02902
   3     718.7        1.0097        0.0031        4.3926        4.3956       3.385907       0.02818
   2     792.3        1.0246        0.0032        4.1726        4.1759       3.151306       0.02691
   1     891.5        1.0506        0.0034        3.8944        3.8978       2.847233       0.02588
   0    1013.0        1.0943        0.0037        3.5849        3.5885       2.494215       0.02451



 Wavenumbers:  5150. -  6150. cm-1, ATM      1
 LEVEL PRESSURE   UPWARD FLUX   DIFDOWN FLUX  DIRDOWN FLUX  DOWNWARD FLUX   NET FLUX    HEATING RATE
          mb          W/m2          W/m2          W/m2        W/m2          W/m2       degree/day
  51    .06700        2.5019        0.0000       16.4735       16.4735      13.971591       0.00000
  50    .07753        2.5019        0.0000       16.4735       16.4735      13.971591       0.00019
  49    .09103        2.5019        0.0000       16.4735       16.4735      13.971590       0.00019
  48    0.1069        2.5019        0.0000       16.4735       16.4735      13.971590       0.00018
  47    0.1255        2.5019        0.0000       16.4735       16.4735      13.971590       0.00018
  46    0.1487        2.5019        0.0000       16.4735       16.4735      13.971589       0.00018
  45    0.1794        2.5019        0.0000       16.4735       16.4735      13.971588       0.00019
  44    0.2165        2.5019        0.0000       16.4735       16.4735      13.971588       0.00018
  43    0.2613        2.5019        0.0000       16.4735       16.4735      13.971587       0.00018
  42    0.3336        2.5019        0.0000       16.4735       16.4735      13.971585       0.00019
  41    0.4307        2.5019        0.0000       16.4735       16.4735      13.971583       0.00019
  40    0.5894        2.5019        0.0000       16.4735       16.4735      13.971579       0.00019
  39     1.339        2.5019        0.0000       16.4734       16.4734      13.971558       0.00024
  38     1.782        2.5019        0.0000       16.4734       16.4734      13.971541       0.00032
  37     2.292        2.5019        0.0001       16.4733       16.4734      13.971518       0.00038
  36     2.964        2.5029        0.0001       14.6166       14.6167      12.113813      23.31981
  35     3.853        2.5034        0.0001       14.3304       14.3305      11.827148       2.72050
  34     5.035        2.5037        0.0001       14.1887       14.1888      11.685144       1.01442
  33     6.613        2.5039        0.0002       14.1058       14.1059      11.602025       0.44435
  32     8.786        2.5040        0.0002       14.0517       14.0519      11.547864       0.21034
  31     11.80        2.5041        0.0003       14.0102       14.0105      11.506332       0.11628
  30     15.07        2.5042        0.0004       13.9824       13.9828      11.478564       0.07169
  29     18.79        2.5042        0.0005       13.9607       13.9611      11.456923       0.04907
  28     23.16        2.5043        0.0006       13.9411       13.9416      11.437368       0.03781
  27     28.12        2.5043        0.0007       13.9236       13.9243      11.420010       0.02951
  26     33.73        2.5043        0.0008       13.9079       13.9087      11.404439       0.02341
  25     40.54        2.5043        0.0009       13.8919       13.8928      11.388504       0.01977
  24     48.69        2.5043        0.0011       13.8734       13.8745      11.370198       0.01894
  23     57.69        2.5044        0.0013       13.8533       13.8546      11.350213       0.01873
  22     68.43        2.5045        0.0016       13.8296       13.8311      11.326673       0.01851
  21     81.20        2.5046        0.0019       13.8019       13.8037      11.299149       0.01819
  20     96.49        2.5047        0.0022       13.7698       13.7720      11.267325       0.01756
  19     114.6        2.5049        0.0026       13.7332       13.7358      11.230996       0.01696
  18     136.5        2.5050        0.0031       13.6925       13.6956      11.190559       0.01555
  17     162.9        2.5052        0.0036       13.6485       13.6521      11.146911       0.01395
  16     196.4        2.5054        0.0044       13.5982       13.6026      11.097160       0.01252
  15     218.7        2.5055        0.0049       13.5689       13.5738      11.068273       0.01097
  14     243.0        2.5056        0.0054       13.5385       13.5438      11.038236       0.01042
  13     269.0        2.5057        0.0060       13.5045       13.5105      11.004767       0.01086
  12     297.5        2.5058        0.0066       13.4591       13.4657      10.959853       0.01332
  11     328.5        2.5060        0.0072       13.3867       13.3940      10.887958       0.01955
  10     361.9        2.5063        0.0079       13.2664       13.2743      10.768015       0.03035
   9     398.1        2.5068        0.0086       13.0754       13.0841      10.577280       0.04444
   8     437.6        2.5076        0.0093       12.7892       12.7985      10.290975       0.06121
   7     480.5        2.5088        0.0100       12.3876       12.3976       9.888789       0.07899
   6     533.0        2.5111        0.0107       11.7915       11.8022       9.291084       0.09615
   5     589.8        2.5148        0.0113       11.1438       11.1551       8.640310       0.09660
   4     651.6        2.5207        0.0119       10.5277       10.5396       8.018911       0.08498
   3     718.7        2.5299        0.0125        9.9891       10.0016       7.471689       0.06877
   2     792.3        2.5445        0.0131        9.5389        9.5520       7.007527       0.05323
   1     891.5        2.5742        0.0141        9.0848        9.0989       6.524695       0.04109
   0    1013.0        2.6342        0.0153        8.6241        8.6393       6.005169       0.03607



 Wavenumbers:  6150. -  7700. cm-1, ATM      1
 LEVEL PRESSURE   UPWARD FLUX   DIFDOWN FLUX  DIRDOWN FLUX  DOWNWARD FLUX   NET FLUX    HEATING RATE
          mb          W/m2          W/m2          W/m2        W/m2          W/m2       degree/day
  51    .06700        4.1028        0.0000       30.4684       30.4684      26.365627       0.00000
  50    .07753        4.1028        0.0000       30.4684       30.4684      26.365611       0.01303
  49    .09103        4.1028        0.0000       30.4683       30.4683      26.365591       0.01277
  48    0.1069        4.1027        0.0000       30.4683       30.4683      26.365567       0.01250
  47    0.1255        4.1027        0.0000       30.4683       30.4683      26.365540       0.01223
  46    0.1487        4.1027        0.0000       30.4682       30.4683      26.365506       0.01241
  45    0.1794        4.1027        0.0000       30.4682       30.4682      26.365460       0.01276
  44    0.2165        4.1027        0.0000       30.4681       30.4681      26.365405       0.01252
  43    0.2613        4.1027        0.0000       30.4681       30.4681      26.365340       0.01228
  42    0.3336        4.1027        0.0000       30.4679       30.4680      26.365232       0.01256
  41    0.4307        4.1027        0.0000       30.4678       30.4678      26.365089       0.01241
  40    0.5894        4.1027        0.0001       30.4675       30.4676      26.364856       0.01239
  39     1.339        4.1026        0.0001       30.4662       30.4664      26.363757       0.01238
  38     1.782        4.1026        0.0002       30.4655       30.4657      26.363112       0.01227
  37     2.292        4.1025        0.0002       30.4647       30.4649      26.362367       0.01234
  36     2.964        4.1037        0.0004       27.3834       27.3838      23.280080      38.69201
  35     3.853        4.1042        0.0005       26.9700       26.9705      22.866219       3.92762
  34     5.035        4.1045        0.0006       26.7629       26.7635      22.658961       1.48056
  33     6.613        4.1047        0.0007       26.6425       26.6433      22.538621       0.64334
  32     8.786        4.1047        0.0010       26.5650       26.5659      22.461260       0.30044
  31     11.80        4.1046        0.0013       26.5061       26.5074      22.402850       0.16353
  30     15.07        4.1044        0.0016       26.4673       26.4689      22.364510       0.09899
  29     18.79        4.1041        0.0019       26.4373       26.4393      22.335127       0.06662
  28     23.16        4.1038        0.0024       26.4104       26.4128      22.308957       0.05060
  27     28.12        4.1035        0.0028       26.3867       26.3896      22.286123       0.03882
  26     33.73        4.1030        0.0034       26.3658       26.3692      22.266163       0.03001
  25     40.54        4.1025        0.0040       26.3449       26.3490      22.246434       0.02448
  24     48.69        4.1019        0.0048       26.3215       26.3263      22.224410       0.02279
  23     57.69        4.1012        0.0057       26.2964       26.3021      22.200840       0.02209
  22     68.43        4.1004        0.0067       26.2671       26.2738      22.173449       0.02153
  21     81.20        4.0994        0.0080       26.2331       26.2410      22.141602       0.02104
  20     96.49        4.0982        0.0094       26.1934       26.2029      22.104631       0.02040
  19     114.6        4.0968        0.0112       26.1468       26.1580      22.061149       0.02030
  18     136.5        4.0952        0.0132       26.0930       26.1062      22.010987       0.01929
  17     162.9        4.0932        0.0157       26.0305       26.0462      21.952959       0.01855
  16     196.4        4.0907        0.0189       25.9519       25.9707      21.880036       0.01836
  15     218.7        4.0890        0.0210       25.9015       25.9224      21.833365       0.01772
  14     243.0        4.0872        0.0232       25.8475       25.8708      21.783537       0.01728
  13     269.0        4.0853        0.0257       25.7867       25.8124      21.727084       0.01831
  12     297.5        4.0832        0.0283       25.7053       25.7336      21.650367       0.02275
  11     328.5        4.0812        0.0312       25.5757       25.6069      21.525742       0.03389
  10     361.9        4.0792        0.0342       25.3610       25.3952      21.315981       0.05307
   9     398.1        4.0775        0.0372       25.0185       25.0558      20.978251       0.07868
   8     437.6        4.0764        0.0403       24.5013       24.5416      20.465190       0.10970
   7     480.5        4.0765        0.0433       23.7639       23.8072      19.730720       0.14425
   6     533.0        4.0790        0.0463       22.6326       22.6789      18.599861       0.18192
   5     589.8        4.0855        0.0490       21.3194       21.3684      17.282859       0.19549
   4     651.6        4.0981        0.0513       19.9527       20.0040      15.905874       0.18831
   3     718.7        4.1201        0.0533       18.6149       18.6683      14.548196       0.17062
   2     792.3        4.1571        0.0552       17.3347       17.3899      13.232783       0.15086
   1     891.5        4.2364        0.0575       15.8677       15.9252      11.688782       0.13139
   0    1013.0        4.4066        0.0599       14.3985       14.4585      10.051897       0.11366



 Wavenumbers:  7700. -  8050. cm-1, ATM      1
 LEVEL PRESSURE   UPWARD FLUX   DIFDOWN FLUX  DIRDOWN FLUX  DOWNWARD FLUX   NET FLUX    HEATING RATE
          mb          W/m2          W/m2          W/m2        W/m2          W/m2       degree/day
  51    .06700        1.7302        0.0000        7.2006        7.2006       5.470411       0.00000
  50    .07753        1.7302        0.0000        7.2006        7.2006       5.470392       0.01514
  49    .09103        1.7302        0.0000        7.2005        7.2005       5.470368       0.01483
  48    0.1069        1.7302        0.0000        7.2005        7.2005       5.470341       0.01452
  47    0.1255        1.7302        0.0000        7.2005        7.2005       5.470309       0.01421
  46    0.1487        1.7302        0.0000        7.2004        7.2005       5.470270       0.01442
  45    0.1794        1.7302        0.0000        7.2004        7.2004       5.470216       0.01484
  44    0.2165        1.7302        0.0000        7.2003        7.2003       5.470152       0.01455
  43    0.2613        1.7302        0.0000        7.2003        7.2003       5.470076       0.01428
  42    0.3336        1.7302        0.0000        7.2001        7.2001       5.469951       0.01461
  41    0.4307        1.7302        0.0000        7.2000        7.2000       5.469785       0.01445
  40    0.5894        1.7302        0.0000        7.1997        7.1997       5.469513       0.01443
  39     1.339        1.7303        0.0001        7.1984        7.1985       5.468229       0.01445
  38     1.782        1.7303        0.0001        7.1977        7.1978       5.467476       0.01435
  37     2.292        1.7303        0.0001        7.1968        7.1969       5.466604       0.01444
  36     2.964        1.7303        0.0002        7.1957        7.1958       5.465459       0.01437
  35     3.853        1.7304        0.0002        7.1941        7.1943       5.463948       0.01434
  34     5.035        1.7305        0.0003        7.1922        7.1924       5.461941       0.01433
  33     6.613        1.7306        0.0003        7.1895        7.1898       5.459264       0.01431
  32     8.786        1.7307        0.0004        7.1859        7.1864       5.455661       0.01399
  31     11.80        1.7309        0.0006        7.1809        7.1814       5.450519       0.01440
  30     15.07        1.7311        0.0007        7.1754        7.1762       5.445014       0.01421
  29     18.79        1.7314        0.0009        7.1693        7.1702       5.438816       0.01405
  28     23.16        1.7317        0.0011        7.1622        7.1633       5.431603       0.01395
  27     28.12        1.7320        0.0013        7.1541        7.1554       5.423392       0.01396
  26     33.73        1.7324        0.0016        7.1451        7.1466       5.414250       0.01374
  25     40.54        1.7329        0.0019        7.1343        7.1361       5.403273       0.01362
  24     48.69        1.7334        0.0022        7.1213        7.1236       5.390136       0.01359
  23     57.69        1.7340        0.0026        7.1073        7.1099       5.375830       0.01341
  22     68.43        1.7348        0.0031        7.0907        7.0937       5.358958       0.01326
  21     81.20        1.7357        0.0036        7.0711        7.0748       5.339089       0.01313
  20     96.49        1.7367        0.0043        7.0482        7.0525       5.315736       0.01289
  19     114.6        1.7380        0.0051        7.0213        7.0264       5.288351       0.01279
  18     136.5        1.7396        0.0060        6.9901        6.9961       5.256507       0.01224
  17     162.9        1.7415        0.0071        6.9538        6.9609       5.219403       0.01186
  16     196.4        1.7440        0.0086        6.9079        6.9165       5.172459       0.01182
  15     218.7        1.7457        0.0095        6.8786        6.8881       5.142349       0.01143
  14     243.0        1.7476        0.0105        6.8473        6.8578       5.110190       0.01115
  13     269.0        1.7497        0.0116        6.8140        6.8256       5.075961       0.01110
  12     297.5        1.7519        0.0128        6.7787        6.7915       5.039571       0.01079
  11     328.5        1.7545        0.0140        6.7414        6.7555       5.000983       0.01049
  10     361.9        1.7573        0.0154        6.7019        6.7173       4.960010       0.01037
   9     398.1        1.7604        0.0169        6.6600        6.6769       4.916535       0.01013
   8     437.6        1.7638        0.0184        6.6157        6.6342       4.870338       0.00988
   7     480.5        1.7677        0.0201        6.5688        6.5889       4.821177       0.00966
   6     533.0        1.7727        0.0221        6.5112        6.5333       4.760612       0.00974
   5     589.8        1.7786        0.0243        6.4491        6.4734       4.694877       0.00976
   4     651.6        1.7853        0.0266        6.3821        6.4087       4.623438       0.00977
   3     718.7        1.7931        0.0291        6.3094        6.3386       4.545455       0.00980
   2     792.3        1.8023        0.0318        6.2302        6.2620       4.459716       0.00983
   1     891.5        1.8160        0.0353        6.1205        6.1557       4.339769       0.01021
   0    1013.0        1.8348        0.0394        5.9833        6.0227       4.187916       0.01054



 Wavenumbers:  8050. - 12850. cm-1, ATM      1
 LEVEL PRESSURE   UPWARD FLUX   DIFDOWN FLUX  DIRDOWN FLUX  DOWNWARD FLUX   NET FLUX    HEATING RATE
          mb          W/m2          W/m2          W/m2        W/m2          W/m2       degree/day
  51    .06700       25.2386        0.0000      100.8135      100.8135      75.574898       0.00000
  50    .07753       25.2386        0.0000      100.8135      100.8135      75.574898       0.00000
  49    .09103       25.2386        0.0001      100.8134      100.8135      75.574898       0.00000
  48    0.1069       25.2385        0.0001      100.8134      100.8134      75.574898      -0.00000
  47    0.1255       25.2385        0.0001      100.8133      100.8134      75.574898       0.00000
  46    0.1487       25.2385        0.0002      100.8132      100.8134      75.574898       0.00000
  45    0.1794       25.2384        0.0002      100.8131      100.8133      75.574898       0.00000
  44    0.2165       25.2384        0.0003      100.8129      100.8133      75.574898      -0.00000
  43    0.2613       25.2383        0.0004      100.8127      100.8132      75.574898       0.00000
  42    0.3336       25.2382        0.0006      100.8125      100.8130      75.574898       0.00000
  41    0.4307       25.2380        0.0008      100.8121      100.8129      75.574898      -0.00000
  40    0.5894       25.2377        0.0012      100.8115      100.8126      75.574898       0.00000
  39     1.339       25.2364        0.0028      100.8085      100.8113      75.574898       0.00000
  38     1.782       25.2356        0.0038      100.8068      100.8105      75.574898       0.00000
  37     2.292       25.2347        0.0049      100.8047      100.8096      75.574898      -0.00000
  36     2.964       25.2325        0.0077      100.7998      100.8074      75.574898       0.00000
  35     3.853       25.2306        0.0101      100.7954      100.8055      75.574898       0.00000
  34     5.035       25.2284        0.0129      100.7903      100.8033      75.574898      -0.00000
  33     6.613       25.2255        0.0165      100.7839      100.8004      75.574898       0.00000
  32     8.786       25.2218        0.0213      100.7754      100.7967      75.574898       0.00000
  31     11.80       25.2164        0.0280      100.7634      100.7913      75.574898       0.00000
  30     15.07       25.2107        0.0352      100.7504      100.7856      75.574898       0.00000
  29     18.79       25.2043        0.0433      100.7359      100.7792      75.574898       0.00000
  28     23.16       25.1967        0.0528      100.7188      100.7716      75.574898      -0.00000
  27     28.12       25.1881        0.0637      100.6993      100.7630      75.574898       0.00000
  26     33.73       25.1785        0.0759      100.6775      100.7534      75.574898      -0.00000
  25     40.54       25.1668        0.0906      100.6511      100.7417      75.574898       0.00000
  24     48.69       25.1527        0.1084      100.6192      100.7276      75.574898       0.00000
  23     57.69       25.1371        0.1279      100.5841      100.7120      75.574898       0.00000
  22     68.43       25.1186        0.1513      100.5422      100.6935      75.574898       0.00000
  21     81.20       25.0965        0.1791      100.4923      100.6714      75.574898       0.00000
  20     96.49       25.0701        0.2123      100.4327      100.6450      75.574898       0.00000
  19     114.6       25.0411        0.2516      100.1663      100.4179      75.376751       0.09252
  18     136.5       25.0061        0.2982       99.9246      100.2228      75.216743       0.06153
  17     162.9       24.9636        0.3538       99.6916      100.0454      75.081871       0.04311
  16     196.4       24.9074        0.4261       99.4363       99.8623      74.954992       0.03194
  15     218.7       24.8700        0.4736       99.2859       99.7595      74.889511       0.02486
  14     243.0       24.8293        0.5254       99.1320       99.6573      74.828071       0.02131
  13     269.0       24.7850        0.5815       98.9686       99.5501      74.765046       0.02045
  12     297.5       24.7373        0.6422       98.7801       99.4224      74.685119       0.02371
  11     328.5       24.6860        0.7079       98.5399       99.2478      74.561761       0.03354
  10     361.9       24.6317        0.7784       98.2187       98.9972      74.365462       0.04967
   9     398.1       24.5747        0.8541       97.7840       98.6381      74.063432       0.07037
   8     437.6       24.5159        0.9348       97.1948       98.1295      73.613654       0.09617
   7     480.5       24.4571        1.0203       96.3957       97.4161      72.958957       0.12858
   6     533.0       24.3937        1.1237       95.1583       96.2820      71.888312       0.17223
   5     589.8       24.3385        1.2326       93.5924       94.8249      70.486388       0.20809
   4     651.6       24.2983        1.3464       91.7127       93.0590      68.760779       0.23598
   3     718.7       24.2830        1.4645       89.5326       90.9970      66.714027       0.25722
   2     792.3       24.3094        1.5859       87.0777       88.6636      64.354250       0.27064
   1     891.5       24.4338        1.7423       83.7311       85.4734      61.039579       0.28206
   0    1013.0       24.7822        1.9189       79.6759       81.5947      56.812537       0.29351



 Wavenumbers: 12850. - 16000. cm-1, ATM      1
 LEVEL PRESSURE   UPWARD FLUX   DIFDOWN FLUX  DIRDOWN FLUX  DOWNWARD FLUX   NET FLUX    HEATING RATE
          mb          W/m2          W/m2          W/m2        W/m2          W/m2       degree/day
  51    .06700       32.7387        0.0000       63.1686       63.1686      30.429873       0.00000
  50    .07753       32.7387        0.0001       63.1677       63.1678      30.429094       0.62467
  49    .09103       32.7386        0.0001       63.1666       63.1668      30.428123       0.60699
  48    0.1069       32.7386        0.0002       63.1654       63.1656      30.427017       0.58852
  47    0.1255       32.7386        0.0003       63.1640       63.1643      30.425760       0.56998
  46    0.1487       32.7385        0.0004       63.1623       63.1627      30.424192       0.57142
  45    0.1794       32.7385        0.0006       63.1600       63.1606      30.422091       0.57698
  44    0.2165       32.7384        0.0008       63.1573       63.1581      30.419660       0.55291
  43    0.2613       32.7384        0.0010       63.1542       63.1552      30.416857       0.52829
  42    0.3336       32.7383        0.0014       63.1493       63.1507      30.412392       0.52062
  41    0.4307       32.7382        0.0019       63.1431       63.1450      30.406797       0.48648
  40    0.5894       32.7382        0.0027       63.1338       63.1365      30.398326       0.45047
  39     1.339       32.7393        0.0065       63.0955       63.1020      30.362783       0.40015
  38     1.782       32.7408        0.0088       63.0739       63.0827      30.341864       0.39826
  37     2.292       32.7435        0.0114       63.0474       63.0588      30.315312       0.43978
  36     2.964       32.7464        0.0178       63.0042       63.0220      30.275574       0.49882
  35     3.853       32.7540        0.0235       62.9458       62.9693      30.215346       0.57158
  34     5.035       32.7665        0.0300       62.8640       62.8940      30.127555       0.62714
  33     6.613       32.7844        0.0383       62.7530       62.7912      30.006854       0.64527
  32     8.786       32.8077        0.0491       62.6088       62.6579      29.850263       0.60814
  31     11.80       32.8374        0.0646       62.4186       62.4831      29.645721       0.57265
  30     15.07       32.8652        0.0810       62.2326       62.3137      29.448484       0.50923
  29     18.79       32.8927        0.0995       62.0392       62.1387      29.245970       0.45916
  28     23.16       32.9205        0.1211       61.8322       61.9533      29.032786       0.41223
  27     28.12       32.9472        0.1457       61.6175       61.7632      28.816011       0.36850
  26     33.73       32.9697        0.1732       61.4074       61.5805      28.610822       0.30851
  25     40.54       32.9884        0.2063       61.1880       61.3943      28.405912       0.25421
  24     48.69       33.0027        0.2461       60.9578       61.2039      28.201198       0.21185
  23     57.69       33.0105        0.2899       60.7376       61.0275      28.017046       0.17261
  22     68.43       33.0111        0.3419       60.5101       60.8520      27.840918       0.13846
  21     81.20       33.0000        0.4038       60.2838       60.6877      27.687668       0.10127
  20     96.49       32.9759        0.4776       60.0544       60.5319      27.556085       0.07262
  19     114.6       32.9463        0.5656       59.7948       60.3604      27.414149       0.06627
  18     136.5       32.9066        0.6697       59.4998       60.1694      27.262879       0.05817
  17     162.9       32.8551        0.7933       59.1585       59.9517      27.096606       0.05315
  16     196.4       32.7795        0.9531       58.7398       59.6928      26.913366       0.04612
  15     218.7       32.7266        1.0577       58.4739       59.5316      26.805061       0.04112
  14     243.0       32.6677        1.1712       58.1895       59.3608      26.693113       0.03883
  13     269.0       32.6023        1.2939       57.8869       59.1809      26.578560       0.03716
  12     297.5       32.5304        1.4262       57.5652       58.9914      26.461006       0.03487
  11     328.5       32.4522        1.5688       57.2204       58.7892      26.336925       0.03374
  10     361.9       32.3680        1.7218       56.8509       58.5727      26.204749       0.03344
   9     398.1       32.2774        1.8860       56.4540       58.3400      26.062631       0.03311
   8     437.6       32.1810        2.0618       56.0256       58.0874      25.906433       0.03340
   7     480.5       32.0791        2.2494       55.5611       57.8105      25.731446       0.03437
   6     533.0       31.9571        2.4792       54.9774       57.4566      25.499489       0.03731
   5     589.8       31.8310        2.7254       54.3321       57.0575      25.226483       0.04052
   4     651.6       31.7031        2.9881       53.6203       56.6084      24.905329       0.04392
   3     718.7       31.5766        3.2675       52.8372       56.1047      24.528021       0.04742
   2     792.3       31.4573        3.5629       51.9784       55.5413      24.084015       0.05092
   1     891.5       31.3279        3.9550       50.7953       54.7503      23.422349       0.05630
   0    1013.0       31.2346        4.4150       49.3438       53.7588      22.524180       0.06236



 Wavenumbers: 16000. - 22650. cm-1, ATM      1
 LEVEL PRESSURE   UPWARD FLUX   DIFDOWN FLUX  DIRDOWN FLUX  DOWNWARD FLUX   NET FLUX    HEATING RATE
          mb          W/m2          W/m2          W/m2        W/m2          W/m2       degree/day
  51    .06700       74.0259        0.0000      100.7153      100.7153      26.689434       0.00000
  50    .07753       74.0257        0.0003      100.7147      100.7151      26.689318       0.09350
  49    .09103       74.0256        0.0007      100.7140      100.7147      26.689148       0.10605
  48    0.1069       74.0254        0.0012      100.7131      100.7143      26.688921       0.12093
  47    0.1255       74.0252        0.0017      100.7121      100.7138      26.688617       0.13784
  46    0.1487       74.0250        0.0024      100.7108      100.7132      26.688169       0.16334
  45    0.1794       74.0248        0.0033      100.7089      100.7122      26.687468       0.19232
  44    0.2165       74.0245        0.0044      100.7066      100.7110      26.686518       0.21615
  43    0.2613       74.0242        0.0057      100.7037      100.7094      26.685229       0.24300
  42    0.3336       74.0238        0.0079      100.6987      100.7066      26.682778       0.28576
  41    0.4307       74.0234        0.0108      100.6918      100.7025      26.679084       0.32121
  40    0.5894       74.0231        0.0154      100.6797      100.6952      26.672038       0.37466
  39     1.339       74.0270        0.0375      100.6095      100.6470      26.619997       0.58589
  38     1.782       74.0332        0.0504      100.5585      100.6089      26.575677       0.84377
  37     2.292       74.0441        0.0654      100.4903      100.5557      26.511545       1.06219
  36     2.964       74.0554        0.1026      100.3605      100.4631      26.407706       1.30349
  35     3.853       74.0865        0.1351      100.1945      100.3296      26.243074       1.56239
  34     5.035       74.1386        0.1726       99.9637      100.1364      25.997734       1.75260
  33     6.613       74.2136        0.2201       99.6508       99.8709      25.657322       1.81984
  32     8.786       74.3111        0.2826       99.2438       99.5264      25.215298       1.71666
  31     11.80       74.4355        0.3709       98.7047       99.0757      24.640155       1.61022
  30     15.07       74.5513        0.4652       98.1747       98.6399      24.088589       1.42403
  29     18.79       74.6661        0.5712       97.6199       98.1912      23.525037       1.27774
  28     23.16       74.7816        0.6945       97.0220       97.7164      22.934823       1.14128
  27     28.12       74.8920        0.8348       96.3955       97.2303      22.338298       1.01405
  26     33.73       74.9844        0.9913       95.7730       96.7643      21.779910       0.83955
  25     40.54       75.0599        1.1797       95.1101       96.2898      21.229927       0.68232
  24     48.69       75.1160        1.4059       94.3975       95.8034      20.687392       0.56144
  23     57.69       75.1440        1.6534       93.6973       95.3507      20.206751       0.45053
  22     68.43       75.1411        1.9469       92.9513       94.8982      19.757152       0.35345
  21     81.20       75.0880        2.2952       92.1794       94.4746      19.386543       0.24489
  20     96.49       74.9791        2.7082       91.3676       94.0758      19.096717       0.15996
  19     114.6       74.8273        3.1953       90.4635       93.6588      18.831506       0.12383
  18     136.5       74.6327        3.7676       89.4367       93.2043      18.571613       0.09994
  17     162.9       74.3886        4.4422       88.2588       92.7010      18.312432       0.08284
  16     196.4       74.0439        5.3069       86.8175       92.1244      18.080459       0.05839
  15     218.7       73.8081        5.8684       85.9064       91.7749      17.966782       0.04316
  14     243.0       73.5482        6.4732       84.9369       91.4101      17.861852       0.03639
  13     269.0       73.2630        7.1221       83.9086       91.0307      17.767655       0.03056
  12     297.5       72.9519        7.8158       82.8208       90.6366      17.684733       0.02459
  11     328.5       72.6158        8.5567       81.6643       90.2210      17.605255       0.02161
  10     361.9       72.2546        9.3445       80.4395       89.7840      17.529466       0.01918
   9     398.1       71.8672       10.1811       79.1432       89.3243      17.457065       0.01687
   8     437.6       71.4538       11.0666       77.7736       88.8402      17.386371       0.01511
   7     480.5       71.0139       12.0012       76.3301       88.3313      17.317466       0.01353
   6     533.0       70.4777       13.1315       74.5850       87.7164      17.238717       0.01267
   5     589.8       69.9074       14.3253       72.7395       87.0648      17.157412       0.01207
   4     651.6       69.3038       15.5808       70.7945       86.3753      17.071512       0.01175
   3     718.7       68.6677       16.8962       68.7504       85.6466      16.978919       0.01164
   2     792.3       68.0011       18.2668       66.6113       84.8781      16.877025       0.01169
   1     891.5       67.1265       20.0560       63.8008       83.8568      16.730335       0.01248
   0    1013.0       66.1162       22.1126       60.5393       82.6520      16.535750       0.01351



 Wavenumbers: 22650. - 29000. cm-1, ATM      1
 LEVEL PRESSURE   UPWARD FLUX   DIFDOWN FLUX  DIRDOWN FLUX  DOWNWARD FLUX   NET FLUX    HEATING RATE
          mb          W/m2          W/m2          W/m2        W/m2          W/m2       degree/day
  51    .06700       32.0548        0.0000       38.0063       38.0063       5.951531       0.00000
  50    .07753       32.0546        0.0004       38.0057       38.0061       5.951531      -0.00000
  49    .09103       32.0544        0.0009       38.0050       38.0059       5.951531       0.00000
  48    0.1069       32.0541        0.0014       38.0042       38.0056       5.951531       0.00000
  47    0.1255       32.0538        0.0020       38.0033       38.0054       5.951531      -0.00000
  46    0.1487       32.0535        0.0028       38.0022       38.0050       5.951531       0.00000
  45    0.1794       32.0530        0.0039       38.0006       38.0045       5.951531       0.00000
  44    0.2165       32.0524        0.0052       37.9987       38.0039       5.951531      -0.00000
  43    0.2613       32.0517        0.0067       37.9965       38.0032       5.951531       0.00000
  42    0.3336       32.0505        0.0092       37.9928       38.0021       5.951531      -0.00000
  41    0.4307       32.0490        0.0125       37.9880       38.0005       5.951531       0.00000
  40    0.5894       32.0465        0.0180       37.9800       37.9980       5.951531       0.00000
  39     1.339       32.0347        0.0437       37.9425       37.9862       5.951531       0.00000
  38     1.782       32.0277        0.0588       37.9204       37.9793       5.951531       0.00000
  37     2.292       32.0197        0.0763       37.8949       37.9712       5.951531      -0.00000
  36     2.964       31.9998        0.1196       37.8317       37.9513       5.951531       0.00000
  35     3.853       31.9824        0.1575       37.7764       37.9339       5.951531       0.00000
  34     5.035       31.9623        0.2013       37.7125       37.9138       5.951531       0.00000
  33     6.613       31.9368        0.2568       37.6315       37.8883       5.951531       0.00000
  32     8.786       31.9032        0.3298       37.5249       37.8547       5.951531       0.00000
  31     11.80       31.8556        0.4331       37.3740       37.8071       5.951531      -0.00000
  30     15.07       31.8048        0.5434       37.2130       37.7564       5.951531       0.00000
  29     18.79       31.7478        0.6672       37.0321       37.6993       5.951531      -0.00000
  28     23.16       31.6814        0.8110       36.8219       37.6329       5.951531       0.00000
  27     28.12       31.6059        0.9745       36.5828       37.5574       5.951531      -0.00000
  26     33.73       31.5218        1.1563       36.3170       37.4733       5.951531       0.00000
  25     40.54       31.4209        1.3742       35.9983       37.3724       5.951531      -0.00000
  24     48.69       31.3002        1.6343       35.6174       37.2517       5.951531       0.00000
  23     57.69       31.1688        1.9169       35.2034       37.1203       5.951531      -0.00000
  22     68.43       31.0139        2.2492       34.7163       36.9655       5.951531       0.00000
  21     81.20       30.8318        2.6390       34.1444       36.7833       5.951531      -0.00000
  20     96.49       30.6180        3.0947       33.4748       36.5695       5.951531       0.00000
  19     114.6       30.3688        3.6238       32.6965       36.3204       5.951531       0.00000
  18     136.5       30.0798        4.2343       31.7970       36.0313       5.951531      -0.00000
  17     162.9       29.7445        4.9383       30.7577       35.6960       5.951531      -0.00000
  16     196.4       29.3233        5.8153       29.4595       35.2748       5.951531       0.00000
  15     218.7       29.0549        6.3696       28.6368       35.0064       5.951531      -0.00000
  14     243.0       28.7703        6.9536       27.7682       34.7218       5.951531      -0.00000
  13     269.0       28.4700        7.5652       26.8562       34.4215       5.951531      -0.00000
  12     297.5       28.1545        8.2022       25.9039       34.1061       5.951531       0.00000
  11     328.5       27.8238        8.8637       24.9116       33.7753       5.951531      -0.00000
  10     361.9       27.4791        9.5460       23.8846       33.4306       5.951531       0.00000
   9     398.1       27.1206       10.2472       22.8250       33.0721       5.951531       0.00000
   8     437.6       26.7497       10.9628       21.7385       32.7013       5.951531       0.00000
   7     480.5       26.3673       11.6897       20.6292       32.3188       5.951531      -0.00000
   6     533.0       25.9170       12.5297       19.3389       31.8685       5.951531       0.00000
   5     589.8       25.4553       13.3717       18.0351       31.4068       5.951531       0.00000
   4     651.6       24.9843       14.2084       16.7274       30.9359       5.951531       0.00000
   3     718.7       24.5059       15.0332       15.4243       30.4575       5.951531       0.00000
   2     792.3       24.0227       15.8377       14.1366       29.9742       5.951531      -0.00000
   1     891.5       23.4147       16.8034       12.5628       29.3662       5.951531       0.00000
   0    1013.0       22.7441       17.7999       10.8956       28.6956       5.951531       0.00000



 Wavenumbers: 29000. - 38000. cm-1, ATM      1
 LEVEL PRESSURE   UPWARD FLUX   DIFDOWN FLUX  DIRDOWN FLUX  DOWNWARD FLUX   NET FLUX    HEATING RATE
          mb          W/m2          W/m2          W/m2        W/m2          W/m2       degree/day
  51    .06700        4.6987        0.0000       13.4026       13.4026       8.703917       0.00000
  50    .07753        4.6985        0.0003       13.3983       13.3986       8.700126       3.03812
  49    .09103        4.6982        0.0007       13.3921       13.3928       8.694618       3.44251
  48    0.1069        4.6979        0.0011       13.3841       13.3851       8.687255       3.91963
  47    0.1255        4.6975        0.0016       13.3734       13.3750       8.677426       4.45589
  46    0.1487        4.6971        0.0022       13.3579       13.3601       8.663010       5.25483
  45    0.1794        4.6965        0.0030       13.3342       13.3372       8.640644       6.14010
  44    0.2165        4.6958        0.0040       13.3025       13.3065       8.610645       6.82424
  43    0.2613        4.6951        0.0051       13.2605       13.2657       8.570598       7.54855
  42    0.3336        4.6938        0.0070       13.1834       13.1904       8.496603       8.62713
  41    0.4307        4.6923        0.0095       13.0730       13.0824       8.390141       9.25664
  40    0.5894        4.6899        0.0133       12.8795       12.8929       8.202981       9.95293
  39     1.339        4.6814        0.0295       11.9153       11.9449       7.263465      10.57724
  38     1.782        4.6781        0.0378       11.4377       11.4755       6.797398       8.87317
  37     2.292        4.6757        0.0466       10.9754       11.0220       6.346278       7.47172
  36     2.964        4.6660        0.0688       10.4523       10.5211       5.855133       6.16536
  35     3.853        4.6636        0.0857        9.9089        9.9946       5.331007       4.97405
  34     5.035        4.6653        0.1035        9.3643        9.4678       4.802523       3.77527
  33     6.613        4.6702        0.1247        8.8385        8.9632       4.293013       2.72384
  32     8.786        4.6775        0.1516        8.3434        8.4950       3.817516       1.84666
  31     11.80        4.6864        0.1884        7.8561        8.0445       3.358174       1.28601
  30     15.07        4.6939        0.2264        7.4785        7.7049       3.011001       0.89633
  29     18.79        4.7007        0.2678        7.1463        7.4141       2.713386       0.67479
  28     23.16        4.7067        0.3145        6.8356        7.1502       2.443482       0.52191
  27     28.12        4.7110        0.3662        6.5481        6.9143       2.203264       0.40836
  26     33.73        4.7114        0.4226        6.2904        6.7130       2.001586       0.30323
  25     40.54        4.7066        0.4892        6.0381        6.5273       1.820737       0.22436
  24     48.69        4.6959        0.5672        5.7854        6.3525       1.656619       0.16984
  23     57.69        4.6797        0.6504        5.5506        6.2010       1.521301       0.12684
  22     68.43        4.6555        0.7467        5.3112        6.0579       1.402397       0.09347
  21     81.20        4.6190        0.8584        5.0702        5.9287       1.309669       0.06127
  20     96.49        4.5690        0.9875        4.8220        5.8095       1.240499       0.03818
  19     114.6        4.5084        1.1336        4.5551        5.6887       1.180255       0.02813
  18     136.5        4.4381        1.2966        4.2653        5.5620       1.123829       0.02170
  17     162.9        4.3576        1.4778        3.9499        5.4276       1.070074       0.01718
  16     196.4        4.2556        1.6942        3.5857        5.2799       1.024320       0.01152
  15     218.7        4.1913        1.8253        3.3689        5.1941       1.002822       0.00816
  14     243.0        4.1243        1.9587        3.1491        5.1078       0.983550       0.00668
  13     269.0        4.0548        2.0934        2.9281        5.0215       0.966724       0.00546
  12     297.5        3.9832        2.2281        2.7074        4.9355       0.952296       0.00428
  11     328.5        3.9104        2.3614        2.4878        4.8492       0.938774       0.00368
  10     361.9        3.8369        2.4919        2.2711        4.7631       0.926196       0.00318
   9     398.1        3.7629        2.6186        2.0589        4.6774       0.914515       0.00272
   8     437.6        3.6889        2.7400        1.8524        4.5924       0.903501       0.00235
   7     480.5        3.6154        2.8549        1.6538        4.5087       0.893255       0.00201
   6     533.0        3.5321        2.9774        1.4370        4.4145       0.882322       0.00176
   5     589.8        3.4504        3.0882        1.2342        4.3224       0.871979       0.00154
   4     651.6        3.3708        3.1860        1.0469        4.2329       0.862120       0.00135
   3     718.7        3.2934        3.2698        0.8763        4.1461       0.852700       0.00118
   2     792.3        3.2183        3.3389        0.7231        4.0620       0.843707       0.00103
   1     891.5        3.1278        3.4040        0.5567        3.9607       0.832866       0.00092
   0    1013.0        3.0321        3.4482        0.4051        3.8533       0.821193       0.00081



 Wavenumbers: 38000. - 50000. cm-1, ATM      1
 LEVEL PRESSURE   UPWARD FLUX   DIFDOWN FLUX  DIRDOWN FLUX  DOWNWARD FLUX   NET FLUX    HEATING RATE
          mb          W/m2          W/m2          W/m2        W/m2          W/m2       degree/day
  51    .06700        0.0053        0.0000        0.8267        0.8267       0.821323       0.00000
  50    .07753        0.0053        0.0001        0.8242        0.8243       0.818990       1.86952
  49    .09103        0.0052        0.0002        0.8207        0.8209       0.815667       2.07728
  48    0.1069        0.0051        0.0002        0.8162        0.8164       0.811308       2.32015
  47    0.1255        0.0050        0.0004        0.8103        0.8106       0.805594       2.59043
  46    0.1487        0.0049        0.0005        0.8018        0.8023       0.797359       3.00192
  45    0.1794        0.0048        0.0007        0.7889        0.7896       0.784802       3.44699
  44    0.2165        0.0046        0.0009        0.7720        0.7729       0.768295       3.75510
  43    0.2613        0.0044        0.0011        0.7500        0.7511       0.746742       4.06270
  42    0.3336        0.0041        0.0015        0.7106        0.7121       0.708052       4.51087
  41    0.4307        0.0037        0.0019        0.6566        0.6584       0.654755       4.63403
  40    0.5894        0.0031        0.0024        0.5680        0.5704       0.567244       4.65376
  39     1.339        0.0017        0.0030        0.2422        0.2452       0.243471       3.64509
  38     1.782        0.0013        0.0026        0.1493        0.1519       0.150624       1.76766
  37     2.292        0.0010        0.0022        0.0924        0.0946       0.093605       0.94438
  36     2.964        0.0005        0.0020        0.0535        0.0555       0.054941       0.48535
  35     3.853        0.0003        0.0016        0.0291        0.0307       0.030353       0.23335
  34     5.035        0.0002        0.0011        0.0152        0.0163       0.016123       0.10165
  33     6.613        0.0001        0.0008        0.0072        0.0080       0.007905       0.04394
  32     8.786        0.0000        0.0005        0.0029        0.0034       0.003402       0.01749
  31     11.80        0.0000        0.0003        0.0009        0.0012       0.001212       0.00613
  30     15.07        0.0000        0.0002        0.0003        0.0005       0.000473       0.00191
  29     18.79        0.0000        0.0001        0.0001        0.0002       0.000188       0.00065
  28     23.16        0.0000        0.0000        0.0000        0.0001       0.000074       0.00022
  27     28.12        0.0000        0.0000        0.0000        0.0000       0.000029       0.00008
  26     33.73        0.0000        0.0000        0.0000        0.0000       0.000012       0.00003
  25     40.54        0.0000        0.0000        0.0000        0.0000       0.000005       0.00001
  24     48.69        0.0000        0.0000        0.0000        0.0000       0.000002       0.00000
  23     57.69        0.0000        0.0000        0.0000        0.0000       0.000001       0.00000
  22     68.43        0.0000        0.0000        0.0000        0.0000       0.000000       0.00000
  21     81.20        0.0000        0.0000        0.0000        0.0000       0.000000       0.00000
  20     96.49        0.0000        0.0000        0.0000        0.0000       0.000000       0.00000
  19     114.6        0.0000        0.0000        0.0000        0.0000       0.000000       0.00000
  18     136.5        0.0000        0.0000        0.0000        0.0000       0.000000       0.00000
  17     162.9        0.0000        0.0000        0.0000        0.0000       0.000000       0.00000
  16     196.4        0.0000        0.0000        0.0000        0.0000       0.000000       0.00000
  15     218.7        0.0000        0.0000        0.0000        0.0000       0.000000       0.00000
  14     243.0        0.0000        0.0000        0.0000        0.0000       0.000000       0.00000
  13     269.0        0.0000        0.0000        0.0000        0.0000       0.000000       0.00000
  12     297.5        0.0000        0.0000        0.0000        0.0000       0.000000       0.00000
  11     328.5        0.0000        0.0000        0.0000        0.0000       0.000000       0.00000
  10     361.9        0.0000        0.0000        0.0000        0.0000       0.000000       0.00000
   9     398.1        0.0000        0.0000        0.0000        0.0000       0.000000       0.00000
   8     437.6        0.0000        0.0000        0.0000        0.0000       0.000000       0.00000
   7     480.5        0.0000        0.0000        0.0000        0.0000       0.000000       0.00000
   6     533.0        0.0000        0.0000        0.0000        0.0000       0.000000       0.00000
   5     589.8        0.0000        0.0000        0.0000        0.0000       0.000000       0.00000
   4     651.6        0.0000        0.0000        0.0000        0.0000       0.000000       0.00000
   3     718.7        0.0000        0.0000        0.0000        0.0000       0.000000       0.00000
   2     792.3        0.0000        0.0000        0.0000        0.0000       0.000000       0.00000
   1     891.5        0.0000        0.0000        0.0000        0.0000       0.000000       0.00000
   0    1013.0        0.0000        0.0000        0.0000        0.0000       0.000000       0.00000



 Wavenumbers:   820. -  2600. cm-1, ATM      1
 LEVEL PRESSURE   UPWARD FLUX   DIFDOWN FLUX  DIRDOWN FLUX  DOWNWARD FLUX   NET FLUX    HEATING RATE
          mb          W/m2          W/m2          W/m2        W/m2          W/m2       degree/day
  51    .06700        0.1716        0.0000        3.8670        3.8670       3.695434       0.00000
  50    .07753        0.1716        0.0000        3.8644        3.8644       3.692835       2.08287
  49    .09103        0.1716        0.0000        3.8638        3.8638       3.692165       0.41878
  48    0.1069        0.1716        0.0000        3.8630        3.8630       3.691416       0.39874
  47    0.1255        0.1716        0.0000        3.8622        3.8622       3.690602       0.36879
  46    0.1487        0.1716        0.0000        3.8613        3.8613       3.689675       0.33798
  45    0.1794        0.1716        0.0000        3.8602        3.8602       3.688566       0.30446
  44    0.2165        0.1716        0.0000        3.8590        3.8590       3.687432       0.25804
  43    0.2613        0.1716        0.0000        3.8579        3.8579       3.686272       0.21851
  42    0.3336        0.1716        0.0000        3.8562        3.8562       3.684587       0.19646
  41    0.4307        0.1716        0.0000        3.8540        3.8540       3.682422       0.18827
  40    0.5894        0.1716        0.0000        3.8505        3.8505       3.678934       0.18550
  39     1.339        0.1716        0.0000        3.8352        3.8352       3.663584       0.17281
  38     1.782        0.1716        0.0000        3.8267        3.8267       3.655105       0.16143
  37     2.292        0.1716        0.0000        3.8172        3.8172       3.645586       0.15766
  36     2.964        0.1862        0.0000        0.8812        0.8812       0.694994      37.03885
  35     3.853        0.1923        0.0000        0.8116        0.8116       0.619264       0.71869
  34     5.035        0.1955        0.0000        0.7846        0.7846       0.589139       0.21520
  33     6.613        0.1971        0.0000        0.7717        0.7717       0.574553       0.07798
  32     8.786        0.1981        0.0000        0.7649        0.7649       0.566820       0.03003
  31     11.80        0.1986        0.0000        0.7607        0.7607       0.562068       0.01330
  30     15.07        0.1990        0.0000        0.7585        0.7585       0.559512       0.00660
  29     18.79        0.1992        0.0000        0.7571        0.7571       0.557878       0.00370
  28     23.16        0.1993        0.0000        0.7560        0.7560       0.556652       0.00237
  27     28.12        0.1994        0.0000        0.7552        0.7552       0.555743       0.00155
  26     33.73        0.1995        0.0000        0.7546        0.7546       0.555061       0.00102
  25     40.54        0.1996        0.0000        0.7541        0.7541       0.554484       0.00072
  24     48.69        0.1997        0.0000        0.7536        0.7536       0.553930       0.00057
  23     57.69        0.1997        0.0000        0.7532        0.7532       0.553420       0.00048
  22     68.43        0.1998        0.0000        0.7527        0.7527       0.552905       0.00040
  21     81.20        0.1999        0.0000        0.7523        0.7523       0.552385       0.00034
  20     96.49        0.2000        0.0000        0.7518        0.7518       0.551860       0.00029
  19     114.6        0.2000        0.0000        0.7514        0.7514       0.551360       0.00023
  18     136.5        0.2001        0.0000        0.7509        0.7509       0.550837       0.00020
  17     162.9        0.2001        0.0000        0.7505        0.7505       0.550352       0.00015
  16     196.4        0.2002        0.0000        0.7501        0.7502       0.549953       0.00010
  15     218.7        0.2002        0.0000        0.7500        0.7500       0.549819       0.00005
  14     243.0        0.2002        0.0000        0.7499        0.7499       0.549717       0.00004
  13     269.0        0.2002        0.0000        0.7499        0.7499       0.549630       0.00003
  12     297.5        0.2003        0.0000        0.7498        0.7498       0.549530       0.00003
  11     328.5        0.2003        0.0000        0.7497        0.7497       0.549389       0.00004
  10     361.9        0.2003        0.0000        0.7495        0.7495       0.549173       0.00005
   9     398.1        0.2003        0.0000        0.7492        0.7492       0.548840       0.00008
   8     437.6        0.2004        0.0000        0.7487        0.7487       0.548334       0.00011
   7     480.5        0.2005        0.0000        0.7481        0.7481       0.547589       0.00015
   6     533.0        0.2007        0.0000        0.7469        0.7470       0.546274       0.00021
   5     589.8        0.2009        0.0000        0.7453        0.7453       0.544331       0.00029
   4     651.6        0.2014        0.0000        0.7423        0.7424       0.540943       0.00046
   3     718.7        0.2022        0.0000        0.7374        0.7375       0.535282       0.00071
   2     792.3        0.2034        0.0000        0.7297        0.7298       0.526325       0.00103
   1     891.5        0.2059        0.0000        0.7147        0.7147       0.508765       0.00149
   0    1013.0        0.2103        0.0000        0.6895        0.6895       0.479191       0.00205

  Modules and versions used in this calculation:

       rrtmg_sw.1col.f90:  $Revision$                    rrtmg_sw_init.f90:  $Revision$        
     rrtmgsw_cldprop.f90:  $Revision$                  rrtmgsw_cldprmc.f90:  NOT USED          
     rrtmg_sw_reftra.f90:  $Revision$                  rrtmg_sw_spcvrt.f90:  NOT USED          
     rrtmg_sw_spcvmc.f90:  NOT USED                    rrtmgsw_setcoef.f90:  NOT USED          
     rrtmg_sw_taumol.f90:  $Revision$                  rrtmg_sw_vrtqdr.f90:  NOT USED          
                rrtatm.f:  NOT USED                             util_xxx.f:  NOT USED          
                 extra.f:  NOT USED                       rrtmg_sw_k_g.f90:  $Revision$        

