

 Wavenumbers:   820. - 50000. cm-1, ATM      1
 LEVEL PRESSURE   UPWARD FLUX   DIFDOWN FLUX  DIRDOWN FLUX  DOWNWARD FLUX   NET FLUX    HEATING RATE
          mb          W/m2          W/m2          W/m2        W/m2          W/m2       degree/day
  51    .06700      176.8844        0.0000      397.8738      397.8738     220.989421       0.00000
  50    .07753      176.8837        0.0011      397.8580      397.8591     220.975363      11.26799
  49    .09103      176.8830        0.0026      397.8425      397.8450     220.962084       8.29954
  48    0.1069      176.8821        0.0042      397.8240      397.8282     220.946171       8.47079
  47    0.1255      176.8811        0.0061      397.8011      397.8073     220.926182       9.06181
  46    0.1487      176.8799        0.0085      397.7696      397.7782     220.898290      10.16716
  45    0.1794      176.8783        0.0118      397.7232      397.7350     220.856721      11.41162
  44    0.2165      176.8764        0.0156      397.6637      397.6793     220.802870      12.25022
  43    0.2613      176.8743        0.0202      397.5872      397.6074     220.733047      13.16135
  42    0.3336      176.8710        0.0276      397.4508      397.4784     220.607359      14.65394
  41    0.4307      176.8670        0.0374      397.2602      397.2976     220.430671      15.36267
  40    0.5894      176.8609        0.0531      396.9364      396.9895     220.128650      16.06106
  39     1.339      176.8426        0.1232      395.4500      395.5732     218.730645      15.73900
  38     1.782      176.8389        0.1625      394.7602      394.9227     218.083837      12.31418
  37     2.292      176.8408        0.2072      394.0950      394.3022     217.461411      10.30900
  36     2.964      176.8182        0.3595      381.5561      381.9156     205.097458     155.20497
  35     3.853      176.8339        0.4690      379.4487      379.9177     203.083816      19.10983
  34     5.035      176.8768        0.5836      377.9000      378.4836     201.606825      10.55101
  33     6.613      176.9450        0.7223      376.4989      377.2213     200.276302       7.11298
  32     8.786      177.0339        0.9016      375.0969      375.9985     198.964589       5.09422
  31     11.80      177.1417        1.1527      373.5281      374.6808     197.539108       3.99090
  30     15.07      177.2339        1.4191      372.1284      373.5475     196.313584       3.16406
  29     18.79      177.3170        1.7171      370.7431      372.4602     195.143177       2.65367
  28     23.16      177.3897        2.0621      369.2951      371.3572     193.967488       2.27340
  27     28.12      177.4442        2.4532      367.8066      370.2598     192.815620       1.95810
  26     33.73      177.4631        2.8877      366.3292      369.2168     191.753777       1.59651
  25     40.54      177.4371        3.4086      364.7390      368.1476     190.710511       1.29429
  24     48.69      177.3594        4.0309      362.9993      367.0302     189.670799       1.07594
  23     57.69      177.2296        4.7079      361.2503      365.9582     188.728661       0.88311
  22     68.43      177.0273        5.5059      359.3374      364.8432     187.815880       0.71757
  21     81.20      176.7205        6.4460      357.2772      363.7233     187.002807       0.53727
  20     96.49      176.2956        7.5518      355.0301      362.5819     186.286318       0.39545
  19     114.6      175.7760        8.8422      352.1210      360.9632     185.187169       0.51323
  18     136.5      175.1482       10.3399      348.9762      359.3161     184.167896       0.39193
  17     162.9      174.3947       12.0802      345.4770      357.5572     183.162499       0.32137
  16     196.4      173.3954       14.2722      341.2509      355.5231     182.127695       0.26047
  15     218.7      172.7368       15.6727      338.6121      354.2848     181.547963       0.22010
  14     243.0      172.0257       17.1615      335.8306      352.9921     180.966444       0.20169
  13     269.0      171.2612       18.7370      332.8908      351.6279     180.366685       0.19456
  12     297.5      170.4439       20.3971      329.7328      350.1299     179.686011       0.20188
  11     328.5      169.5762       22.1428      326.2304      348.3732     178.797037       0.24171
  10     361.9      168.6609       23.9687      322.2536      346.2223     177.561397       0.31263
   9     398.1      167.6984       25.8743      317.6651      343.5394     175.840983       0.40082
   8     437.6      166.6932       27.8540      312.3316      340.1856     173.492407       0.50214
   7     480.5      165.6500       29.9035      306.1368      336.0403     170.390246       0.60925
   6     533.0      164.4200       32.3273      297.9619      330.2892     165.869177       0.72730
   5     589.8      163.1648       34.8247      289.0230      323.8477     160.682896       0.76981
   4     651.6      161.9034       37.3851      279.6147      316.9997     155.096320       0.76398
   3     718.7      160.6625       39.9977      269.8785      309.8762     149.213658       0.73929
   2     792.3      159.4858       42.6466      259.8288      302.4754     142.989603       0.71383
   1     891.5      158.1836       45.9939      246.9397      292.9336     134.750036       0.70115
   0    1013.0      157.2031       49.6941      232.3725      282.0666     124.863475       0.68647



 Wavenumbers:  2600. -  3250. cm-1, ATM      1
 LEVEL PRESSURE   UPWARD FLUX   DIFDOWN FLUX  DIRDOWN FLUX  DOWNWARD FLUX   NET FLUX    HEATING RATE
          mb          W/m2          W/m2          W/m2        W/m2          W/m2       degree/day
  51    .06700        0.3631        0.0000        3.5066        3.5066       3.143511       0.00000
  50    .07753        0.3631        0.0000        3.5066        3.5066       3.143503       0.00640
  49    .09103        0.3631        0.0000        3.5066        3.5066       3.143493       0.00627
  48    0.1069        0.3631        0.0000        3.5066        3.5066       3.143482       0.00613
  47    0.1255        0.3631        0.0000        3.5066        3.5066       3.143468       0.00599
  46    0.1487        0.3631        0.0000        3.5066        3.5066       3.143452       0.00607
  45    0.1794        0.3631        0.0000        3.5065        3.5065       3.143429       0.00624
  44    0.2165        0.3631        0.0000        3.5065        3.5065       3.143402       0.00611
  43    0.2613        0.3631        0.0000        3.5065        3.5065       3.143370       0.00598
  42    0.3336        0.3631        0.0000        3.5064        3.5064       3.143318       0.00615
  41    0.4307        0.3631        0.0000        3.5064        3.5064       3.143247       0.00617
  40    0.5894        0.3631        0.0000        3.5062        3.5062       3.143128       0.00633
  39     1.339        0.3631        0.0000        3.5055        3.5055       3.142429       0.00787
  38     1.782        0.3631        0.0000        3.5050        3.5050       3.141898       0.01010
  37     2.292        0.3631        0.0000        3.5043        3.5043       3.141206       0.01147
  36     2.964        0.3631        0.0000        3.5033        3.5033       3.140216       0.01243
  35     3.853        0.3631        0.0000        3.5019        3.5019       3.138838       0.01307
  34     5.035        0.3631        0.0000        3.5001        3.5001       3.136975       0.01331
  33     6.613        0.3631        0.0000        3.4977        3.4977       3.134562       0.01290
  32     8.786        0.3631        0.0000        3.4947        3.4947       3.131583       0.01157
  31     11.80        0.3631        0.0000        3.4910        3.4910       3.127940       0.01020
  30     15.07        0.3631        0.0000        3.4878        3.4878       3.124710       0.00834
  29     18.79        0.3631        0.0000        3.4847        3.4847       3.121632       0.00698
  28     23.16        0.3631        0.0000        3.4815        3.4815       3.118390       0.00627
  27     28.12        0.3631        0.0000        3.4778        3.4779       3.114746       0.00619
  26     33.73        0.3631        0.0000        3.4733        3.4734       3.110251       0.00676
  25     40.54        0.3631        0.0000        3.4670        3.4670       3.103889       0.00789
  24     48.69        0.3631        0.0000        3.4580        3.4580       3.094933       0.00927
  23     57.69        0.3631        0.0000        3.4469        3.4469       3.083792       0.01044
  22     68.43        0.3631        0.0000        3.4324        3.4325       3.069357       0.01135
  21     81.20        0.3631        0.0000        3.4145        3.4146       3.051429       0.01185
  20     96.49        0.3631        0.0000        3.3932        3.3932       3.030080       0.01178
  19     114.6        0.3632        0.0000        3.3411        3.3411       2.977902       0.02436
  18     136.5        0.3633        0.0001        3.2967        3.2968       2.933474       0.01708
  17     162.9        0.3635        0.0001        3.2583        3.2583       2.894856       0.01234
  16     196.4        0.3637        0.0001        3.2204        3.2204       2.856781       0.00958
  15     218.7        0.3638        0.0001        3.1994        3.1995       2.835698       0.00800
  14     243.0        0.3640        0.0001        3.1784        3.1785       2.814517       0.00735
  13     269.0        0.3641        0.0001        3.1561        3.1562       2.792069       0.00728
  12     297.5        0.3644        0.0001        3.1301        3.1302       2.765786       0.00780
  11     328.5        0.3647        0.0001        3.0964        3.0965       2.731768       0.00925
  10     361.9        0.3652        0.0001        3.0510        3.0511       2.685923       0.01160
   9     398.1        0.3658        0.0001        2.9899        2.9900       2.624245       0.01437
   8     437.6        0.3667        0.0001        2.9090        2.9092       2.542469       0.01748
   7     480.5        0.3680        0.0002        2.8042        2.8044       2.436428       0.02083
   6     533.0        0.3701        0.0002        2.6542        2.6544       2.284286       0.02447
   5     589.8        0.3732        0.0002        2.4876        2.4878       2.114617       0.02518
   4     651.6        0.3777        0.0002        2.3143        2.3145       1.936836       0.02431
   3     718.7        0.3841        0.0002        2.1341        2.1343       1.750182       0.02346
   2     792.3        0.3934        0.0002        1.9471        1.9473       1.553885       0.02251
   1     891.5        0.4107        0.0002        1.7086        1.7088       1.298036       0.02177
   0    1013.0        0.4434        0.0002        1.4535        1.4537       1.010339       0.01998



 Wavenumbers:  3250. -  4000. cm-1, ATM      1
 LEVEL PRESSURE   UPWARD FLUX   DIFDOWN FLUX  DIRDOWN FLUX  DOWNWARD FLUX   NET FLUX    HEATING RATE
          mb          W/m2          W/m2          W/m2        W/m2          W/m2       degree/day
  51    .06700        0.0018        0.0000        5.9117        5.9117       5.909880       0.00000
  50    .07753        0.0018        0.0000        5.9075        5.9075       5.905717       3.33612
  49    .09103        0.0018        0.0000        5.9052        5.9052       5.903428       1.43071
  48    0.1069        0.0018        0.0000        5.9035        5.9035       5.901715       0.91191
  47    0.1255        0.0018        0.0000        5.9019        5.9019       5.900095       0.73438
  46    0.1487        0.0018        0.0000        5.9001        5.9001       5.898360       0.63248
  45    0.1794        0.0018        0.0000        5.8982        5.8982       5.896384       0.54263
  44    0.2165        0.0018        0.0000        5.8962        5.8962       5.894435       0.44317
  43    0.2613        0.0018        0.0000        5.8943        5.8943       5.892486       0.36742
  42    0.3336        0.0018        0.0000        5.8915        5.8915       5.889730       0.32132
  41    0.4307        0.0018        0.0000        5.8881        5.8881       5.886357       0.29332
  40    0.5894        0.0018        0.0000        5.8830        5.8830       5.881251       0.27154
  39     1.339        0.0018        0.0000        5.8641        5.8641       5.862331       0.21300
  38     1.782        0.0018        0.0000        5.8561        5.8561       5.854340       0.15212
  37     2.292        0.0018        0.0000        5.8483        5.8483       5.846554       0.12897
  36     2.964        0.0018        0.0000        3.2753        3.2753       3.273552      32.29894
  35     3.853        0.0018        0.0000        2.9878        2.9878       2.985986       2.72906
  34     5.035        0.0018        0.0000        2.8465        2.8465       2.844684       1.00940
  33     6.613        0.0018        0.0000        2.7626        2.7626       2.760788       0.44851
  32     8.786        0.0018        0.0000        2.7072        2.7072       2.705384       0.21517
  31     11.80        0.0018        0.0000        2.6641        2.6641       2.662295       0.12064
  30     15.07        0.0018        0.0000        2.6349        2.6349       2.633125       0.07531
  29     18.79        0.0018        0.0000        2.6119        2.6119       2.610119       0.05216
  28     23.16        0.0018        0.0000        2.5908        2.5908       2.589040       0.04076
  27     28.12        0.0018        0.0000        2.5718        2.5718       2.570032       0.03231
  26     33.73        0.0018        0.0000        2.5545        2.5545       2.552749       0.02599
  25     40.54        0.0018        0.0000        2.5367        2.5367       2.534922       0.02212
  24     48.69        0.0018        0.0000        2.5162        2.5162       2.514464       0.02117
  23     57.69        0.0018        0.0000        2.4940        2.4941       2.492279       0.02079
  22     68.43        0.0018        0.0000        2.4683        2.4684       2.466615       0.02018
  21     81.20        0.0018        0.0001        2.4389        2.4390       2.437195       0.01944
  20     96.49        0.0018        0.0001        2.4054        2.4055       2.403730       0.01847
  19     114.6        0.0017        0.0001        2.3674        2.3674       2.365697       0.01776
  18     136.5        0.0017        0.0001        2.3253        2.3253       2.323612       0.01618
  17     162.9        0.0017        0.0001        2.2789        2.2790       2.277289       0.01481
  16     196.4        0.0017        0.0001        2.2241        2.2242       2.222536       0.01378
  15     218.7        0.0017        0.0001        2.1911        2.1913       2.189562       0.01252
  14     243.0        0.0017        0.0001        2.1576        2.1577       2.156007       0.01164
  13     269.0        0.0017        0.0001        2.1214        2.1216       2.119889       0.01172
  12     297.5        0.0017        0.0002        2.0755        2.0756       2.073957       0.01362
  11     328.5        0.0016        0.0002        2.0076        2.0078       2.006164       0.01843
  10     361.9        0.0016        0.0002        1.9080        1.9082       1.906584       0.02519
   9     398.1        0.0016        0.0002        1.7732        1.7733       1.771716       0.03142
   8     437.6        0.0016        0.0002        1.6050        1.6052       1.603593       0.03595
   7     480.5        0.0016        0.0002        1.4074        1.4076       1.405913       0.03882
   6     533.0        0.0017        0.0002        1.1584        1.1586       1.156904       0.04006
   5     589.8        0.0018        0.0002        0.9104        0.9105       0.908746       0.03683
   4     651.6        0.0019        0.0001        0.6727        0.6728       0.670892       0.03253
   3     718.7        0.0022        0.0001        0.4615        0.4616       0.459397       0.02658
   2     792.3        0.0028        0.0001        0.2890        0.2890       0.286245       0.01986
   1     891.5        0.0044        0.0001        0.1306        0.1307       0.126327       0.01361
   0    1013.0        0.0099        0.0000        0.0324        0.0324       0.022520       0.00721



 Wavenumbers:  4000. -  4650. cm-1, ATM      1
 LEVEL PRESSURE   UPWARD FLUX   DIFDOWN FLUX  DIRDOWN FLUX  DOWNWARD FLUX   NET FLUX    HEATING RATE
          mb          W/m2          W/m2          W/m2        W/m2          W/m2       degree/day
  51    .06700        1.3249        0.0000        6.9421        6.9421       5.617208       0.00000
  50    .07753        1.3249        0.0000        6.9421        6.9421       5.617207       0.00080
  49    .09103        1.3249        0.0000        6.9421        6.9421       5.617206       0.00079
  48    0.1069        1.3249        0.0000        6.9421        6.9421       5.617205       0.00077
  47    0.1255        1.3249        0.0000        6.9421        6.9421       5.617203       0.00075
  46    0.1487        1.3249        0.0000        6.9421        6.9421       5.617201       0.00076
  45    0.1794        1.3249        0.0000        6.9421        6.9421       5.617198       0.00079
  44    0.2165        1.3249        0.0000        6.9421        6.9421       5.617195       0.00077
  43    0.2613        1.3249        0.0000        6.9421        6.9421       5.617191       0.00075
  42    0.3336        1.3249        0.0000        6.9420        6.9420       5.617184       0.00078
  41    0.4307        1.3249        0.0000        6.9420        6.9420       5.617175       0.00078
  40    0.5894        1.3249        0.0000        6.9420        6.9420       5.617160       0.00080
  39     1.339        1.3249        0.0000        6.9419        6.9419       5.617070       0.00101
  38     1.782        1.3249        0.0000        6.9418        6.9419       5.617000       0.00134
  37     2.292        1.3249        0.0000        6.9418        6.9418       5.616905       0.00157
  36     2.964        1.3248        0.0000        6.9416        6.9416       5.616764       0.00177
  35     3.853        1.3248        0.0000        6.9414        6.9414       5.616555       0.00198
  34     5.035        1.3248        0.0000        6.9411        6.9411       5.616247       0.00220
  33     6.613        1.3248        0.0000        6.9406        6.9406       5.615794       0.00242
  32     8.786        1.3248        0.0000        6.9399        6.9400       5.615126       0.00260
  31     11.80        1.3248        0.0001        6.9388        6.9389       5.614078       0.00293
  30     15.07        1.3248        0.0001        6.9376        6.9377       5.612852       0.00316
  29     18.79        1.3248        0.0001        6.9361        6.9362       5.611375       0.00335
  28     23.16        1.3248        0.0001        6.9342        6.9343       5.609547       0.00353
  27     28.12        1.3248        0.0001        6.9320        6.9321       5.607342       0.00375
  26     33.73        1.3248        0.0001        6.9293        6.9294       5.604637       0.00407
  25     40.54        1.3247        0.0002        6.9256        6.9257       5.600987       0.00453
  24     48.69        1.3247        0.0002        6.9207        6.9209       5.596154       0.00500
  23     57.69        1.3247        0.0002        6.9150        6.9152       5.590460       0.00534
  22     68.43        1.3247        0.0003        6.9078        6.9081       5.583378       0.00557
  21     81.20        1.3247        0.0003        6.8991        6.8994       5.574717       0.00572
  20     96.49        1.3247        0.0004        6.8886        6.8890       5.564245       0.00578
  19     114.6        1.3249        0.0004        6.8592        6.8596       5.534787       0.01375
  18     136.5        1.3251        0.0005        6.8325        6.8330       5.507973       0.01031
  17     162.9        1.3253        0.0006        6.8040        6.8046       5.479238       0.00918
  16     196.4        1.3257        0.0007        6.7689        6.7697       5.443940       0.00888
  15     218.7        1.3260        0.0008        6.7466        6.7474       5.421435       0.00854
  14     243.0        1.3263        0.0009        6.7228        6.7238       5.397406       0.00833
  13     269.0        1.3267        0.0010        6.6970        6.6980       5.371293       0.00847
  12     297.5        1.3272        0.0011        6.6674        6.6685       5.341246       0.00891
  11     328.5        1.3280        0.0012        6.6308        6.6321       5.304109       0.01010
  10     361.9        1.3289        0.0013        6.5838        6.5852       5.256214       0.01212
   9     398.1        1.3303        0.0015        6.5222        6.5237       5.193385       0.01464
   8     437.6        1.3322        0.0016        6.4427        6.4443       5.112138       0.01737
   7     480.5        1.3345        0.0017        6.3433        6.3450       5.010537       0.01995
   6     533.0        1.3381        0.0019        6.2068        6.2087       4.870590       0.02251
   5     589.8        1.3430        0.0020        6.0539        6.0559       4.712929       0.02340
   4     651.6        1.3497        0.0022        5.8776        5.8797       4.530091       0.02500
   3     718.7        1.3590        0.0024        5.6664        5.6688       4.309788       0.02769
   2     792.3        1.3723        0.0025        5.4206        5.4231       4.050750       0.02971
   1     891.5        1.3973        0.0027        5.0921        5.0948       3.697468       0.03006
   0    1013.0        1.4440        0.0029        4.7322        4.7351       3.291041       0.02822



 Wavenumbers:  4650. -  5150. cm-1, ATM      1
 LEVEL PRESSURE   UPWARD FLUX   DIFDOWN FLUX  DIRDOWN FLUX  DOWNWARD FLUX   NET FLUX    HEATING RATE
          mb          W/m2          W/m2          W/m2        W/m2          W/m2       degree/day
  51    .06700        0.9028        0.0000        6.5710        6.5710       5.668183       0.00000
  50    .07753        0.9028        0.0000        6.5708        6.5708       5.667949       0.18776
  49    .09103        0.9028        0.0000        6.5705        6.5705       5.667657       0.18252
  48    0.1069        0.9028        0.0000        6.5701        6.5701       5.667325       0.17697
  47    0.1255        0.9028        0.0000        6.5698        6.5698       5.666947       0.17131
  46    0.1487        0.9028        0.0000        6.5693        6.5693       5.666476       0.17159
  45    0.1794        0.9028        0.0000        6.5687        6.5687       5.665844       0.17361
  44    0.2165        0.9028        0.0000        6.5679        6.5679       5.665110       0.16680
  43    0.2613        0.9028        0.0000        6.5671        6.5671       5.664263       0.15976
  42    0.3336        0.9028        0.0000        6.5657        6.5657       5.662908       0.15793
  41    0.4307        0.9028        0.0000        6.5640        6.5640       5.661193       0.14918
  40    0.5894        0.9028        0.0000        6.5614        6.5614       5.658587       0.13858
  39     1.339        0.9028        0.0000        6.5516        6.5517       5.648850       0.10961
  38     1.782        0.9028        0.0000        6.5474        6.5474       5.644635       0.08026
  37     2.292        0.9028        0.0000        6.5435        6.5435       5.640722       0.06481
  36     2.964        0.9028        0.0000        6.5395        6.5395       5.636708       0.05039
  35     3.853        0.9028        0.0000        6.5354        6.5355       5.632680       0.03822
  34     5.035        0.9028        0.0000        6.5313        6.5314       5.628588       0.02923
  33     6.613        0.9028        0.0000        6.5268        6.5269       5.624116       0.02391
  32     8.786        0.9028        0.0001        6.5213        6.5213       5.618566       0.02155
  31     11.80        0.9027        0.0001        6.5131        6.5132       5.610431       0.02278
  30     15.07        0.9027        0.0001        6.5036        6.5037       5.601010       0.02432
  29     18.79        0.9027        0.0001        6.4920        6.4922       5.589437       0.02624
  28     23.16        0.9027        0.0001        6.4773        6.4775       5.574773       0.02835
  27     28.12        0.9027        0.0002        6.4593        6.4595       5.556758       0.03063
  26     33.73        0.9027        0.0002        6.4378        6.4380       5.535316       0.03224
  25     40.54        0.9027        0.0002        6.4107        6.4109       5.508220       0.03362
  24     48.69        0.9027        0.0003        6.3770        6.3773       5.474638       0.03475
  23     57.69        0.9027        0.0003        6.3399        6.3403       5.437597       0.03472
  22     68.43        0.9027        0.0004        6.2967        6.2971       5.394441       0.03393
  21     81.20        0.9027        0.0005        6.2479        6.2483       5.345608       0.03227
  20     96.49        0.9028        0.0005        6.1944        6.1949       5.292147       0.02951
  19     114.6        0.9029        0.0006        6.1297        6.1303       5.227360       0.03025
  18     136.5        0.9032        0.0008        6.0637        6.0645       5.161329       0.02539
  17     162.9        0.9035        0.0009        5.9946        5.9955       5.092046       0.02215
  16     196.4        0.9039        0.0011        5.9126        5.9136       5.009718       0.02072
  15     218.7        0.9043        0.0012        5.8603        5.8615       4.957203       0.01994
  14     243.0        0.9047        0.0013        5.8035        5.8048       4.900163       0.01978
  13     269.0        0.9051        0.0014        5.7413        5.7427       4.837537       0.02032
  12     297.5        0.9058        0.0015        5.6712        5.6727       4.766972       0.02093
  11     328.5        0.9066        0.0017        5.5903        5.5920       4.685393       0.02218
  10     361.9        0.9077        0.0018        5.4950        5.4968       4.589133       0.02435
   9     398.1        0.9092        0.0020        5.3846        5.3866       4.477405       0.02603
   8     437.6        0.9112        0.0021        5.2570        5.2592       4.347967       0.02767
   7     480.5        0.9139        0.0023        5.1103        5.1126       4.198728       0.02931
   6     533.0        0.9181        0.0025        4.9173        4.9198       4.001686       0.03170
   5     589.8        0.9239        0.0027        4.7045        4.7072       3.783297       0.03242
   4     651.6        0.9317        0.0028        4.4787        4.4815       3.549823       0.03193
   3     718.7        0.9424        0.0030        4.2446        4.2476       3.305176       0.03075
   2     792.3        0.9571        0.0031        4.0054        4.0085       3.051452       0.02910
   1     891.5        0.9834        0.0033        3.7042        3.7074       2.724070       0.02786
   0    1013.0        1.0292        0.0035        3.3715        3.3750       2.345790       0.02627



 Wavenumbers:  5150. -  6150. cm-1, ATM      1
 LEVEL PRESSURE   UPWARD FLUX   DIFDOWN FLUX  DIRDOWN FLUX  DOWNWARD FLUX   NET FLUX    HEATING RATE
          mb          W/m2          W/m2          W/m2        W/m2          W/m2       degree/day
  51    .06700        2.3407        0.0000       16.4735       16.4735      14.132829       0.00000
  50    .07753        2.3407        0.0000       16.4735       16.4735      14.132829       0.00019
  49    .09103        2.3407        0.0000       16.4735       16.4735      14.132828       0.00018
  48    0.1069        2.3407        0.0000       16.4735       16.4735      14.132828       0.00018
  47    0.1255        2.3407        0.0000       16.4735       16.4735      14.132828       0.00018
  46    0.1487        2.3407        0.0000       16.4735       16.4735      14.132827       0.00018
  45    0.1794        2.3407        0.0000       16.4735       16.4735      14.132826       0.00018
  44    0.2165        2.3407        0.0000       16.4735       16.4735      14.132826       0.00018
  43    0.2613        2.3407        0.0000       16.4735       16.4735      14.132825       0.00018
  42    0.3336        2.3407        0.0000       16.4735       16.4735      14.132823       0.00018
  41    0.4307        2.3407        0.0000       16.4735       16.4735      14.132821       0.00018
  40    0.5894        2.3407        0.0000       16.4735       16.4735      14.132818       0.00019
  39     1.339        2.3407        0.0000       16.4734       16.4734      14.132796       0.00024
  38     1.782        2.3406        0.0000       16.4734       16.4734      14.132780       0.00032
  37     2.292        2.3406        0.0001       16.4733       16.4734      14.132757       0.00037
  36     2.964        2.3416        0.0001       14.1842       14.1843      11.842689      28.74728
  35     3.853        2.3422        0.0001       13.8468       13.8469      11.504700       3.20758
  34     5.035        2.3425        0.0001       13.6822       13.6824      11.339888       1.17735
  33     6.613        2.3427        0.0002       13.5855       13.5857      11.242964       0.51815
  32     8.786        2.3429        0.0002       13.5217       13.5220      11.179107       0.24800
  31     11.80        2.3430        0.0003       13.4723       13.4726      11.129605       0.13859
  30     15.07        2.3430        0.0004       13.4389       13.4393      11.096282       0.08603
  29     18.79        2.3431        0.0005       13.4128       13.4132      11.070166       0.05921
  28     23.16        2.3431        0.0005       13.3890       13.3896      11.046453       0.04585
  27     28.12        2.3431        0.0007       13.3678       13.3684      11.025326       0.03592
  26     33.73        2.3431        0.0008       13.3487       13.3495      11.006333       0.02856
  25     40.54        2.3431        0.0009       13.3291       13.3300      10.986879       0.02414
  24     48.69        2.3432        0.0011       13.3066       13.3077      10.964479       0.02318
  23     57.69        2.3432        0.0013       13.2819       13.2832      10.939948       0.02299
  22     68.43        2.3433        0.0015       13.2527       13.2542      10.910960       0.02279
  21     81.20        2.3434        0.0018       13.2185       13.2203      10.876960       0.02247
  20     96.49        2.3435        0.0021       13.1789       13.1811      10.837565       0.02174
  19     114.6        2.3436        0.0025       13.1337       13.1362      10.792568       0.02101
  18     136.5        2.3438        0.0030       13.0834       13.0864      10.742590       0.01922
  17     162.9        2.3439        0.0035       13.0295       13.0330      10.689057       0.01711
  16     196.4        2.3441        0.0042       12.9691       12.9733      10.629212       0.01506
  15     218.7        2.3441        0.0047       12.9349       12.9396      10.595507       0.01280
  14     243.0        2.3441        0.0052       12.8998       12.9050      10.560862       0.01202
  13     269.0        2.3441        0.0057       12.8609       12.8666      10.522474       0.01245
  12     297.5        2.3441        0.0063       12.8087       12.8149      10.470799       0.01533
  11     328.5        2.3442        0.0069       12.7250       12.7319      10.387698       0.02259
  10     361.9        2.3444        0.0075       12.5860       12.5936      10.249150       0.03505
   9     398.1        2.3448        0.0082       12.3670       12.3752      10.030399       0.05096
   8     437.6        2.3454        0.0088       12.0455       12.0543       9.708859       0.06875
   7     480.5        2.3465        0.0094       11.6121       11.6215       9.275027       0.08520
   6     533.0        2.3486        0.0100       11.0096       11.0196       8.671024       0.09716
   5     589.8        2.3520        0.0106       10.4053       10.4159       8.063896       0.09012
   4     651.6        2.3575        0.0111        9.8726        9.8837       7.526214       0.07353
   3     718.7        2.3663        0.0117        9.4318        9.4436       7.077237       0.05642
   2     792.3        2.3805        0.0124        9.0572        9.0696       6.689092       0.04452
   1     891.5        2.4104        0.0134        8.6169        8.6302       6.219815       0.03993
   0    1013.0        2.4744        0.0145        8.1010        8.1155       5.641036       0.04019



 Wavenumbers:  6150. -  7700. cm-1, ATM      1
 LEVEL PRESSURE   UPWARD FLUX   DIFDOWN FLUX  DIRDOWN FLUX  DOWNWARD FLUX   NET FLUX    HEATING RATE
          mb          W/m2          W/m2          W/m2        W/m2          W/m2       degree/day
  51    .06700        3.6711        0.0000       30.4684       30.4684      26.797248       0.00000
  50    .07753        3.6711        0.0000       30.4684       30.4684      26.797232       0.01303
  49    .09103        3.6711        0.0000       30.4683       30.4683      26.797211       0.01277
  48    0.1069        3.6711        0.0000       30.4683       30.4683      26.797188       0.01250
  47    0.1255        3.6711        0.0000       30.4683       30.4683      26.797161       0.01223
  46    0.1487        3.6711        0.0000       30.4682       30.4683      26.797127       0.01241
  45    0.1794        3.6711        0.0000       30.4682       30.4682      26.797080       0.01276
  44    0.2165        3.6711        0.0000       30.4681       30.4681      26.797025       0.01252
  43    0.2613        3.6711        0.0000       30.4681       30.4681      26.796960       0.01228
  42    0.3336        3.6711        0.0000       30.4679       30.4680      26.796852       0.01256
  41    0.4307        3.6711        0.0000       30.4678       30.4678      26.796710       0.01241
  40    0.5894        3.6711        0.0001       30.4675       30.4676      26.796477       0.01239
  39     1.339        3.6710        0.0001       30.4662       30.4664      26.795377       0.01238
  38     1.782        3.6710        0.0002       30.4655       30.4657      26.794732       0.01227
  37     2.292        3.6709        0.0002       30.4647       30.4649      26.793987       0.01234
  36     2.964        3.6719        0.0004       26.7184       26.7188      23.046889      47.03741
  35     3.853        3.6724        0.0005       26.1894       26.1899      22.517434       5.02462
  34     5.035        3.6727        0.0006       25.9343       25.9349      22.262214       1.82319
  33     6.613        3.6728        0.0008       25.7873       25.7881      22.115285       0.78548
  32     8.786        3.6728        0.0010       25.6927       25.6937      22.020831       0.36683
  31     11.80        3.6727        0.0013       25.6208       25.6221      21.949342       0.20015
  30     15.07        3.6726        0.0016       25.5733       25.5749      21.902366       0.12128
  29     18.79        3.6723        0.0019       25.5367       25.5386      21.866303       0.08177
  28     23.16        3.6720        0.0023       25.5038       25.5062      21.834140       0.06219
  27     28.12        3.6717        0.0028       25.4749       25.4778      21.806054       0.04774
  26     33.73        3.6713        0.0033       25.4495       25.4528      21.781499       0.03692
  25     40.54        3.6708        0.0040       25.4241       25.4280      21.757231       0.03011
  24     48.69        3.6702        0.0047       25.3956       25.4003      21.730140       0.02804
  23     57.69        3.6695        0.0055       25.3651       25.3707      21.701142       0.02718
  22     68.43        3.6687        0.0065       25.3296       25.3362      21.667450       0.02649
  21     81.20        3.6678        0.0077       25.2884       25.2961      21.628296       0.02587
  20     96.49        3.6666        0.0091       25.2404       25.2495      21.582889       0.02506
  19     114.6        3.6653        0.0108       25.1844       25.1952      21.529928       0.02473
  18     136.5        3.6637        0.0128       25.1200       25.1327      21.469023       0.02342
  17     162.9        3.6618        0.0151       25.0455       25.0606      21.398842       0.02243
  16     196.4        3.6593        0.0182       24.9523       24.9704      21.311106       0.02208
  15     218.7        3.6577        0.0201       24.8928       24.9129      21.255216       0.02122
  14     243.0        3.6560        0.0223       24.8294       24.8517      21.195768       0.02062
  13     269.0        3.6541        0.0247       24.7579       24.7825      21.128485       0.02183
  12     297.5        3.6521        0.0272       24.6613       24.6885      21.036442       0.02730
  11     328.5        3.6500        0.0299       24.5057       24.5356      20.885515       0.04104
  10     361.9        3.6481        0.0327       24.2459       24.2786      20.630445       0.06454
   9     398.1        3.6465        0.0355       23.8332       23.8687      20.222211       0.09511
   8     437.6        3.6454        0.0383       23.2168       23.2551      19.609674       0.13096
   7     480.5        3.6454        0.0409       22.3577       22.3985      18.753157       0.16822
   6     533.0        3.6477        0.0434       21.0893       21.1327      17.485026       0.20400
   5     589.8        3.6536        0.0455       19.6986       19.7441      16.090469       0.20700
   4     651.6        3.6653        0.0473       18.3163       18.3636      14.698297       0.19038
   3     718.7        3.6858        0.0489       16.9963       17.0451      13.359355       0.16827
   2     792.3        3.7204        0.0504       15.7468       15.7972      12.076761       0.14710
   1     891.5        3.7952        0.0522       14.3298       14.3820      10.586797       0.12679
   0    1013.0        3.9568        0.0541       12.9288       12.9829       9.026041       0.10837



 Wavenumbers:  7700. -  8050. cm-1, ATM      1
 LEVEL PRESSURE   UPWARD FLUX   DIFDOWN FLUX  DIRDOWN FLUX  DOWNWARD FLUX   NET FLUX    HEATING RATE
          mb          W/m2          W/m2          W/m2        W/m2          W/m2       degree/day
  51    .06700        1.7101        0.0000        7.2006        7.2006       5.490503       0.00000
  50    .07753        1.7101        0.0000        7.2006        7.2006       5.490484       0.01511
  49    .09103        1.7101        0.0000        7.2005        7.2005       5.490460       0.01481
  48    0.1069        1.7101        0.0000        7.2005        7.2005       5.490433       0.01449
  47    0.1255        1.7101        0.0000        7.2005        7.2005       5.490402       0.01418
  46    0.1487        1.7101        0.0000        7.2004        7.2005       5.490362       0.01439
  45    0.1794        1.7101        0.0000        7.2004        7.2004       5.490308       0.01481
  44    0.2165        1.7101        0.0000        7.2003        7.2003       5.490245       0.01453
  43    0.2613        1.7101        0.0000        7.2003        7.2003       5.490169       0.01425
  42    0.3336        1.7101        0.0000        7.2001        7.2001       5.490044       0.01458
  41    0.4307        1.7101        0.0000        7.2000        7.2000       5.489878       0.01442
  40    0.5894        1.7101        0.0000        7.1997        7.1997       5.489607       0.01441
  39     1.339        1.7102        0.0001        7.1984        7.1985       5.488326       0.01442
  38     1.782        1.7102        0.0001        7.1977        7.1978       5.487574       0.01432
  37     2.292        1.7102        0.0001        7.1968        7.1969       5.486703       0.01442
  36     2.964        1.7102        0.0002        7.1956        7.1958       5.485561       0.01434
  35     3.853        1.7103        0.0002        7.1941        7.1943       5.484052       0.01431
  34     5.035        1.7103        0.0003        7.1921        7.1924       5.482050       0.01430
  33     6.613        1.7104        0.0004        7.1895        7.1898       5.479378       0.01429
  32     8.786        1.7106        0.0005        7.1859        7.1864       5.475782       0.01396
  31     11.80        1.7108        0.0006        7.1808        7.1814       5.470650       0.01437
  30     15.07        1.7110        0.0008        7.1754        7.1761       5.465155       0.01419
  29     18.79        1.7112        0.0009        7.1693        7.1702       5.458969       0.01403
  28     23.16        1.7115        0.0011        7.1622        7.1633       5.451770       0.01392
  27     28.12        1.7118        0.0013        7.1541        7.1554       5.443575       0.01393
  26     33.73        1.7122        0.0016        7.1451        7.1467       5.434451       0.01372
  25     40.54        1.7127        0.0019        7.1343        7.1362       5.423495       0.01359
  24     48.69        1.7132        0.0022        7.1213        7.1236       5.410385       0.01357
  23     57.69        1.7138        0.0026        7.1073        7.1099       5.396107       0.01338
  22     68.43        1.7145        0.0031        7.0907        7.0938       5.379268       0.01324
  21     81.20        1.7154        0.0037        7.0712        7.0748       5.359439       0.01310
  20     96.49        1.7164        0.0043        7.0482        7.0526       5.336134       0.01286
  19     114.6        1.7177        0.0051        7.0213        7.0264       5.308729       0.01280
  18     136.5        1.7192        0.0061        6.9901        6.9961       5.276878       0.01225
  17     162.9        1.7211        0.0072        6.9537        6.9609       5.239782       0.01186
  16     196.4        1.7235        0.0086        6.9078        6.9164       5.192894       0.01180
  15     218.7        1.7252        0.0095        6.8785        6.8880       5.162809       0.01142
  14     243.0        1.7270        0.0105        6.8472        6.8577       5.130682       0.01114
  13     269.0        1.7290        0.0116        6.8139        6.8255       5.096488       0.01109
  12     297.5        1.7312        0.0128        6.7786        6.7914       5.060138       0.01078
  11     328.5        1.7337        0.0141        6.7411        6.7552       5.021483       0.01051
  10     361.9        1.7364        0.0154        6.7015        6.7169       4.980454       0.01038
   9     398.1        1.7395        0.0169        6.6593        6.6762       4.936736       0.01019
   8     437.6        1.7429        0.0184        6.6146        6.6330       4.890096       0.00997
   7     480.5        1.7468        0.0201        6.5668        6.5869       4.840078       0.00982
   6     533.0        1.7519        0.0221        6.5076        6.5298       4.777838       0.01001
   5     589.8        1.7579        0.0243        6.4433        6.4676       4.709688       0.01012
   4     651.6        1.7650        0.0266        6.3730        6.3996       4.634660       0.01026
   3     718.7        1.7733        0.0291        6.2957        6.3248       4.551509       0.01045
   2     792.3        1.7833        0.0317        6.2102        6.2419       4.458613       0.01065
   1     891.5        1.7986        0.0352        6.0896        6.1248       4.326196       0.01127
   0    1013.0        1.8202        0.0392        5.9356        5.9748       4.154634       0.01191



 Wavenumbers:  8050. - 12850. cm-1, ATM      1
 LEVEL PRESSURE   UPWARD FLUX   DIFDOWN FLUX  DIRDOWN FLUX  DOWNWARD FLUX   NET FLUX    HEATING RATE
          mb          W/m2          W/m2          W/m2        W/m2          W/m2       degree/day
  51    .06700       23.6740        0.0000      100.8135      100.8135      77.139553       0.00000
  50    .07753       23.6739        0.0000      100.8135      100.8135      77.139553       0.00000
  49    .09103       23.6739        0.0001      100.8134      100.8135      77.139553       0.00000
  48    0.1069       23.6739        0.0001      100.8134      100.8134      77.139553       0.00000
  47    0.1255       23.6739        0.0001      100.8133      100.8134      77.139553      -0.00000
  46    0.1487       23.6738        0.0002      100.8132      100.8134      77.139553       0.00000
  45    0.1794       23.6738        0.0002      100.8131      100.8133      77.139553       0.00000
  44    0.2165       23.6737        0.0003      100.8129      100.8133      77.139553      -0.00000
  43    0.2613       23.6736        0.0004      100.8127      100.8132      77.139553      -0.00000
  42    0.3336       23.6735        0.0006      100.8125      100.8130      77.139553       0.00000
  41    0.4307       23.6733        0.0008      100.8121      100.8129      77.139553       0.00000
  40    0.5894       23.6730        0.0011      100.8115      100.8126      77.139553       0.00000
  39     1.339       23.6717        0.0028      100.8085      100.8113      77.139553      -0.00000
  38     1.782       23.6710        0.0038      100.8068      100.8105      77.139553       0.00000
  37     2.292       23.6701        0.0049      100.8047      100.8096      77.139553       0.00000
  36     2.964       23.6671        0.0086      100.7980      100.8066      77.139553       0.00000
  35     3.853       23.6648        0.0114      100.7930      100.8044      77.139553       0.00000
  34     5.035       23.6624        0.0144      100.7876      100.8020      77.139553       0.00000
  33     6.613       23.6595        0.0180      100.7810      100.7990      77.139553       0.00000
  32     8.786       23.6557        0.0228      100.7724      100.7952      77.139553       0.00000
  31     11.80       23.6503        0.0295      100.7603      100.7898      77.139553      -0.00000
  30     15.07       23.6445        0.0367      100.7474      100.7841      77.139553       0.00000
  29     18.79       23.6380        0.0448      100.7328      100.7776      77.139553      -0.00000
  28     23.16       23.6304        0.0543      100.7157      100.7700      77.139553       0.00000
  27     28.12       23.6217        0.0651      100.6962      100.7613      77.139553       0.00000
  26     33.73       23.6120        0.0772      100.6743      100.7515      77.139553      -0.00000
  25     40.54       23.6002        0.0919      100.6479      100.7398      77.139553       0.00000
  24     48.69       23.5860        0.1096      100.6160      100.7256      77.139553       0.00000
  23     57.69       23.5704        0.1290      100.5809      100.7099      77.139553      -0.00000
  22     68.43       23.5517        0.1522      100.5391      100.6913      77.139553       0.00000
  21     81.20       23.5295        0.1799      100.4892      100.6690      77.139553      -0.00000
  20     96.49       23.5029        0.2129      100.4296      100.6425      77.139553       0.00000
  19     114.6       23.4748        0.2519      100.0433      100.2952      76.820362       0.14904
  18     136.5       23.4406        0.2981       99.7358      100.0339      76.593336       0.08730
  17     162.9       23.3987        0.3533       99.4587       99.8120      76.413269       0.05756
  16     196.4       23.3428        0.4249       99.1644       99.5893      76.246569       0.04196
  15     218.7       23.3054        0.4721       98.9934       99.4655      76.160119       0.03282
  14     243.0       23.2645        0.5234       98.8188       99.3422      76.077619       0.02861
  13     269.0       23.2202        0.5790       98.6325       99.2115      75.991351       0.02798
  12     297.5       23.1723        0.6392       98.4128       99.0520      75.879720       0.03311
  11     328.5       23.1210        0.7042       98.1205       98.8247      75.703693       0.04786
  10     361.9       23.0667        0.7738       97.7110       98.4849      75.418135       0.07225
   9     398.1       23.0099        0.8483       97.1369       97.9851      74.975201       0.10319
   8     437.6       22.9517        0.9273       96.3461       97.2734      74.321687       0.13973
   7     480.5       22.8940        1.0104       95.2775       96.2880      73.393985       0.18220
   6     533.0       22.8326        1.1099       93.6380       94.7479      71.915255       0.23788
   5     589.8       22.7811        1.2134       91.5970       92.8105      70.029373       0.27993
   4     651.6       22.7466        1.3205       89.2240       90.5445      67.797908       0.30516
   3     718.7       22.7403        1.4303       86.5765       88.0069      65.266523       0.31812
   2     792.3       22.7810        1.5423       83.6631       85.2054      62.424373       0.32596
   1     891.5       22.9364        1.6847       79.7176       81.4022      58.465883       0.33685
   0    1013.0       23.3559        1.8416       75.0631       76.9047      53.548767       0.34142



 Wavenumbers: 12850. - 16000. cm-1, ATM      1
 LEVEL PRESSURE   UPWARD FLUX   DIFDOWN FLUX  DIRDOWN FLUX  DOWNWARD FLUX   NET FLUX    HEATING RATE
          mb          W/m2          W/m2          W/m2        W/m2          W/m2       degree/day
  51    .06700       32.1695        0.0000       63.1686       63.1686      30.999052       0.00000
  50    .07753       32.1695        0.0001       63.1677       63.1678      30.998273       0.62444
  49    .09103       32.1695        0.0001       63.1666       63.1668      30.997303       0.60672
  48    0.1069       32.1694        0.0002       63.1654       63.1656      30.996198       0.58821
  47    0.1255       32.1694        0.0003       63.1640       63.1643      30.994941       0.56963
  46    0.1487       32.1693        0.0004       63.1623       63.1627      30.993375       0.57100
  45    0.1794       32.1693        0.0006       63.1600       63.1606      30.991275       0.57649
  44    0.2165       32.1692        0.0008       63.1573       63.1581      30.988847       0.55235
  43    0.2613       32.1692        0.0010       63.1542       63.1552      30.986047       0.52767
  42    0.3336       32.1691        0.0014       63.1493       63.1507      30.981588       0.51989
  41    0.4307       32.1690        0.0019       63.1431       63.1450      30.976003       0.48565
  40    0.5894       32.1689        0.0027       63.1338       63.1365      30.967550       0.44951
  39     1.339       32.1699        0.0065       63.0955       63.1020      30.932140       0.39865
  38     1.782       32.1713        0.0087       63.0739       63.0826      30.911336       0.39609
  37     2.292       32.1738        0.0113       63.0474       63.0587      30.884948       0.43705
  36     2.964       32.1750        0.0200       63.0004       63.0204      30.845479       0.49546
  35     3.853       32.1815        0.0265       62.9407       62.9672      30.785679       0.56751
  34     5.035       32.1930        0.0334       62.8582       62.8916      30.698530       0.62256
  33     6.613       32.2099        0.0418       62.7468       62.7886      30.578722       0.64049
  32     8.786       32.2319        0.0528       62.6024       62.6552      30.423298       0.60361
  31     11.80       32.2599        0.0682       62.4120       62.4802      30.220287       0.56837
  30     15.07       32.2861        0.0846       62.2260       62.3106      30.024529       0.50541
  29     18.79       32.3120        0.1031       62.0325       62.1355      29.823539       0.45571
  28     23.16       32.3380        0.1246       61.8254       61.9500      29.611966       0.40911
  27     28.12       32.3629        0.1491       61.6107       61.7597      29.396834       0.36571
  26     33.73       32.3837        0.1764       61.4005       61.5769      29.193199       0.30617
  25     40.54       32.4007        0.2094       61.1811       61.3905      28.989837       0.25229
  24     48.69       32.4132        0.2491       60.9508       61.1999      28.786671       0.21024
  23     57.69       32.4194        0.2926       60.7307       61.0233      28.603918       0.17130
  22     68.43       32.4184        0.3444       60.5031       60.8475      28.429133       0.13740
  21     81.20       32.4058        0.4060       60.2768       60.6829      28.277033       0.10051
  20     96.49       32.3804        0.4795       60.0473       60.5268      28.146410       0.07209
  19     114.6       32.3501        0.5671       59.7853       60.3525      28.002373       0.06726
  18     136.5       32.3096        0.6708       59.4880       60.1588      27.849222       0.05889
  17     162.9       32.2571        0.7938       59.1445       59.9384      27.681230       0.05370
  16     196.4       32.1802        0.9530       58.7237       59.6766      27.496392       0.04653
  15     218.7       32.1265        1.0572       58.4567       59.5138      27.387308       0.04142
  14     243.0       32.0667        1.1702       58.1712       59.3414      27.274746       0.03904
  13     269.0       32.0003        1.2923       57.8676       59.1600      27.159690       0.03732
  12     297.5       31.9272        1.4240       57.5445       58.9685      27.041264       0.03512
  11     328.5       31.8479        1.5659       57.1972       58.7631      26.915193       0.03428
  10     361.9       31.7624        1.7182       56.8231       58.5413      26.778903       0.03448
   9     398.1       31.6708        1.8816       56.4185       58.3002      26.629347       0.03484
   8     437.6       31.5737        2.0565       55.9779       58.0343      26.460601       0.03608
   7     480.5       31.4719        2.2430       55.4943       57.7373      26.265476       0.03832
   6     533.0       31.3516        2.4713       54.8753       57.3466      25.995044       0.04350
   5     589.8       31.2296        2.7154       54.1789       56.8943      25.664699       0.04903
   4     651.6       31.1095        2.9754       53.3982       56.3736      25.264059       0.05479
   3     718.7       30.9963        3.2509       52.5260       55.7769      24.780629       0.06075
   2     792.3       30.8979        3.5412       51.5567       55.0979      24.200036       0.06659
   1     891.5       30.8054        3.9240       50.2254       54.1494      23.344016       0.07284
   0    1013.0       30.7733        4.3692       48.5966       52.9657      22.192390       0.07996



 Wavenumbers: 16000. - 22650. cm-1, ATM      1
 LEVEL PRESSURE   UPWARD FLUX   DIFDOWN FLUX  DIRDOWN FLUX  DOWNWARD FLUX   NET FLUX    HEATING RATE
          mb          W/m2          W/m2          W/m2        W/m2          W/m2       degree/day
  51    .06700       73.8488        0.0000      100.7153      100.7153      26.866550       0.00000
  50    .07753       73.8486        0.0003      100.7147      100.7151      26.866433       0.09336
  49    .09103       73.8485        0.0007      100.7140      100.7147      26.866264       0.10589
  48    0.1069       73.8483        0.0012      100.7131      100.7143      26.866037       0.12075
  47    0.1255       73.8481        0.0017      100.7121      100.7138      26.865734       0.13763
  46    0.1487       73.8479        0.0024      100.7108      100.7132      26.865286       0.16309
  45    0.1794       73.8476        0.0033      100.7089      100.7122      26.864587       0.19203
  44    0.2165       73.8474        0.0044      100.7066      100.7110      26.863638       0.21581
  43    0.2613       73.8471        0.0057      100.7037      100.7094      26.862351       0.24262
  42    0.3336       73.8467        0.0079      100.6987      100.7066      26.859904       0.28532
  41    0.4307       73.8463        0.0107      100.6918      100.7025      26.856215       0.32072
  40    0.5894       73.8460        0.0154      100.6797      100.6952      26.849180       0.37409
  39     1.339       73.8498        0.0375      100.6095      100.6470      26.797219       0.58499
  38     1.782       73.8559        0.0504      100.5585      100.6089      26.752967       0.84247
  37     2.292       73.8667        0.0654      100.4903      100.5557      26.688934       1.06056
  36     2.964       73.8712        0.1157      100.3408      100.4565      26.585259       1.30143
  35     3.853       73.8996        0.1530      100.1675      100.3205      26.420897       1.55982
  34     5.035       73.9501        0.1929       99.9332      100.1261      26.175969       1.74967
  33     6.613       74.0239        0.2415       99.6185       99.8600      25.836134       1.81676
  32     8.786       74.1204        0.3046       99.2106       99.5152      25.394867       1.71372
  31     11.80       74.2437        0.3933       98.6711       99.0644      24.820717       1.60744
  30     15.07       74.3584        0.4877       98.1409       98.6286      24.270114       1.42155
  29     18.79       74.4722        0.5937       97.5861       98.1797      23.707555       1.27550
  28     23.16       74.5866        0.7169       96.9881       97.7050      23.118389       1.13926
  27     28.12       74.6959        0.8572       96.3617       97.2189      22.522935       1.01223
  26     33.73       74.7873        1.0135       95.7393       96.7528      21.965557       0.83803
  25     40.54       74.8618        1.2018       95.0766       96.2784      21.416580       0.68107
  24     48.69       74.9169        1.4278       94.3641       95.7919      20.875045       0.56040
  23     57.69       74.9439        1.6751       93.6641       95.3392      20.395299       0.44969
  22     68.43       74.9402        1.9684       92.9183       94.8867      19.946545       0.35278
  21     81.20       74.8863        2.3164       92.1466       94.4630      19.576639       0.24443
  20     96.49       74.7767        2.7291       91.3350       94.0641      19.287367       0.15966
  19     114.6       74.6245        3.2157       90.4309       93.6466      19.022033       0.12389
  18     136.5       74.4296        3.7876       89.4040       93.1916      18.762015       0.09998
  17     162.9       74.1850        4.4616       88.2261       92.6877      18.502718       0.08288
  16     196.4       73.8399        5.3255       86.7850       92.1105      18.270554       0.05844
  15     218.7       73.6038        5.8865       85.8740       91.7606      18.156751       0.04321
  14     243.0       73.3436        6.4907       84.9046       91.3953      18.051695       0.03644
  13     269.0       73.0582        7.1390       83.8765       91.0155      17.957347       0.03061
  12     297.5       72.7467        7.8321       82.7888       90.6209      17.874165       0.02467
  11     328.5       72.4104        8.5723       81.6322       90.2046      17.794191       0.02174
  10     361.9       72.0490        9.3594       80.4071       89.7665      17.717490       0.01941
   9     398.1       71.6616       10.1952       79.1099       89.3052      17.643530       0.01723
   8     437.6       71.2484       11.0800       77.7387       88.8187      17.570305       0.01566
   7     480.5       70.8089       12.0138       76.2924       88.3062      17.497359       0.01433
   6     533.0       70.2739       13.1431       74.5419       87.6850      17.411162       0.01387
   5     589.8       69.7057       14.3360       72.6884       87.0243      17.318638       0.01373
   4     651.6       69.1054       15.5903       70.7318       86.3222      17.216825       0.01392
   3     718.7       68.4741       16.9043       68.6722       85.5765      17.102343       0.01439
   2     792.3       67.8149       18.2732       66.5125       84.7858      16.970885       0.01508
   1     891.5       66.9547       20.0586       63.6693       83.7279      16.773193       0.01682
   0    1013.0       65.9695       22.1081       60.3616       82.4697      16.500198       0.01896



 Wavenumbers: 22650. - 29000. cm-1, ATM      1
 LEVEL PRESSURE   UPWARD FLUX   DIFDOWN FLUX  DIRDOWN FLUX  DOWNWARD FLUX   NET FLUX    HEATING RATE
          mb          W/m2          W/m2          W/m2        W/m2          W/m2       degree/day
  51    .06700       32.0561        0.0000       38.0063       38.0063       5.950209       0.00000
  50    .07753       32.0559        0.0004       38.0057       38.0061       5.950209       0.00000
  49    .09103       32.0557        0.0009       38.0050       38.0059       5.950209      -0.00000
  48    0.1069       32.0554        0.0014       38.0042       38.0056       5.950209       0.00000
  47    0.1255       32.0551        0.0020       38.0033       38.0054       5.950209      -0.00000
  46    0.1487       32.0548        0.0028       38.0022       38.0050       5.950209       0.00000
  45    0.1794       32.0543        0.0039       38.0006       38.0045       5.950209       0.00000
  44    0.2165       32.0537        0.0052       37.9987       38.0039       5.950209      -0.00000
  43    0.2613       32.0530        0.0067       37.9965       38.0032       5.950209       0.00000
  42    0.3336       32.0518        0.0092       37.9928       38.0021       5.950209       0.00000
  41    0.4307       32.0503        0.0125       37.9880       38.0005       5.950209       0.00000
  40    0.5894       32.0478        0.0180       37.9800       37.9980       5.950209      -0.00000
  39     1.339       32.0360        0.0437       37.9425       37.9862       5.950209       0.00000
  38     1.782       32.0291        0.0588       37.9204       37.9793       5.950209       0.00000
  37     2.292       32.0210        0.0763       37.8949       37.9712       5.950209      -0.00000
  36     2.964       31.9941        0.1349       37.8094       37.9443       5.950209       0.00000
  35     3.853       31.9741        0.1785       37.7458       37.9243       5.950209      -0.00000
  34     5.035       31.9527        0.2250       37.6779       37.9029       5.950209       0.00000
  33     6.613       31.9266        0.2818       37.5950       37.8768       5.950209       0.00000
  32     8.786       31.8927        0.3555       37.4873       37.8429       5.950209       0.00000
  31     11.80       31.8449        0.4592       37.3359       37.7951       5.950209       0.00000
  30     15.07       31.7941        0.5696       37.1747       37.7443       5.950209       0.00000
  29     18.79       31.7370        0.6934       36.9938       37.6872       5.950209      -0.00000
  28     23.16       31.6706        0.8372       36.7836       37.6208       5.950209       0.00000
  27     28.12       31.5951        1.0007       36.5447       37.5453       5.950209       0.00000
  26     33.73       31.5111        1.1823       36.2791       37.4613       5.950209      -0.00000
  25     40.54       31.4103        1.3999       35.9606       37.3605       5.950209       0.00000
  24     48.69       31.2897        1.6598       35.5801       37.2399       5.950209       0.00000
  23     57.69       31.1584        1.9421       35.1665       37.1086       5.950209      -0.00000
  22     68.43       31.0037        2.2741       34.6798       36.9539       5.950209       0.00000
  21     81.20       30.8217        2.6634       34.1085       36.7719       5.950209       0.00000
  20     96.49       30.6081        3.1187       33.4396       36.5583       5.950209      -0.00000
  19     114.6       30.3592        3.6472       32.6622       36.3094       5.950209       0.00000
  18     136.5       30.0704        4.2570       31.7636       36.0206       5.950209       0.00000
  17     162.9       29.7354        4.9601       30.7255       35.6856       5.950209      -0.00000
  16     196.4       29.3146        5.8362       29.4287       35.2648       5.950209      -0.00000
  15     218.7       29.0465        6.3899       28.6068       34.9967       5.950209       0.00000
  14     243.0       28.7622        6.9732       27.7392       34.7124       5.950209      -0.00000
  13     269.0       28.4621        7.5841       26.8282       34.4123       5.950209      -0.00000
  12     297.5       28.1470        8.2203       25.8769       34.0972       5.950209       0.00000
  11     328.5       27.8166        8.8812       24.8856       33.7668       5.950209       0.00000
  10     361.9       27.4722        9.5627       23.8597       33.4224       5.950209       0.00000
   9     398.1       27.1140       10.2630       22.8012       33.0642       5.950209       0.00000
   8     437.6       26.7434       10.9779       21.7158       32.6936       5.950209       0.00000
   7     480.5       26.3612       11.7040       20.6074       32.3115       5.950209       0.00000
   6     533.0       25.9113       12.5432       19.3183       31.8615       5.950209      -0.00000
   5     589.8       25.4498       13.3844       18.0156       31.4000       5.950209       0.00000
   4     651.6       24.9789       14.2207       16.7084       30.9291       5.950209      -0.00000
   3     718.7       24.5004       15.0452       15.4054       30.4506       5.950209       0.00000
   2     792.3       24.0172       15.8490       14.1184       29.9674       5.950209       0.00000
   1     891.5       23.4090       16.8144       12.5448       29.3592       5.950209       0.00000
   0    1013.0       22.7373       17.8117       10.8758       28.6875       5.950209      -0.00000



 Wavenumbers: 29000. - 38000. cm-1, ATM      1
 LEVEL PRESSURE   UPWARD FLUX   DIFDOWN FLUX  DIRDOWN FLUX  DOWNWARD FLUX   NET FLUX    HEATING RATE
          mb          W/m2          W/m2          W/m2        W/m2          W/m2       degree/day
  51    .06700        4.7048        0.0000       13.4026       13.4026       8.697839       0.00000
  50    .07753        4.7045        0.0003       13.3983       13.3986       8.694048       3.03831
  49    .09103        4.7043        0.0007       13.3921       13.3928       8.688540       3.44274
  48    0.1069        4.7040        0.0011       13.3841       13.3851       8.681176       3.91989
  47    0.1255        4.7036        0.0016       13.3734       13.3750       8.671347       4.45619
  46    0.1487        4.7032        0.0022       13.3579       13.3601       8.656930       5.25518
  45    0.1794        4.7026        0.0030       13.3342       13.3372       8.634562       6.14052
  44    0.2165        4.7019        0.0040       13.3025       13.3065       8.604561       6.82471
  43    0.2613        4.7012        0.0051       13.2605       13.2657       8.564512       7.54909
  42    0.3336        4.6999        0.0070       13.1834       13.1905       8.490511       8.62776
  41    0.4307        4.6984        0.0095       13.0730       13.0824       8.384041       9.25736
  40    0.5894        4.6960        0.0133       12.8795       12.8929       8.196864       9.95379
  39     1.339        4.6876        0.0295       11.9153       11.9449       7.257223      10.57865
  38     1.782        4.6845        0.0378       11.4377       11.4755       6.791040       8.87538
  37     2.292        4.6823        0.0466       10.9754       11.0220       6.339735       7.47479
  36     2.964        4.6665        0.0774       10.4377       10.5151       5.848614       6.16505
  35     3.853        4.6620        0.0970        9.8902        9.9871       5.325150       4.96777
  34     5.035        4.6628        0.1156        9.3445        9.4601       4.797286       3.77084
  33     6.613        4.6673        0.1369        8.8193        8.9562       4.288862       2.71804
  32     8.786        4.6744        0.1635        8.3245        8.4880       3.813696       1.84537
  31     11.80        4.6831        0.1999        7.8384        8.0382       3.355081       1.28398
  30     15.07        4.6906        0.2375        7.4616        7.6991       3.008455       0.89492
  29     18.79        4.6974        0.2785        7.1302        7.4087       2.711279       0.67379
  28     23.16        4.7034        0.3248        6.8203        7.1452       2.441754       0.52118
  27     28.12        4.7078        0.3761        6.5335        6.9097       2.201853       0.40781
  26     33.73        4.7082        0.4322        6.2765        6.7087       2.000428       0.30285
  25     40.54        4.7034        0.4984        6.0248        6.5232       1.819793       0.22410
  24     48.69        4.6928        0.5761        5.7726        6.3487       1.655857       0.16965
  23     57.69        4.6767        0.6590        5.5384        6.1974       1.520679       0.12671
  22     68.43        4.6525        0.7549        5.2995        6.0544       1.401891       0.09338
  21     81.20        4.6162        0.8663        5.0591        5.9254       1.309250       0.06122
  20     96.49        4.5663        0.9950        4.8114        5.8064       1.240117       0.03816
  19     114.6        4.5058        1.1407        4.5450        5.6857       1.179926       0.02811
  18     136.5        4.4357        1.3033        4.2559        5.5592       1.123545       0.02168
  17     162.9        4.3553        1.4839        3.9412        5.4251       1.069828       0.01717
  16     196.4        4.2535        1.6998        3.5778        5.2776       1.024104       0.01151
  15     218.7        4.1894        1.8305        3.3615        5.1920       1.002617       0.00816
  14     243.0        4.1225        1.9636        3.1423        5.1058       0.983355       0.00668
  13     269.0        4.0531        2.0979        2.9217        5.0197       0.966537       0.00546
  12     297.5        3.9817        2.2323        2.7015        4.9338       0.952114       0.00428
  11     328.5        3.9090        2.3653        2.4824        4.8476       0.938597       0.00368
  10     361.9        3.8356        2.4954        2.2662        4.7616       0.926023       0.00318
   9     398.1        3.7618        2.6217        2.0544        4.6761       0.914344       0.00272
   8     437.6        3.6879        2.7428        1.8484        4.5913       0.903332       0.00235
   7     480.5        3.6145        2.8574        1.6502        4.5076       0.893087       0.00201
   6     533.0        3.5313        2.9796        1.4339        4.4135       0.882156       0.00176
   5     589.8        3.4498        3.0901        1.2315        4.3216       0.871813       0.00154
   4     651.6        3.3701        3.1878        1.0442        4.2320       0.861953       0.00135
   3     718.7        3.2927        3.2715        0.8737        4.1452       0.852531       0.00118
   2     792.3        3.2176        3.3404        0.7208        4.0612       0.843538       0.00103
   1     891.5        3.1271        3.4052        0.5546        3.9598       0.832696       0.00092
   0    1013.0        3.0313        3.4491        0.4032        3.8523       0.821023       0.00081



 Wavenumbers: 38000. - 50000. cm-1, ATM      1
 LEVEL PRESSURE   UPWARD FLUX   DIFDOWN FLUX  DIRDOWN FLUX  DOWNWARD FLUX   NET FLUX    HEATING RATE
          mb          W/m2          W/m2          W/m2        W/m2          W/m2       degree/day
  51    .06700        0.0055        0.0000        0.8267        0.8267       0.821170       0.00000
  50    .07753        0.0054        0.0001        0.8242        0.8243       0.818838       1.86961
  49    .09103        0.0054        0.0002        0.8207        0.8209       0.815514       2.07738
  48    0.1069        0.0053        0.0002        0.8162        0.8164       0.811155       2.32026
  47    0.1255        0.0052        0.0004        0.8103        0.8106       0.805441       2.59053
  46    0.1487        0.0051        0.0005        0.8018        0.8023       0.797205       3.00203
  45    0.1794        0.0049        0.0007        0.7889        0.7896       0.784649       3.44711
  44    0.2165        0.0047        0.0009        0.7720        0.7729       0.768141       3.75523
  43    0.2613        0.0045        0.0011        0.7500        0.7511       0.746587       4.06284
  42    0.3336        0.0042        0.0015        0.7106        0.7121       0.707896       4.51102
  41    0.4307        0.0038        0.0019        0.6566        0.6584       0.654597       4.63419
  40    0.5894        0.0033        0.0024        0.5680        0.5704       0.567082       4.65394
  39     1.339        0.0019        0.0030        0.2422        0.2452       0.243285       3.64536
  38     1.782        0.0015        0.0026        0.1493        0.1519       0.150416       1.76808
  37     2.292        0.0013        0.0022        0.0924        0.0946       0.093359       0.94501
  36     2.964        0.0006        0.0022        0.0531        0.0553       0.054737       0.48483
  35     3.853        0.0003        0.0017        0.0288        0.0306       0.030252       0.23237
  34     5.035        0.0002        0.0012        0.0150        0.0163       0.016082       0.10123
  33     6.613        0.0001        0.0009        0.0071        0.0080       0.007900       0.04374
  32     8.786        0.0000        0.0005        0.0029        0.0035       0.003411       0.01743
  31     11.80        0.0000        0.0003        0.0009        0.0012       0.001222       0.00613
  30     15.07        0.0000        0.0002        0.0003        0.0005       0.000480       0.00192
  29     18.79        0.0000        0.0001        0.0001        0.0002       0.000192       0.00065
  28     23.16        0.0000        0.0000        0.0000        0.0001       0.000076       0.00022
  27     28.12        0.0000        0.0000        0.0000        0.0000       0.000030       0.00008
  26     33.73        0.0000        0.0000        0.0000        0.0000       0.000013       0.00003
  25     40.54        0.0000        0.0000        0.0000        0.0000       0.000005       0.00001
  24     48.69        0.0000        0.0000        0.0000        0.0000       0.000002       0.00000
  23     57.69        0.0000        0.0000        0.0000        0.0000       0.000001       0.00000
  22     68.43        0.0000        0.0000        0.0000        0.0000       0.000000       0.00000
  21     81.20        0.0000        0.0000        0.0000        0.0000       0.000000       0.00000
  20     96.49        0.0000        0.0000        0.0000        0.0000       0.000000       0.00000
  19     114.6        0.0000        0.0000        0.0000        0.0000       0.000000       0.00000
  18     136.5        0.0000        0.0000        0.0000        0.0000       0.000000       0.00000
  17     162.9        0.0000        0.0000        0.0000        0.0000       0.000000       0.00000
  16     196.4        0.0000        0.0000        0.0000        0.0000       0.000000       0.00000
  15     218.7        0.0000        0.0000        0.0000        0.0000       0.000000       0.00000
  14     243.0        0.0000        0.0000        0.0000        0.0000       0.000000       0.00000
  13     269.0        0.0000        0.0000        0.0000        0.0000       0.000000       0.00000
  12     297.5        0.0000        0.0000        0.0000        0.0000       0.000000       0.00000
  11     328.5        0.0000        0.0000        0.0000        0.0000       0.000000       0.00000
  10     361.9        0.0000        0.0000        0.0000        0.0000       0.000000       0.00000
   9     398.1        0.0000        0.0000        0.0000        0.0000       0.000000       0.00000
   8     437.6        0.0000        0.0000        0.0000        0.0000       0.000000       0.00000
   7     480.5        0.0000        0.0000        0.0000        0.0000       0.000000       0.00000
   6     533.0        0.0000        0.0000        0.0000        0.0000       0.000000       0.00000
   5     589.8        0.0000        0.0000        0.0000        0.0000       0.000000       0.00000
   4     651.6        0.0000        0.0000        0.0000        0.0000       0.000000       0.00000
   3     718.7        0.0000        0.0000        0.0000        0.0000       0.000000       0.00000
   2     792.3        0.0000        0.0000        0.0000        0.0000       0.000000       0.00000
   1     891.5        0.0000        0.0000        0.0000        0.0000       0.000000       0.00000
   0    1013.0        0.0000        0.0000        0.0000        0.0000       0.000000       0.00000



 Wavenumbers:   820. -  2600. cm-1, ATM      1
 LEVEL PRESSURE   UPWARD FLUX   DIFDOWN FLUX  DIRDOWN FLUX  DOWNWARD FLUX   NET FLUX    HEATING RATE
          mb          W/m2          W/m2          W/m2        W/m2          W/m2       degree/day
  51    .06700        0.1113        0.0000        3.8670        3.8670       3.755685       0.00000
  50    .07753        0.1113        0.0000        3.8644        3.8644       3.753086       2.08287
  49    .09103        0.1113        0.0000        3.8638        3.8638       3.752416       0.41878
  48    0.1069        0.1113        0.0000        3.8630        3.8630       3.751667       0.39874
  47    0.1255        0.1113        0.0000        3.8622        3.8622       3.750854       0.36879
  46    0.1487        0.1113        0.0000        3.8613        3.8613       3.749926       0.33798
  45    0.1794        0.1113        0.0000        3.8602        3.8602       3.748817       0.30446
  44    0.2165        0.1113        0.0000        3.8590        3.8590       3.747683       0.25804
  43    0.2613        0.1113        0.0000        3.8579        3.8579       3.746524       0.21851
  42    0.3336        0.1113        0.0000        3.8562        3.8562       3.744839       0.19646
  41    0.4307        0.1113        0.0000        3.8540        3.8540       3.742673       0.18827
  40    0.5894        0.1113        0.0000        3.8505        3.8505       3.739185       0.18550
  39     1.339        0.1113        0.0000        3.8352        3.8352       3.723835       0.17281
  38     1.782        0.1113        0.0000        3.8267        3.8267       3.715356       0.16143
  37     2.292        0.1113        0.0000        3.8172        3.8172       3.705837       0.15766
  36     2.964        0.1274        0.0000        0.7587        0.7587       0.631227      38.59565
  35     3.853        0.1341        0.0000        0.6859        0.6859       0.551829       0.75351
  34     5.035        0.1374        0.0000        0.6560        0.6560       0.518551       0.23772
  33     6.613        0.1392        0.0000        0.6412        0.6412       0.502036       0.08829
  32     8.786        0.1402        0.0000        0.6334        0.6334       0.493175       0.03441
  31     11.80        0.1408        0.0000        0.6285        0.6285       0.487699       0.01533
  30     15.07        0.1411        0.0000        0.6259        0.6259       0.484743       0.00763
  29     18.79        0.1414        0.0000        0.6242        0.6242       0.482850       0.00429
  28     23.16        0.1415        0.0000        0.6230        0.6230       0.481428       0.00275
  27     28.12        0.1416        0.0000        0.6220        0.6220       0.480373       0.00179
  26     33.73        0.1417        0.0000        0.6213        0.6213       0.479582       0.00119
  25     40.54        0.1418        0.0000        0.6207        0.6207       0.478911       0.00083
  24     48.69        0.1419        0.0000        0.6202        0.6202       0.478269       0.00066
  23     57.69        0.1420        0.0000        0.6196        0.6196       0.477677       0.00056
  22     68.43        0.1420        0.0000        0.6191        0.6191       0.477080       0.00047
  21     81.20        0.1421        0.0000        0.6186        0.6186       0.476478       0.00040
  20     96.49        0.1422        0.0000        0.6180        0.6180       0.475871       0.00033
  19     114.6        0.1422        0.0000        0.6175        0.6175       0.475296       0.00027
  18     136.5        0.1423        0.0000        0.6170        0.6170       0.474692       0.00023
  17     162.9        0.1424        0.0000        0.6165        0.6165       0.474135       0.00018
  16     196.4        0.1424        0.0000        0.6161        0.6161       0.473679       0.00011
  15     218.7        0.1424        0.0000        0.6160        0.6160       0.473528       0.00006
  14     243.0        0.1425        0.0000        0.6159        0.6159       0.473414       0.00004
  13     269.0        0.1425        0.0000        0.6158        0.6158       0.473317       0.00003
  12     297.5        0.1425        0.0000        0.6157        0.6157       0.473199       0.00003
  11     328.5        0.1425        0.0000        0.6155        0.6155       0.473025       0.00005
  10     361.9        0.1425        0.0000        0.6153        0.6153       0.472734       0.00007
   9     398.1        0.1426        0.0000        0.6148        0.6148       0.472254       0.00011
   8     437.6        0.1427        0.0000        0.6142        0.6142       0.471476       0.00017
   7     480.5        0.1428        0.0000        0.6131        0.6131       0.470263       0.00024
   6     533.0        0.1431        0.0000        0.6111        0.6111       0.467998       0.00036
   5     589.8        0.1435        0.0000        0.6080        0.6080       0.464521       0.00052
   4     651.6        0.1442        0.0000        0.6028        0.6028       0.458554       0.00082
   3     718.7        0.1455        0.0000        0.5942        0.5942       0.448779       0.00123
   2     792.3        0.1474        0.0000        0.5811        0.5811       0.433765       0.00172
   1     891.5        0.1511        0.0000        0.5565        0.5565       0.405328       0.00242
   0    1013.0        0.1578        0.0000        0.5172        0.5172       0.359486       0.00318

  Modules and versions used in this calculation:

       rrtmg_sw.1col.f90:  $Revision$                    rrtmg_sw_init.f90:  $Revision$        
     rrtmgsw_cldprop.f90:  $Revision$                  rrtmgsw_cldprmc.f90:  NOT USED          
     rrtmg_sw_reftra.f90:  $Revision$                  rrtmg_sw_spcvrt.f90:  NOT USED          
     rrtmg_sw_spcvmc.f90:  NOT USED                    rrtmgsw_setcoef.f90:  NOT USED          
     rrtmg_sw_taumol.f90:  $Revision$                  rrtmg_sw_vrtqdr.f90:  NOT USED          
                rrtatm.f:  NOT USED                             util_xxx.f:  NOT USED          
                 extra.f:  NOT USED                       rrtmg_sw_k_g.f90:  $Revision$        

