

 Wavenumbers:   820. - 50000. cm-1, ATM      1
 LEVEL PRESSURE   UPWARD FLUX   DIFDOWN FLUX  DIRDOWN FLUX  DOWNWARD FLUX   NET FLUX    HEATING RATE
          mb          W/m2          W/m2          W/m2        W/m2          W/m2       degree/day
  51    .06700      174.7686        0.0000      397.8738      397.8738     223.105220       0.00000
  50    .07753      174.7679        0.0012      397.8579      397.8591     223.091160      11.26927
  49    .09103      174.7672        0.0026      397.8425      397.8451     223.077880       8.30092
  48    0.1069      174.7663        0.0043      397.8240      397.8283     223.061963       8.47228
  47    0.1255      174.7653        0.0062      397.8011      397.8073     223.041971       9.06343
  46    0.1487      174.7642        0.0086      397.7696      397.7782     223.014074      10.16902
  45    0.1794      174.7626        0.0119      397.7232      397.7351     222.972497      11.41374
  44    0.2165      174.7608        0.0158      397.6637      397.6794     222.918636      12.25254
  43    0.2613      174.7587        0.0203      397.5872      397.6075     222.848799      13.16390
  42    0.3336      174.7555        0.0278      397.4508      397.4786     222.723086      14.65688
  41    0.4307      174.7516        0.0377      397.2602      397.2979     222.546360      15.36594
  40    0.5894      174.7457        0.0535      396.9364      396.9899     222.244269      16.06481
  39     1.339      174.7285        0.1244      395.4499      395.5743     220.845754      15.74474
  38     1.782      174.7257        0.1640      394.7601      394.9242     220.198510      12.32249
  37     2.292      174.7287        0.2092      394.0949      394.3041     219.575432      10.31980
  36     2.964      174.6790        0.4039      380.3501      380.7540     206.075003     169.47119
  35     3.853      174.6860        0.5291      378.1161      378.6452     203.959160      20.07973
  34     5.035      174.7265        0.6514      376.5055      377.1569     202.430366      10.92107
  33     6.613      174.7957        0.7945      375.0684      375.8630     201.067256       7.28719
  32     8.786      174.8880        0.9769      373.6442      374.6211     199.733130       5.18126
  31     11.80      175.0014        1.2312      372.0593      373.2905     198.289078       4.04289
  30     15.07      175.0997        1.5004      370.6494      372.1499     197.050169       3.19862
  29     18.79      175.1896        1.8015      369.2567      371.0582     195.868635       2.67890
  28     23.16      175.2699        2.1500      367.8024      369.9524     194.682534       2.29354
  27     28.12      175.3327        2.5450      366.3089      368.8539     193.521219       1.97416
  26     33.73      175.3603        2.9839      364.8274      367.8114     192.451094       1.60896
  25     40.54      175.3441        3.5103      363.2337      366.7440     191.399902       1.30412
  24     48.69      175.2773        4.1392      361.4900      365.6292     190.351930       1.08449
  23     57.69      175.1588        4.8235      359.7369      364.5604     189.401646       0.89075
  22     68.43      174.9692        5.6302      357.8189      363.4491     188.479975       0.72456
  21     81.20      174.6762        6.5810      355.7528      362.3338     187.657606       0.54341
  20     96.49      174.2667        7.6994      353.4988      361.1982     186.931555       0.40073
  19     114.6      173.7665        9.0049      350.4623      359.4672     185.700710       0.57472
  18     136.5      173.1609       10.5206      347.2530      357.7736     184.612763       0.41834
  17     162.9      172.4331       12.2825      343.7035      355.9860     183.552875       0.33878
  16     196.4      171.4657       14.5027      339.4241      353.9268     182.461150       0.27480
  15     218.7      170.8274       15.9218      336.7548      352.6766     181.849186       0.23234
  14     243.0      170.1381       17.4310      333.9418      351.3728     181.234675       0.21313
  13     269.0      169.3971       19.0288      330.9668      349.9957     180.598550       0.20636
  12     297.5      168.6049       20.7130      327.7598      348.4728     179.867924       0.21670
  11     328.5      167.7642       22.4850      324.1744      346.6594     178.895196       0.26448
  10     361.9      166.8778       24.3391      320.0607      344.3998     177.522019       0.34743
   9     398.1      165.9463       26.2752      315.2682      341.5433     175.597065       0.44847
   8     437.6      164.9742       28.2876      309.6619      337.9494     172.975198       0.56057
   7     480.5      163.9664       30.3723      303.1334      333.5057     169.539307       0.67480
   6     533.0      162.7804       32.8386      294.5420      327.3807     164.600267       0.79453
   5     589.8      161.5727       35.3819      285.2026      320.5845     159.011886       0.82950
   4     651.6      160.3616       37.9931      275.4213      313.4144     153.052847       0.81491
   3     718.7      159.1730       40.6578      265.3178      305.9756     146.802542       0.78549
   2     792.3      158.0466       43.3608      254.8369      298.1977     140.151117       0.76284
   1     891.5      156.8054       46.7791      241.3977      288.1768     131.371413       0.74711
   0    1013.0      155.8767       50.5640      226.3532      276.9173     121.040620       0.71732



 Wavenumbers:  2600. -  3250. cm-1, ATM      1
 LEVEL PRESSURE   UPWARD FLUX   DIFDOWN FLUX  DIRDOWN FLUX  DOWNWARD FLUX   NET FLUX    HEATING RATE
          mb          W/m2          W/m2          W/m2        W/m2          W/m2       degree/day
  51    .06700        0.2654        0.0000        3.5066        3.5066       3.241227       0.00000
  50    .07753        0.2654        0.0000        3.5066        3.5066       3.241219       0.00640
  49    .09103        0.2654        0.0000        3.5066        3.5066       3.241209       0.00627
  48    0.1069        0.2654        0.0000        3.5066        3.5066       3.241198       0.00613
  47    0.1255        0.2654        0.0000        3.5066        3.5066       3.241184       0.00599
  46    0.1487        0.2654        0.0000        3.5066        3.5066       3.241168       0.00607
  45    0.1794        0.2654        0.0000        3.5065        3.5065       3.241145       0.00624
  44    0.2165        0.2654        0.0000        3.5065        3.5065       3.241118       0.00611
  43    0.2613        0.2654        0.0000        3.5065        3.5065       3.241086       0.00598
  42    0.3336        0.2654        0.0000        3.5064        3.5064       3.241034       0.00615
  41    0.4307        0.2654        0.0000        3.5064        3.5064       3.240963       0.00617
  40    0.5894        0.2654        0.0000        3.5062        3.5062       3.240844       0.00633
  39     1.339        0.2654        0.0000        3.5055        3.5055       3.240145       0.00787
  38     1.782        0.2654        0.0000        3.5050        3.5050       3.239614       0.01010
  37     2.292        0.2654        0.0000        3.5043        3.5043       3.238922       0.01147
  36     2.964        0.2654        0.0000        3.5033        3.5033       3.237932       0.01243
  35     3.853        0.2654        0.0000        3.5019        3.5019       3.236554       0.01307
  34     5.035        0.2654        0.0000        3.5001        3.5001       3.234691       0.01331
  33     6.613        0.2654        0.0000        3.4977        3.4977       3.232278       0.01290
  32     8.786        0.2654        0.0000        3.4947        3.4947       3.229299       0.01157
  31     11.80        0.2654        0.0000        3.4910        3.4910       3.225656       0.01020
  30     15.07        0.2654        0.0000        3.4878        3.4878       3.222427       0.00834
  29     18.79        0.2654        0.0000        3.4847        3.4847       3.219349       0.00698
  28     23.16        0.2654        0.0000        3.4815        3.4815       3.216107       0.00627
  27     28.12        0.2654        0.0000        3.4778        3.4779       3.212463       0.00619
  26     33.73        0.2654        0.0000        3.4733        3.4734       3.207969       0.00676
  25     40.54        0.2654        0.0000        3.4670        3.4670       3.201608       0.00789
  24     48.69        0.2654        0.0000        3.4580        3.4580       3.192654       0.00927
  23     57.69        0.2654        0.0000        3.4469        3.4469       3.181515       0.01044
  22     68.43        0.2654        0.0000        3.4324        3.4325       3.167084       0.01134
  21     81.20        0.2654        0.0000        3.4145        3.4146       3.149160       0.01184
  20     96.49        0.2654        0.0000        3.3932        3.3932       3.127818       0.01178
  19     114.6        0.2655        0.0000        3.3335        3.3335       3.068091       0.02789
  18     136.5        0.2655        0.0001        3.2851        3.2852       3.019655       0.01862
  17     162.9        0.2656        0.0001        3.2445        3.2445       2.978895       0.01303
  16     196.4        0.2658        0.0001        3.2049        3.2050       2.939177       0.01000
  15     218.7        0.2659        0.0001        3.1826        3.1826       2.916761       0.00851
  14     243.0        0.2660        0.0001        3.1598        3.1599       2.893874       0.00794
  13     269.0        0.2661        0.0001        3.1353        3.1354       2.869264       0.00798
  12     297.5        0.2663        0.0001        3.1063        3.1064       2.840073       0.00866
  11     328.5        0.2666        0.0001        3.0678        3.0679       2.801340       0.01053
  10     361.9        0.2669        0.0001        3.0151        3.0152       2.748276       0.01343
   9     398.1        0.2674        0.0001        2.9436        2.9437       2.676356       0.01676
   8     437.6        0.2681        0.0001        2.8490        2.8491       2.581017       0.02038
   7     480.5        0.2691        0.0002        2.7282        2.7284       2.459295       0.02391
   6     533.0        0.2708        0.0002        2.5619        2.5620       2.291262       0.02703
   5     589.8        0.2732        0.0002        2.3815        2.3817       2.108441       0.02714
   4     651.6        0.2769        0.0002        2.1960        2.1962       1.919307       0.02586
   3     718.7        0.2820        0.0002        2.0043        2.0044       1.722449       0.02474
   2     792.3        0.2894        0.0002        1.8025        1.8027       1.513291       0.02399
   1     891.5        0.3036        0.0002        1.5529        1.5531       1.249539       0.02244
   0    1013.0        0.3306        0.0002        1.2960        1.2962       0.965539       0.01972



 Wavenumbers:  3250. -  4000. cm-1, ATM      1
 LEVEL PRESSURE   UPWARD FLUX   DIFDOWN FLUX  DIRDOWN FLUX  DOWNWARD FLUX   NET FLUX    HEATING RATE
          mb          W/m2          W/m2          W/m2        W/m2          W/m2       degree/day
  51    .06700        0.0007        0.0000        5.9117        5.9117       5.910926       0.00000
  50    .07753        0.0007        0.0000        5.9075        5.9075       5.906764       3.33612
  49    .09103        0.0007        0.0000        5.9052        5.9052       5.904475       1.43071
  48    0.1069        0.0007        0.0000        5.9035        5.9035       5.902762       0.91191
  47    0.1255        0.0007        0.0000        5.9019        5.9019       5.901142       0.73438
  46    0.1487        0.0007        0.0000        5.9001        5.9001       5.899407       0.63248
  45    0.1794        0.0007        0.0000        5.8982        5.8982       5.897430       0.54264
  44    0.2165        0.0007        0.0000        5.8962        5.8962       5.895482       0.44317
  43    0.2613        0.0007        0.0000        5.8943        5.8943       5.893533       0.36742
  42    0.3336        0.0007        0.0000        5.8915        5.8915       5.890777       0.32132
  41    0.4307        0.0007        0.0000        5.8881        5.8881       5.887403       0.29332
  40    0.5894        0.0007        0.0000        5.8830        5.8830       5.882297       0.27154
  39     1.339        0.0007        0.0000        5.8641        5.8641       5.863377       0.21300
  38     1.782        0.0007        0.0000        5.8561        5.8561       5.855387       0.15212
  37     2.292        0.0007        0.0000        5.8483        5.8483       5.847600       0.12897
  36     2.964        0.0007        0.0000        3.0317        3.0317       3.031011      35.35671
  35     3.853        0.0007        0.0000        2.7293        2.7293       2.728601       2.86992
  34     5.035        0.0007        0.0000        2.5801        2.5801       2.579328       1.06635
  33     6.613        0.0007        0.0000        2.4924        2.4924       2.491634       0.46881
  32     8.786        0.0007        0.0000        2.4350        2.4351       2.434308       0.22263
  31     11.80        0.0007        0.0000        2.3910        2.3910       2.390262       0.12332
  30     15.07        0.0007        0.0000        2.3616        2.3616       2.360821       0.07601
  29     18.79        0.0007        0.0000        2.3386        2.3386       2.337885       0.05200
  28     23.16        0.0007        0.0000        2.3179        2.3179       2.317147       0.04010
  27     28.12        0.0007        0.0000        2.2995        2.2995       2.298766       0.03125
  26     33.73        0.0007        0.0000        2.2831        2.2831       2.282386       0.02463
  25     40.54        0.0007        0.0000        2.2665        2.2666       2.265831       0.02054
  24     48.69        0.0007        0.0000        2.2478        2.2478       2.247078       0.01941
  23     57.69        0.0007        0.0000        2.2276        2.2276       2.226895       0.01892
  22     68.43        0.0007        0.0000        2.2042        2.2042       2.203506       0.01839
  21     81.20        0.0007        0.0000        2.1774        2.1775       2.176761       0.01767
  20     96.49        0.0007        0.0001        2.1472        2.1473       2.146578       0.01666
  19     114.6        0.0007        0.0001        2.1135        2.1136       2.112901       0.01572
  18     136.5        0.0007        0.0001        2.0763        2.0763       2.075645       0.01433
  17     162.9        0.0007        0.0001        2.0352        2.0353       2.034587       0.01312
  16     196.4        0.0007        0.0001        1.9868        1.9869       1.986251       0.01217
  15     218.7        0.0006        0.0001        1.9576        1.9577       1.957036       0.01109
  14     243.0        0.0006        0.0001        1.9277        1.9278       1.927195       0.01035
  13     269.0        0.0006        0.0001        1.8955        1.8956       1.894968       0.01045
  12     297.5        0.0006        0.0001        1.8541        1.8543       1.853678       0.01225
  11     328.5        0.0006        0.0002        1.7923        1.7924       1.791835       0.01681
  10     361.9        0.0006        0.0002        1.7003        1.7005       1.699878       0.02327
   9     398.1        0.0006        0.0002        1.5744        1.5745       1.573966       0.02933
   8     437.6        0.0006        0.0002        1.4145        1.4147       1.414125       0.03417
   7     480.5        0.0006        0.0002        1.2259        1.2261       1.225504       0.03704
   6     533.0        0.0006        0.0002        0.9846        0.9848       0.984172       0.03882
   5     589.8        0.0006        0.0001        0.7401        0.7402       0.739608       0.03630
   4     651.6        0.0007        0.0001        0.5136        0.5137       0.512960       0.03099
   3     718.7        0.0009        0.0001        0.3259        0.3260       0.325094       0.02361
   2     792.3        0.0012        0.0001        0.1787        0.1787       0.177537       0.01692
   1     891.5        0.0023        0.0000        0.0588        0.0589       0.056553       0.01030
   0    1013.0        0.0075        0.0000        0.0079        0.0079       0.000416       0.00390



 Wavenumbers:  4000. -  4650. cm-1, ATM      1
 LEVEL PRESSURE   UPWARD FLUX   DIFDOWN FLUX  DIRDOWN FLUX  DOWNWARD FLUX   NET FLUX    HEATING RATE
          mb          W/m2          W/m2          W/m2        W/m2          W/m2       degree/day
  51    .06700        0.6617        0.0000        6.9421        6.9421       6.280336       0.00000
  50    .07753        0.6617        0.0000        6.9421        6.9421       6.280335       0.00080
  49    .09103        0.6617        0.0000        6.9421        6.9421       6.280333       0.00078
  48    0.1069        0.6617        0.0000        6.9421        6.9421       6.280332       0.00077
  47    0.1255        0.6617        0.0000        6.9421        6.9421       6.280330       0.00075
  46    0.1487        0.6617        0.0000        6.9421        6.9421       6.280328       0.00076
  45    0.1794        0.6617        0.0000        6.9421        6.9421       6.280325       0.00078
  44    0.2165        0.6617        0.0000        6.9421        6.9421       6.280322       0.00077
  43    0.2613        0.6617        0.0000        6.9421        6.9421       6.280318       0.00075
  42    0.3336        0.6617        0.0000        6.9420        6.9420       6.280312       0.00077
  41    0.4307        0.6617        0.0000        6.9420        6.9420       6.280303       0.00078
  40    0.5894        0.6617        0.0000        6.9420        6.9420       6.280288       0.00080
  39     1.339        0.6617        0.0000        6.9419        6.9419       6.280198       0.00101
  38     1.782        0.6617        0.0000        6.9418        6.9419       6.280128       0.00133
  37     2.292        0.6617        0.0000        6.9418        6.9418       6.280034       0.00156
  36     2.964        0.6617        0.0000        6.9416        6.9416       6.279894       0.00176
  35     3.853        0.6617        0.0000        6.9414        6.9414       6.279686       0.00197
  34     5.035        0.6617        0.0000        6.9411        6.9411       6.279379       0.00219
  33     6.613        0.6617        0.0000        6.9406        6.9406       6.278928       0.00241
  32     8.786        0.6617        0.0000        6.9399        6.9400       6.278263       0.00258
  31     11.80        0.6617        0.0001        6.9389        6.9389       6.277221       0.00292
  30     15.07        0.6617        0.0001        6.9376        6.9377       6.276001       0.00315
  29     18.79        0.6617        0.0001        6.9361        6.9362       6.274531       0.00333
  28     23.16        0.6616        0.0001        6.9343        6.9344       6.272713       0.00352
  27     28.12        0.6616        0.0001        6.9320        6.9322       6.270522       0.00373
  26     33.73        0.6616        0.0001        6.9293        6.9294       6.267833       0.00404
  25     40.54        0.6616        0.0002        6.9256        6.9258       6.264206       0.00450
  24     48.69        0.6616        0.0002        6.9208        6.9210       6.259406       0.00497
  23     57.69        0.6616        0.0002        6.9151        6.9153       6.253753       0.00530
  22     68.43        0.6615        0.0003        6.9080        6.9083       6.246725       0.00552
  21     81.20        0.6615        0.0003        6.8993        6.8996       6.238135       0.00568
  20     96.49        0.6615        0.0004        6.8889        6.8892       6.227755       0.00573
  19     114.6        0.6615        0.0004        6.8552        6.8556       6.194096       0.01572
  18     136.5        0.6616        0.0005        6.8264        6.8269       6.165341       0.01106
  17     162.9        0.6617        0.0006        6.7953        6.7959       6.134264       0.00993
  16     196.4        0.6618        0.0007        6.7572        6.7579       6.096094       0.00961
  15     218.7        0.6619        0.0008        6.7331        6.7339       6.071996       0.00915
  14     243.0        0.6620        0.0009        6.7076        6.7085       6.046447       0.00886
  13     269.0        0.6622        0.0010        6.6799        6.6809       6.018713       0.00900
  12     297.5        0.6624        0.0011        6.6479        6.6489       5.986556       0.00954
  11     328.5        0.6627        0.0012        6.6074        6.6085       5.945843       0.01107
  10     361.9        0.6631        0.0013        6.5538        6.5550       5.891884       0.01365
   9     398.1        0.6638        0.0014        6.4831        6.4845       5.820700       0.01658
   8     437.6        0.6646        0.0015        6.3932        6.3947       5.730048       0.01938
   7     480.5        0.6657        0.0016        6.2833        6.2849       5.619202       0.02177
   6     533.0        0.6675        0.0018        6.1352        6.1370       5.469539       0.02408
   5     589.8        0.6699        0.0019        5.9641        5.9661       5.296163       0.02573
   4     651.6        0.6734        0.0021        5.7572        5.7592       5.085850       0.02876
   3     718.7        0.6784        0.0022        5.5100        5.5122       4.833853       0.03167
   2     792.3        0.6857        0.0023        5.2333        5.2357       4.550022       0.03255
   1     891.5        0.6996        0.0025        4.8835        4.8860       4.186417       0.03094
   0    1013.0        0.7260        0.0026        4.5054        4.5080       3.782061       0.02808



 Wavenumbers:  4650. -  5150. cm-1, ATM      1
 LEVEL PRESSURE   UPWARD FLUX   DIFDOWN FLUX  DIRDOWN FLUX  DOWNWARD FLUX   NET FLUX    HEATING RATE
          mb          W/m2          W/m2          W/m2        W/m2          W/m2       degree/day
  51    .06700        0.4698        0.0000        6.5710        6.5710       6.101219       0.00000
  50    .07753        0.4698        0.0000        6.5708        6.5708       6.100984       0.18851
  49    .09103        0.4698        0.0000        6.5705        6.5705       6.100690       0.18325
  48    0.1069        0.4698        0.0000        6.5701        6.5701       6.100357       0.17768
  47    0.1255        0.4698        0.0000        6.5698        6.5698       6.099977       0.17200
  46    0.1487        0.4698        0.0000        6.5693        6.5693       6.099505       0.17227
  45    0.1794        0.4698        0.0000        6.5686        6.5686       6.098870       0.17430
  44    0.2165        0.4698        0.0000        6.5679        6.5679       6.098133       0.16746
  43    0.2613        0.4698        0.0000        6.5671        6.5671       6.097283       0.16039
  42    0.3336        0.4698        0.0000        6.5657        6.5657       6.095923       0.15855
  41    0.4307        0.4698        0.0000        6.5640        6.5640       6.094200       0.14976
  40    0.5894        0.4698        0.0000        6.5614        6.5614       6.091584       0.13911
  39     1.339        0.4698        0.0000        6.5516        6.5516       6.081813       0.11001
  38     1.782        0.4698        0.0000        6.5473        6.5473       6.077582       0.08054
  37     2.292        0.4698        0.0000        6.5434        6.5434       6.073656       0.06503
  36     2.964        0.4698        0.0000        6.5394        6.5394       6.069630       0.05054
  35     3.853        0.4697        0.0000        6.5353        6.5353       6.065591       0.03832
  34     5.035        0.4697        0.0000        6.5312        6.5312       6.061490       0.02930
  33     6.613        0.4697        0.0001        6.5267        6.5267       6.057010       0.02395
  32     8.786        0.4697        0.0001        6.5211        6.5212       6.051452       0.02158
  31     11.80        0.4697        0.0001        6.5129        6.5130       6.043307       0.02280
  30     15.07        0.4697        0.0001        6.5035        6.5036       6.033874       0.02435
  29     18.79        0.4697        0.0001        6.4918        6.4920       6.022288       0.02627
  28     23.16        0.4697        0.0001        6.4771        6.4773       6.007609       0.02838
  27     28.12        0.4696        0.0002        6.4590        6.4592       5.989575       0.03066
  26     33.73        0.4696        0.0002        6.4375        6.4377       5.968113       0.03227
  25     40.54        0.4696        0.0002        6.4103        6.4106       5.940992       0.03365
  24     48.69        0.4696        0.0003        6.3767        6.3769       5.907383       0.03478
  23     57.69        0.4695        0.0003        6.3395        6.3399       5.870316       0.03474
  22     68.43        0.4695        0.0004        6.2963        6.2967       5.827137       0.03394
  21     81.20        0.4695        0.0005        6.2473        6.2478       5.778290       0.03228
  20     96.49        0.4695        0.0005        6.1938        6.1943       5.724830       0.02951
  19     114.6        0.4695        0.0006        6.1258        6.1264       5.656921       0.03171
  18     136.5        0.4696        0.0007        6.0570        6.0578       5.588196       0.02643
  17     162.9        0.4697        0.0009        5.9854        5.9862       5.516561       0.02290
  16     196.4        0.4698        0.0010        5.9005        5.9015       5.431712       0.02136
  15     218.7        0.4699        0.0011        5.8466        5.8478       5.377865       0.02044
  14     243.0        0.4701        0.0012        5.7884        5.7896       5.319570       0.02022
  13     269.0        0.4702        0.0014        5.7245        5.7259       5.255649       0.02074
  12     297.5        0.4705        0.0015        5.6523        5.6538       5.183306       0.02146
  11     328.5        0.4708        0.0016        5.5676        5.5693       5.098488       0.02306
  10     361.9        0.4713        0.0018        5.4677        5.4695       4.998255       0.02536
   9     398.1        0.4719        0.0019        5.3508        5.3528       4.880829       0.02736
   8     437.6        0.4729        0.0021        5.2146        5.2167       4.743839       0.02929
   7     480.5        0.4742        0.0022        5.0565        5.0587       4.584526       0.03129
   6     533.0        0.4762        0.0024        4.8483        4.8506       4.374421       0.03380
   5     589.8        0.4791        0.0025        4.6197        4.6222       4.143135       0.03433
   4     651.6        0.4831        0.0027        4.3782        4.3808       3.897712       0.03356
   3     718.7        0.4887        0.0028        4.1307        4.1335       3.644773       0.03179
   2     792.3        0.4966        0.0029        3.8771        3.8800       3.383495       0.02997
   1     891.5        0.5108        0.0031        3.5600        3.5631       3.052265       0.02819
   0    1013.0        0.5362        0.0032        3.2154        3.2185       2.682368       0.02568



 Wavenumbers:  5150. -  6150. cm-1, ATM      1
 LEVEL PRESSURE   UPWARD FLUX   DIFDOWN FLUX  DIRDOWN FLUX  DOWNWARD FLUX   NET FLUX    HEATING RATE
          mb          W/m2          W/m2          W/m2        W/m2          W/m2       degree/day
  51    .06700        1.2786        0.0000       16.4735       16.4735      15.194923       0.00000
  50    .07753        1.2786        0.0000       16.4735       16.4735      15.194922       0.00018
  49    .09103        1.2786        0.0000       16.4735       16.4735      15.194922       0.00018
  48    0.1069        1.2786        0.0000       16.4735       16.4735      15.194922       0.00017
  47    0.1255        1.2786        0.0000       16.4735       16.4735      15.194921       0.00017
  46    0.1487        1.2786        0.0000       16.4735       16.4735      15.194921       0.00017
  45    0.1794        1.2786        0.0000       16.4735       16.4735      15.194920       0.00018
  44    0.2165        1.2786        0.0000       16.4735       16.4735      15.194919       0.00017
  43    0.2613        1.2786        0.0000       16.4735       16.4735      15.194919       0.00017
  42    0.3336        1.2786        0.0000       16.4735       16.4735      15.194917       0.00018
  41    0.4307        1.2786        0.0000       16.4735       16.4735      15.194915       0.00018
  40    0.5894        1.2786        0.0000       16.4735       16.4735      15.194912       0.00018
  39     1.339        1.2786        0.0000       16.4734       16.4734      15.194891       0.00023
  38     1.782        1.2785        0.0000       16.4734       16.4734      15.194875       0.00031
  37     2.292        1.2785        0.0001       16.4733       16.4734      15.194854       0.00036
  36     2.964        1.2791        0.0001       13.8741       13.8742      12.595047      32.63543
  35     3.853        1.2794        0.0001       13.5090       13.5092      12.229745       3.46678
  34     5.035        1.2796        0.0002       13.3286       13.3287      12.049103       1.29043
  33     6.613        1.2797        0.0002       13.2211       13.2212      11.941509       0.57519
  32     8.786        1.2798        0.0002       13.1497       13.1499      11.870126       0.27723
  31     11.80        1.2798        0.0003       13.0940       13.0943      11.814497       0.15574
  30     15.07        1.2799        0.0004       13.0564       13.0568      11.776934       0.09698
  29     18.79        1.2799        0.0004       13.0268       13.0273      11.747429       0.06690
  28     23.16        1.2798        0.0005       12.9999       13.0004      11.720599       0.05188
  27     28.12        1.2798        0.0006       12.9759       12.9765      11.696670       0.04068
  26     33.73        1.2798        0.0007       12.9542       12.9549      11.675154       0.03235
  25     40.54        1.2797        0.0009       12.9320       12.9328      11.653116       0.02734
  24     48.69        1.2797        0.0010       12.9064       12.9074      11.627727       0.02627
  23     57.69        1.2796        0.0012       12.8783       12.8795      11.599897       0.02609
  22     68.43        1.2796        0.0014       12.8451       12.8466      11.566986       0.02587
  21     81.20        1.2795        0.0017       12.8062       12.8079      11.528359       0.02552
  20     96.49        1.2795        0.0020       12.7611       12.7631      11.483594       0.02471
  19     114.6        1.2794        0.0024       12.7095       12.7119      11.432473       0.02387
  18     136.5        1.2793        0.0028       12.6523       12.6551      11.375761       0.02181
  17     162.9        1.2792        0.0033       12.5911       12.5944      11.315237       0.01935
  16     196.4        1.2790        0.0039       12.5234       12.5273      11.248361       0.01683
  15     218.7        1.2788        0.0044       12.4860       12.4903      11.211520       0.01399
  14     243.0        1.2786        0.0048       12.4478       12.4526      11.174004       0.01301
  13     269.0        1.2784        0.0053       12.4057       12.4110      11.132662       0.01341
  12     297.5        1.2781        0.0059       12.3493       12.3552      11.077018       0.01650
  11     328.5        1.2779        0.0065       12.2590       12.2654      10.987528       0.02433
  10     361.9        1.2777        0.0070       12.1096       12.1167      10.838914       0.03760
   9     398.1        1.2776        0.0076       11.8774       11.8850      10.607370       0.05394
   8     437.6        1.2777        0.0082       11.5443       11.5525      10.274830       0.07110
   7     480.5        1.2779        0.0087       11.1094       11.1181       9.840212       0.08536
   6     533.0        1.2786        0.0093       10.5300       10.5393       9.260662       0.09323
   5     589.8        1.2800        0.0098        9.9778        9.9876       8.707635       0.08209
   4     651.6        1.2824        0.0103        9.5104        9.5207       8.238286       0.06418
   3     718.7        1.2865        0.0109        9.1203        9.1312       7.844728       0.04946
   2     792.3        1.2933        0.0115        8.7563        8.7678       7.474532       0.04246
   1     891.5        1.3081        0.0124        8.2810        8.2933       6.985225       0.04164
   0    1013.0        1.3416        0.0133        7.7504        7.7636       6.422025       0.03911



 Wavenumbers:  6150. -  7700. cm-1, ATM      1
 LEVEL PRESSURE   UPWARD FLUX   DIFDOWN FLUX  DIRDOWN FLUX  DOWNWARD FLUX   NET FLUX    HEATING RATE
          mb          W/m2          W/m2          W/m2        W/m2          W/m2       degree/day
  51    .06700        1.9942        0.0000       30.4684       30.4684      28.474186       0.00000
  50    .07753        1.9942        0.0000       30.4684       30.4684      28.474170       0.01303
  49    .09103        1.9942        0.0000       30.4683       30.4683      28.474149       0.01277
  48    0.1069        1.9942        0.0000       30.4683       30.4683      28.474126       0.01250
  47    0.1255        1.9942        0.0000       30.4683       30.4683      28.474099       0.01223
  46    0.1487        1.9942        0.0000       30.4682       30.4683      28.474065       0.01241
  45    0.1794        1.9942        0.0000       30.4682       30.4682      28.474018       0.01276
  44    0.2165        1.9942        0.0000       30.4681       30.4681      28.473963       0.01252
  43    0.2613        1.9942        0.0000       30.4681       30.4681      28.473898       0.01228
  42    0.3336        1.9942        0.0000       30.4679       30.4680      28.473790       0.01256
  41    0.4307        1.9942        0.0000       30.4678       30.4678      28.473648       0.01241
  40    0.5894        1.9941        0.0001       30.4675       30.4676      28.473415       0.01239
  39     1.339        1.9941        0.0001       30.4662       30.4664      28.472315       0.01238
  38     1.782        1.9940        0.0002       30.4655       30.4657      28.471670       0.01227
  37     2.292        1.9940        0.0002       30.4647       30.4649      28.470925       0.01234
  36     2.964        1.9946        0.0004       26.2106       26.2110      24.216453      53.40649
  35     3.853        1.9949        0.0005       25.6275       25.6280      23.633125       5.53589
  34     5.035        1.9951        0.0007       25.3487       25.3493      23.354260       1.99209
  33     6.613        1.9951        0.0008       25.1870       25.1878      23.192686       0.86378
  32     8.786        1.9951        0.0010       25.0822       25.0832      23.088147       0.40599
  31     11.80        1.9949        0.0013       25.0023       25.0036      23.008639       0.22260
  30     15.07        1.9947        0.0016       24.9493       24.9509      22.956143       0.13554
  29     18.79        1.9945        0.0019       24.9083       24.9102      22.915728       0.09163
  28     23.16        1.9942        0.0023       24.8715       24.8738      22.879601       0.06986
  27     28.12        1.9938        0.0027       24.8390       24.8418      22.848000       0.05372
  26     33.73        1.9934        0.0032       24.8105       24.8137      22.820337       0.04159
  25     40.54        1.9929        0.0038       24.7820       24.7858      22.792974       0.03395
  24     48.69        1.9922        0.0046       24.7501       24.7546      22.762394       0.03165
  23     57.69        1.9915        0.0053       24.7158       24.7212      22.729626       0.03071
  22     68.43        1.9907        0.0063       24.6760       24.6822      22.691521       0.02996
  21     81.20        1.9897        0.0074       24.6295       24.6369      22.647205       0.02928
  20     96.49        1.9886        0.0087       24.5756       24.5843      22.595782       0.02838
  19     114.6        1.9872        0.0103       24.5128       24.5231      22.535968       0.02793
  18     136.5        1.9855        0.0122       24.4406       24.4528      22.467235       0.02643
  17     162.9        1.9836        0.0144       24.3573       24.3717      22.388123       0.02529
  16     196.4        1.9810        0.0173       24.2531       24.2704      22.289377       0.02486
  15     218.7        1.9793        0.0191       24.1868       24.2059      22.226584       0.02384
  14     243.0        1.9775        0.0212       24.1162       24.1374      22.159901       0.02313
  13     269.0        1.9755        0.0234       24.0366       24.0600      22.084448       0.02448
  12     297.5        1.9734        0.0258       23.9286       23.9543      21.980920       0.03071
  11     328.5        1.9712        0.0283       23.7535       23.7817      21.810525       0.04633
  10     361.9        1.9690        0.0309       23.4608       23.4917      21.522659       0.07283
   9     398.1        1.9669        0.0335       22.9980       23.0315      21.064543       0.10673
   8     437.6        1.9651        0.0360       22.3163       22.3523      20.387227       0.14481
   7     480.5        1.9638        0.0382       21.3873       21.4255      19.461743       0.18176
   6     533.0        1.9635        0.0403       20.0642       20.1045      18.140931       0.21248
   5     589.8        1.9652        0.0420       18.6583       18.7002      16.735034       0.20868
   4     651.6        1.9700        0.0434       17.2844       17.3278      15.357771       0.18834
   3     718.7        1.9795        0.0446       15.9850       16.0296      14.050111       0.16434
   2     792.3        1.9968        0.0457       14.7621       14.8078      12.811044       0.14211
   1     891.5        2.0356        0.0470       13.3861       13.4332      11.397574       0.12028
   0    1013.0        2.1225        0.0484       12.0282       12.0767       9.954198       0.10022



 Wavenumbers:  7700. -  8050. cm-1, ATM      1
 LEVEL PRESSURE   UPWARD FLUX   DIFDOWN FLUX  DIRDOWN FLUX  DOWNWARD FLUX   NET FLUX    HEATING RATE
          mb          W/m2          W/m2          W/m2        W/m2          W/m2       degree/day
  51    .06700        1.0344        0.0000        7.2006        7.2006       6.166178       0.00000
  50    .07753        1.0344        0.0000        7.2006        7.2006       6.166160       0.01475
  49    .09103        1.0344        0.0000        7.2005        7.2005       6.166137       0.01445
  48    0.1069        1.0344        0.0000        7.2005        7.2005       6.166110       0.01415
  47    0.1255        1.0344        0.0000        7.2005        7.2005       6.166080       0.01385
  46    0.1487        1.0344        0.0000        7.2004        7.2005       6.166041       0.01405
  45    0.1794        1.0344        0.0000        7.2004        7.2004       6.165989       0.01446
  44    0.2165        1.0344        0.0000        7.2003        7.2003       6.165926       0.01418
  43    0.2613        1.0344        0.0000        7.2003        7.2003       6.165852       0.01391
  42    0.3336        1.0344        0.0000        7.2001        7.2001       6.165730       0.01424
  41    0.4307        1.0344        0.0000        7.2000        7.2000       6.165568       0.01408
  40    0.5894        1.0344        0.0000        7.1997        7.1997       6.165304       0.01406
  39     1.339        1.0344        0.0001        7.1984        7.1985       6.164053       0.01408
  38     1.782        1.0344        0.0001        7.1977        7.1978       6.163319       0.01398
  37     2.292        1.0345        0.0001        7.1968        7.1969       6.162469       0.01407
  36     2.964        1.0344        0.0002        7.1956        7.1958       6.161354       0.01400
  35     3.853        1.0344        0.0003        7.1940        7.1943       6.159882       0.01397
  34     5.035        1.0344        0.0003        7.1920        7.1924       6.157927       0.01396
  33     6.613        1.0345        0.0004        7.1894        7.1898       6.155319       0.01394
  32     8.786        1.0345        0.0005        7.1858        7.1863       6.151810       0.01363
  31     11.80        1.0346        0.0006        7.1808        7.1814       6.146802       0.01402
  30     15.07        1.0347        0.0008        7.1753        7.1761       6.141442       0.01384
  29     18.79        1.0347        0.0009        7.1692        7.1701       6.135406       0.01368
  28     23.16        1.0348        0.0011        7.1621        7.1632       6.128385       0.01358
  27     28.12        1.0350        0.0013        7.1540        7.1554       6.120393       0.01359
  26     33.73        1.0351        0.0016        7.1450        7.1466       6.111498       0.01337
  25     40.54        1.0352        0.0018        7.1342        7.1361       6.100819       0.01325
  24     48.69        1.0354        0.0022        7.1213        7.1235       6.088044       0.01322
  23     57.69        1.0357        0.0026        7.1072        7.1098       6.074137       0.01304
  22     68.43        1.0359        0.0030        7.0906        7.0937       6.057742       0.01289
  21     81.20        1.0362        0.0036        7.0711        7.0747       6.038445       0.01275
  20     96.49        1.0366        0.0042        7.0482        7.0524       6.015779       0.01251
  19     114.6        1.0371        0.0050        7.0212        7.0262       5.989069       0.01247
  18     136.5        1.0377        0.0059        6.9899        6.9958       5.958069       0.01192
  17     162.9        1.0384        0.0069        6.9535        6.9604       5.922014       0.01152
  16     196.4        1.0394        0.0083        6.9076        6.9159       5.876547       0.01144
  15     218.7        1.0400        0.0092        6.8782        6.8874       5.847395       0.01107
  14     243.0        1.0407        0.0102        6.8469        6.8570       5.816299       0.01078
  13     269.0        1.0415        0.0112        6.8136        6.8248       5.783239       0.01072
  12     297.5        1.0424        0.0123        6.7782        6.7906       5.748135       0.01041
  11     328.5        1.0434        0.0135        6.7407        6.7542       5.710819       0.01015
  10     361.9        1.0446        0.0148        6.7008        6.7157       5.671130       0.01004
   9     398.1        1.0459        0.0162        6.6585        6.6747       5.628867       0.00985
   8     437.6        1.0474        0.0177        6.6132        6.6310       5.583600       0.00968
   7     480.5        1.0491        0.0193        6.5646        6.5839       5.534837       0.00958
   6     533.0        1.0515        0.0213        6.5041        6.5254       5.473904       0.00980
   5     589.8        1.0544        0.0233        6.4376        6.4610       5.406576       0.00999
   4     651.6        1.0580        0.0256        6.3643        6.3898       5.331872       0.01022
   3     718.7        1.0624        0.0279        6.2827        6.3106       5.248227       0.01051
   2     792.3        1.0678        0.0304        6.1912        6.2216       5.153799       0.01083
   1     891.5        1.0766        0.0337        6.0606        6.0943       5.017733       0.01158
   0    1013.0        1.0896        0.0374        5.8911        5.9285       4.838902       0.01242



 Wavenumbers:  8050. - 12850. cm-1, ATM      1
 LEVEL PRESSURE   UPWARD FLUX   DIFDOWN FLUX  DIRDOWN FLUX  DOWNWARD FLUX   NET FLUX    HEATING RATE
          mb          W/m2          W/m2          W/m2        W/m2          W/m2       degree/day
  51    .06700       22.0248        0.0000      100.8135      100.8135      78.788720       0.00000
  50    .07753       22.0248        0.0000      100.8135      100.8135      78.788720       0.00000
  49    .09103       22.0248        0.0001      100.8134      100.8135      78.788720       0.00000
  48    0.1069       22.0247        0.0001      100.8134      100.8134      78.788720      -0.00000
  47    0.1255       22.0247        0.0001      100.8133      100.8134      78.788720       0.00000
  46    0.1487       22.0247        0.0002      100.8132      100.8134      78.788720      -0.00000
  45    0.1794       22.0246        0.0002      100.8131      100.8133      78.788720       0.00000
  44    0.2165       22.0245        0.0003      100.8129      100.8132      78.788720      -0.00000
  43    0.2613       22.0245        0.0004      100.8127      100.8132      78.788720       0.00000
  42    0.3336       22.0243        0.0006      100.8125      100.8130      78.788720       0.00000
  41    0.4307       22.0241        0.0008      100.8121      100.8129      78.788720       0.00000
  40    0.5894       22.0239        0.0011      100.8115      100.8126      78.788720      -0.00000
  39     1.339       22.0225        0.0028      100.8085      100.8113      78.788720       0.00000
  38     1.782       22.0218        0.0037      100.8068      100.8105      78.788720       0.00000
  37     2.292       22.0209        0.0048      100.8047      100.8096      78.788720       0.00000
  36     2.964       22.0170        0.0095      100.7962      100.8058      78.788720      -0.00000
  35     3.853       22.0145        0.0127      100.7905      100.8032      78.788720       0.00000
  34     5.035       22.0119        0.0158      100.7848      100.8007      78.788720       0.00000
  33     6.613       22.0089        0.0195      100.7781      100.7976      78.788720      -0.00000
  32     8.786       22.0050        0.0243      100.7694      100.7937      78.788720       0.00000
  31     11.80       21.9996        0.0310      100.7573      100.7883      78.788720       0.00000
  30     15.07       21.9937        0.0382      100.7443      100.7825      78.788720      -0.00000
  29     18.79       21.9872        0.0462      100.7297      100.7759      78.788720      -0.00000
  28     23.16       21.9795        0.0556      100.7126      100.7682      78.788720       0.00000
  27     28.12       21.9707        0.0664      100.6931      100.7595      78.788720       0.00000
  26     33.73       21.9609        0.0784      100.6712      100.7497      78.788720       0.00000
  25     40.54       21.9491        0.0930      100.6448      100.7378      78.788720      -0.00000
  24     48.69       21.9347        0.1106      100.6129      100.7235      78.788720       0.00000
  23     57.69       21.9190        0.1299      100.5778      100.7077      78.788720      -0.00000
  22     68.43       21.9002        0.1530      100.5359      100.6889      78.788720      -0.00000
  21     81.20       21.8778        0.1805      100.4860      100.6665      78.788720       0.00000
  20     96.49       21.8510        0.2133      100.4264      100.6397      78.788720       0.00000
  19     114.6       21.8235        0.2519       99.9378      100.1897      78.366224       0.19728
  18     136.5       21.7898        0.2978       99.5857       99.8834      78.093664       0.10481
  17     162.9       21.7481        0.3524       99.2767       99.6291      77.880980       0.06798
  16     196.4       21.6923        0.4235       98.9486       99.3721      77.679822       0.05063
  15     218.7       21.6547        0.4702       98.7578       99.2280      77.573293       0.04045
  14     243.0       21.6137        0.5211       98.5627       99.0837      77.470029       0.03582
  13     269.0       21.5691        0.5762       98.3537       98.9300      77.360827       0.03542
  12     297.5       21.5210        0.6358       98.1034       98.7393      77.218224       0.04229
  11     328.5       21.4695        0.7000       97.7620       98.4620      76.992516       0.06137
  10     361.9       21.4151        0.7688       97.2733       98.0421      76.627057       0.09246
   9     398.1       21.3581        0.8420       96.5827       97.4248      76.066640       0.13056
   8     437.6       21.2998        0.9194       95.6335       96.5529      75.253097       0.17394
   7     480.5       21.2422        1.0004       94.3542       95.3546      74.112416       0.22403
   6     533.0       21.1811        1.0965       92.4057       93.5021      72.320998       0.28818
   5     589.8       21.1301        1.1956       90.0315       91.2271      70.096985       0.33012
   4     651.6       21.0965        1.2974       87.3431       88.6405      67.543907       0.34914
   3     718.7       21.0919        1.4012       84.3896       85.7908      64.698970       0.35753
   2     792.3       21.1351        1.5061       81.1446       82.6507      61.515602       0.36510
   1     891.5       21.2963        1.6375       76.8136       78.4511      57.154873       0.37108
   0    1013.0       21.7309        1.7804       71.8646       73.6450      51.914071       0.36390



 Wavenumbers: 12850. - 16000. cm-1, ATM      1
 LEVEL PRESSURE   UPWARD FLUX   DIFDOWN FLUX  DIRDOWN FLUX  DOWNWARD FLUX   NET FLUX    HEATING RATE
          mb          W/m2          W/m2          W/m2        W/m2          W/m2       degree/day
  51    .06700       32.3578        0.0000       63.1686       63.1686      30.810751       0.00000
  50    .07753       32.3578        0.0001       63.1677       63.1678      30.809972       0.62436
  49    .09103       32.3578        0.0001       63.1666       63.1668      30.809001       0.60664
  48    0.1069       32.3577        0.0002       63.1654       63.1656      30.807897       0.58811
  47    0.1255       32.3577        0.0003       63.1640       63.1643      30.806640       0.56952
  46    0.1487       32.3576        0.0004       63.1623       63.1627      30.805074       0.57087
  45    0.1794       32.3576        0.0006       63.1600       63.1606      30.802975       0.57634
  44    0.2165       32.3575        0.0008       63.1573       63.1581      30.800547       0.55218
  43    0.2613       32.3575        0.0010       63.1542       63.1552      30.797749       0.52748
  42    0.3336       32.3574        0.0014       63.1493       63.1507      30.793292       0.51967
  41    0.4307       32.3573        0.0019       63.1431       63.1450      30.787709       0.48540
  40    0.5894       32.3572        0.0027       63.1338       63.1365      30.779262       0.44921
  39     1.339       32.3581        0.0065       63.0955       63.1020      30.743894       0.39818
  38     1.782       32.3595        0.0087       63.0739       63.0826      30.723124       0.39542
  37     2.292       32.3619        0.0113       63.0474       63.0587      30.696787       0.43621
  36     2.964       32.3616        0.0223       62.9967       63.0190      30.657402       0.49441
  35     3.853       32.3674        0.0296       62.9355       62.9652      30.597736       0.56624
  34     5.035       32.3785        0.0369       62.8523       62.8893      30.510787       0.62112
  33     6.613       32.3949        0.0456       62.7406       62.7861      30.391261       0.63899
  32     8.786       32.4164        0.0566       62.5960       62.6526      30.236207       0.60217
  31     11.80       32.4439        0.0721       62.4055       62.4776      30.033679       0.56701
  30     15.07       32.4695        0.0886       62.2194       62.3079      29.838390       0.50420
  29     18.79       32.4949        0.1071       62.0257       62.1328      29.637884       0.45461
  28     23.16       32.5204        0.1286       61.8187       61.9472      29.426822       0.40812
  27     28.12       32.5447        0.1531       61.6039       61.7569      29.212212       0.36482
  26     33.73       32.5650        0.1804       61.3937       61.5741      29.009072       0.30543
  25     40.54       32.5814        0.2134       61.1743       61.3877      28.806205       0.25168
  24     48.69       32.5935        0.2531       60.9439       61.1970      28.603536       0.20973
  23     57.69       32.5991        0.2966       60.7237       61.0204      28.421237       0.17088
  22     68.43       32.5977        0.3484       60.4962       60.8446      28.246895       0.13706
  21     81.20       32.5847        0.4101       60.2698       60.6799      28.095184       0.10025
  20     96.49       32.5590        0.4835       60.0403       60.5239      27.964898       0.07191
  19     114.6       32.5289        0.5712       59.7760       60.3472      27.818277       0.06846
  18     136.5       32.4887        0.6749       59.4763       60.1512      27.662523       0.05989
  17     162.9       32.4365        0.7981       59.1306       59.9287      27.492162       0.05445
  16     196.4       32.3598        0.9573       58.7076       59.6648      27.304981       0.04712
  15     218.7       32.3062        1.0615       58.4395       59.5010      27.194807       0.04183
  14     243.0       32.2463        1.1745       58.1530       59.3276      27.081230       0.03939
  13     269.0       32.1799        1.2968       57.8484       59.1451      26.965203       0.03764
  12     297.5       32.1068        1.4285       57.5238       58.9522      26.845438       0.03552
  11     328.5       32.0274        1.5704       57.1739       58.7443      26.716894       0.03495
  10     361.9       31.9421        1.7228       56.7953       58.5181      26.576034       0.03564
   9     398.1       31.8509        1.8862       56.3832       58.2695      26.418554       0.03669
   8     437.6       31.7546        2.0610       55.9304       57.9914      26.236808       0.03886
   7     480.5       31.6544        2.2475       55.4275       57.6750      26.020608       0.04246
   6     533.0       31.5376        2.4755       54.7740       57.2495      25.711875       0.04967
   5     589.8       31.4219        2.7189       54.0283       56.7472      25.325340       0.05737
   4     651.6       31.3116        2.9777       53.1822       56.1599      24.848290       0.06524
   3     718.7       31.2118        3.2511       52.2370       55.4880      24.276203       0.07190
   2     792.3       31.1300        3.5378       51.1948       54.7326      23.602544       0.07726
   1     891.5       31.0707        3.9140       49.7517       53.6657      22.595003       0.08574
   0    1013.0       31.1006        4.3484       47.9704       52.3188      21.218180       0.09560



 Wavenumbers: 16000. - 22650. cm-1, ATM      1
 LEVEL PRESSURE   UPWARD FLUX   DIFDOWN FLUX  DIRDOWN FLUX  DOWNWARD FLUX   NET FLUX    HEATING RATE
          mb          W/m2          W/m2          W/m2        W/m2          W/m2       degree/day
  51    .06700       75.3864        0.0000      100.7153      100.7153      25.328934       0.00000
  50    .07753       75.3862        0.0003      100.7147      100.7151      25.328817       0.09386
  49    .09103       75.3861        0.0007      100.7140      100.7147      25.328646       0.10646
  48    0.1069       75.3859        0.0012      100.7131      100.7143      25.328418       0.12140
  47    0.1255       75.3857        0.0017      100.7121      100.7139      25.328113       0.13838
  46    0.1487       75.3855        0.0024      100.7108      100.7132      25.327663       0.16397
  45    0.1794       75.3853        0.0034      100.7089      100.7122      25.326960       0.19307
  44    0.2165       75.3850        0.0045      100.7066      100.7110      25.326006       0.21698
  43    0.2613       75.3847        0.0058      100.7037      100.7094      25.324712       0.24394
  42    0.3336       75.3844        0.0079      100.6987      100.7066      25.322252       0.28686
  41    0.4307       75.3840        0.0108      100.6918      100.7026      25.318543       0.32245
  40    0.5894       75.3838        0.0155      100.6797      100.6952      25.311470       0.37611
  39     1.339       75.3879        0.0377      100.6095      100.6472      25.259228       0.58816
  38     1.782       75.3944        0.0507      100.5585      100.6091      25.214737       0.84703
  37     2.292       75.4056        0.0658      100.4903      100.5560      25.150357       1.06631
  36     2.964       75.4044        0.1295      100.3211      100.4506      25.046124       1.30843
  35     3.853       75.4315        0.1719      100.1405      100.3124      24.880887       1.56813
  34     5.035       75.4824        0.2143       99.9027      100.1170      24.634656       1.75897
  33     6.613       75.5577        0.2644       99.5862       99.8507      24.293011       1.82644
  32     8.786       75.6565        0.3285       99.1775       99.5059      23.849383       1.72289
  31     11.80       75.7833        0.4180       98.6375       99.0554      23.272143       1.61609
  30     15.07       75.9015        0.5130       98.1071       98.6201      22.718554       1.42926
  29     18.79       76.0189        0.6197       97.5522       98.1719      22.152921       1.28246
  28     23.16       76.1373        0.7436       96.9543       97.6978      21.560509       1.14553
  27     28.12       76.2508        0.8846       96.3280       97.2125      20.961746       1.01786
  26     33.73       76.3462        1.0418       95.7057       96.7474      20.401245       0.84273
  25     40.54       76.4249        1.2310       95.0431       96.2741      19.849164       0.68492
  24     48.69       76.4844        1.4582       94.3307       95.7890      19.304540       0.56360
  23     57.69       76.5157        1.7068       93.6310       95.3377      18.822033       0.45228
  22     68.43       76.5163        2.0016       92.8854       94.8870      18.370672       0.35483
  21     81.20       76.4667        2.3515       92.1138       94.4653      17.998599       0.24586
  20     96.49       76.3613        2.7664       91.3025       94.0689      17.707617       0.16060
  19     114.6       76.2138        3.2557       90.3982       93.6539      17.440065       0.12493
  18     136.5       76.0242        3.8307       89.3714       93.2021      17.177850       0.10083
  17     162.9       75.7857        4.5085       88.1935       92.7020      16.916348       0.08359
  16     196.4       75.4477        5.3773       86.7525       92.1298      16.682104       0.05896
  15     218.7       75.2160        5.9416       85.8416       91.7832      16.567244       0.04361
  14     243.0       74.9605        6.5494       84.8723       91.4217      16.461200       0.03678
  13     269.0       74.6800        7.2015       83.8444       91.0459      16.365921       0.03091
  12     297.5       74.3738        7.8988       82.7568       90.6556      16.281793       0.02495
  11     328.5       74.0431        8.6436       81.6002       90.2438      16.200669       0.02206
  10     361.9       73.6879        9.4356       80.3747       89.8103      16.122443       0.01979
   9     398.1       73.3071       10.2768       79.0766       89.3535      16.046361       0.01773
   8     437.6       72.9012       11.1674       77.7038       88.8713      15.970090       0.01631
   7     480.5       72.4698       12.1076       76.2548       88.3624      15.892666       0.01521
   6     533.0       71.9452       13.2449       74.4990       87.7439      15.798648       0.01512
   5     589.8       71.3891       14.4464       72.6374       87.0838      15.694713       0.01543
   4     651.6       70.8028       15.7101       70.6697       86.3798      15.577047       0.01609
   3     718.7       70.1880       17.0341       68.5950       85.6291      15.441122       0.01708
   2     792.3       69.5484       18.4138       66.4157       84.8294      15.281016       0.01836
   1     891.5       68.7194       20.2123       63.5419       83.7541      15.034727       0.02096
   0    1013.0       67.7787       22.2792       60.1873       82.4664      14.687738       0.02409



 Wavenumbers: 22650. - 29000. cm-1, ATM      1
 LEVEL PRESSURE   UPWARD FLUX   DIFDOWN FLUX  DIRDOWN FLUX  DOWNWARD FLUX   NET FLUX    HEATING RATE
          mb          W/m2          W/m2          W/m2        W/m2          W/m2       degree/day
  51    .06700       34.3516        0.0000       38.0063       38.0063       3.654649       0.00000
  50    .07753       34.3515        0.0004       38.0057       38.0061       3.654649       0.00000
  49    .09103       34.3513        0.0009       38.0050       38.0059       3.654649      -0.00000
  48    0.1069       34.3510        0.0014       38.0042       38.0057       3.654649       0.00000
  47    0.1255       34.3507        0.0021       38.0033       38.0054       3.654649      -0.00000
  46    0.1487       34.3504        0.0029       38.0022       38.0050       3.654649       0.00000
  45    0.1794       34.3499        0.0040       38.0006       38.0046       3.654649       0.00000
  44    0.2165       34.3494        0.0053       37.9987       38.0040       3.654649      -0.00000
  43    0.2613       34.3487        0.0068       37.9965       38.0033       3.654649       0.00000
  42    0.3336       34.3476        0.0094       37.9928       38.0022       3.654649       0.00000
  41    0.4307       34.3461        0.0128       37.9880       38.0008       3.654649       0.00000
  40    0.5894       34.3437        0.0183       37.9800       37.9984       3.654649       0.00000
  39     1.339       34.3324        0.0446       37.9425       37.9870       3.654649       0.00000
  38     1.782       34.3257        0.0600       37.9204       37.9804       3.654649      -0.00000
  37     2.292       34.3180        0.0778       37.8949       37.9727       3.654649       0.00000
  36     2.964       34.2855        0.1530       37.7871       37.9402       3.654649      -0.00000
  35     3.853       34.2638        0.2032       37.7153       37.9185       3.654649       0.00000
  34     5.035       34.2422        0.2534       37.6434       37.8968       3.654649      -0.00000
  33     6.613       34.2165        0.3127       37.5585       37.8712       3.654649       0.00000
  32     8.786       34.1837        0.3885       37.4498       37.8384       3.654649      -0.00000
  31     11.80       34.1378        0.4946       37.2978       37.7925       3.654649       0.00000
  30     15.07       34.0891        0.6073       37.1364       37.7437       3.654649       0.00000
  29     18.79       34.0344        0.7336       36.9554       37.6890       3.654649       0.00000
  28     23.16       33.9708        0.8802       36.7453       37.6255       3.654649       0.00000
  27     28.12       33.8986        1.0467       36.5065       37.5533       3.654649       0.00000
  26     33.73       33.8183        1.2318       36.2411       37.4729       3.654649      -0.00000
  25     40.54       33.7219        1.4536       35.9229       37.3766       3.654649      -0.00000
  24     48.69       33.6067        1.7186       35.5428       37.2614       3.654649       0.00000
  23     57.69       33.4814        2.0064       35.1296       37.1360       3.654649      -0.00000
  22     68.43       33.3337        2.3450       34.6434       36.9884       3.654649       0.00000
  21     81.20       33.1602        2.7422       34.0727       36.8149       3.654649       0.00000
  20     96.49       32.9567        3.2069       33.4045       36.6114       3.654649      -0.00000
  19     114.6       32.7198        3.7466       32.6278       36.3745       3.654649       0.00000
  18     136.5       32.4454        4.3697       31.7303       36.1000       3.654649       0.00000
  17     162.9       32.1274        5.0888       30.6932       35.7820       3.654649       0.00000
  16     196.4       31.7288        5.9856       29.3979       35.3834       3.654649       0.00000
  15     218.7       31.4753        6.5530       28.5769       35.1300       3.654649       0.00000
  14     243.0       31.2069        7.1513       27.7102       34.8615       3.654649      -0.00000
  13     269.0       30.9241        7.7785       26.8003       34.5788       3.654649       0.00000
  12     297.5       30.6278        8.4325       25.8500       34.2824       3.654649      -0.00000
  11     328.5       30.3177        9.1126       24.8597       33.9723       3.654649       0.00000
  10     361.9       29.9952        9.8150       23.8349       33.6499       3.654649      -0.00000
   9     398.1       29.6608       10.5380       22.7774       33.3154       3.654649       0.00000
   8     437.6       29.3158       11.2774       21.6931       32.9705       3.654649       0.00000
   7     480.5       28.9612       12.0301       20.5857       32.6158       3.654649      -0.00000
   6     533.0       28.5453       12.9022       19.2978       32.2000       3.654649       0.00000
   5     589.8       28.1208       13.7798       17.9957       31.7754       3.654649       0.00000
   4     651.6       27.6891       14.6576       16.6862       31.3437       3.654649       0.00000
   3     718.7       27.2538       15.5253       15.3832       30.9085       3.654649       0.00000
   2     792.3       26.8175       16.3753       14.0968       30.4722       3.654649       0.00000
   1     891.5       26.2727       17.4051       12.5222       29.9274       3.654649       0.00000
   0    1013.0       25.6783       18.4814       10.8515       29.3330       3.654649      -0.00000



 Wavenumbers: 29000. - 38000. cm-1, ATM      1
 LEVEL PRESSURE   UPWARD FLUX   DIFDOWN FLUX  DIRDOWN FLUX  DOWNWARD FLUX   NET FLUX    HEATING RATE
          mb          W/m2          W/m2          W/m2        W/m2          W/m2       degree/day
  51    .06700        4.8931        0.0000       13.4026       13.4026       8.509504       0.00000
  50    .07753        4.8929        0.0003       13.3983       13.3986       8.505713       3.03868
  49    .09103        4.8926        0.0007       13.3921       13.3928       8.500204       3.44315
  48    0.1069        4.8923        0.0011       13.3841       13.3851       8.492839       3.92036
  47    0.1255        4.8920        0.0016       13.3734       13.3750       8.483009       4.45674
  46    0.1487        4.8915        0.0022       13.3579       13.3601       8.468590       5.25584
  45    0.1794        4.8910        0.0030       13.3342       13.3372       8.446219       6.14130
  44    0.2165        4.8903        0.0040       13.3025       13.3065       8.416214       6.82560
  43    0.2613        4.8895        0.0052       13.2605       13.2657       8.376160       7.55011
  42    0.3336        4.8883        0.0070       13.1834       13.1905       8.302148       8.62898
  41    0.4307        4.8868        0.0095       13.0730       13.0825       8.195662       9.25877
  40    0.5894        4.8845        0.0134       12.8795       12.8929       8.008454       9.95545
  39     1.339        4.8764        0.0297       11.9153       11.9450       7.068571      10.58138
  38     1.782        4.8735        0.0380       11.4377       11.4757       6.602173       8.87946
  37     2.292        4.8717        0.0469       10.9754       11.0223       6.150542       7.48020
  36     2.964        4.8503        0.0864       10.4232       10.5096       5.659307       6.16648
  35     3.853        4.8443        0.1087        9.8720        9.9808       5.136477       4.96175
  34     5.035        4.8448        0.1283        9.3252        9.4535       4.608685       3.77033
  33     6.613        4.8498        0.1499        8.7999        8.9498       4.099968       2.71960
  32     8.786        4.8578        0.1765        8.3061        8.4826       3.624743       1.84560
  31     11.80        4.8680        0.2128        7.8210        8.0337       3.165708       1.28515
  30     15.07        4.8770        0.2503        7.4451        7.6954       2.818424       0.89662
  29     18.79        4.8854        0.2914        7.1145        7.4058       2.520430       0.67564
  28     23.16        4.8932        0.3378        6.8053        7.1431       2.249941       0.52304
  27     28.12        4.8995        0.3893        6.5192        6.9084       2.008977       0.40962
  26     33.73        4.9018        0.4456        6.2627        6.7083       1.806482       0.30446
  25     40.54        4.8991        0.5122        6.0116        6.5238       1.624726       0.22549
  24     48.69        4.8908        0.5904        5.7600        6.3504       1.459616       0.17086
  23     57.69        4.8769        0.6740        5.5263        6.2003       1.323337       0.12774
  22     68.43        4.8552        0.7708        5.2879        6.0587       1.203463       0.09424
  21     81.20        4.8214        0.8833        5.0481        5.9313       1.109885       0.06184
  20     96.49        4.7742        1.0133        4.8009        5.8142       1.039984       0.03858
  19     114.6        4.7167        1.1607        4.5351        5.6958       0.979060       0.02845
  18     136.5        4.6501        1.3253        4.2467        5.5720       0.921925       0.02197
  17     162.9        4.5737        1.5085        3.9326        5.4411       0.867417       0.01742
  16     196.4        4.4768        1.7277        3.5700        5.2977       0.820940       0.01170
  15     218.7        4.4158        1.8606        3.3542        5.2148       0.799067       0.00830
  14     243.0        4.3522        1.9962        3.1354        5.1317       0.779434       0.00681
  13     269.0        4.2864        2.1333        2.9154        5.0487       0.762269       0.00557
  12     297.5        4.2188        2.2707        2.6957        4.9664       0.747528       0.00437
  11     328.5        4.1503        2.4070        2.4770        4.8840       0.733689       0.00376
  10     361.9        4.0813        2.5408        2.2613        4.8021       0.720794       0.00326
   9     398.1        4.0122        2.6711        2.0499        4.7210       0.708794       0.00280
   8     437.6        3.9435        2.7965        1.8444        4.6409       0.697456       0.00242
   7     480.5        3.8754        2.9163        1.6460        4.5622       0.686878       0.00208
   6     533.0        3.7989        3.0443        1.4303        4.4745       0.675569       0.00182
   5     589.8        3.7246        3.1614        1.2280        4.3894       0.664835       0.00159
   4     651.6        3.6528        3.2661        1.0413        4.3074       0.654568       0.00140
   3     718.7        3.5840        3.3575        0.8712        4.2287       0.644722       0.00124
   2     792.3        3.5182        3.4348        0.7187        4.1535       0.635286       0.00108
   1     891.5        3.4402        3.5113        0.5527        4.0640       0.623855       0.00097
   0    1013.0        3.3596        3.5695        0.4016        3.9711       0.611462       0.00086



 Wavenumbers: 38000. - 50000. cm-1, ATM      1
 LEVEL PRESSURE   UPWARD FLUX   DIFDOWN FLUX  DIRDOWN FLUX  DOWNWARD FLUX   NET FLUX    HEATING RATE
          mb          W/m2          W/m2          W/m2        W/m2          W/m2       degree/day
  51    .06700        0.0056        0.0000        0.8267        0.8267       0.821019       0.00000
  50    .07753        0.0056        0.0001        0.8242        0.8243       0.818686       1.86971
  49    .09103        0.0055        0.0002        0.8207        0.8209       0.815362       2.07748
  48    0.1069        0.0054        0.0002        0.8162        0.8164       0.811003       2.32036
  47    0.1255        0.0053        0.0004        0.8103        0.8106       0.805289       2.59064
  46    0.1487        0.0052        0.0005        0.8018        0.8023       0.797053       3.00214
  45    0.1794        0.0051        0.0007        0.7889        0.7896       0.784496       3.44723
  44    0.2165        0.0049        0.0009        0.7720        0.7729       0.767987       3.75536
  43    0.2613        0.0047        0.0011        0.7500        0.7511       0.746433       4.06297
  42    0.3336        0.0044        0.0015        0.7106        0.7121       0.707740       4.51117
  41    0.4307        0.0040        0.0019        0.6566        0.6584       0.654440       4.63435
  40    0.5894        0.0035        0.0024        0.5680        0.5704       0.566921       4.65412
  39     1.339        0.0021        0.0030        0.2422        0.2452       0.243101       3.64563
  38     1.782        0.0017        0.0026        0.1493        0.1519       0.150210       1.76849
  37     2.292        0.0015        0.0022        0.0924        0.0946       0.093116       0.94564
  36     2.964        0.0006        0.0024        0.0528        0.0552       0.054528       0.48439
  35     3.853        0.0003        0.0019        0.0286        0.0305       0.030142       0.23143
  34     5.035        0.0002        0.0014        0.0149        0.0162       0.016042       0.10072
  33     6.613        0.0001        0.0009        0.0071        0.0080       0.007893       0.04356
  32     8.786        0.0000        0.0006        0.0029        0.0035       0.003419       0.01738
  31     11.80        0.0000        0.0003        0.0009        0.0012       0.001232       0.00612
  30     15.07        0.0000        0.0002        0.0003        0.0005       0.000486       0.00192
  29     18.79        0.0000        0.0001        0.0001        0.0002       0.000196       0.00066
  28     23.16        0.0000        0.0000        0.0000        0.0001       0.000078       0.00023
  27     28.12        0.0000        0.0000        0.0000        0.0000       0.000031       0.00008
  26     33.73        0.0000        0.0000        0.0000        0.0000       0.000013       0.00003
  25     40.54        0.0000        0.0000        0.0000        0.0000       0.000005       0.00001
  24     48.69        0.0000        0.0000        0.0000        0.0000       0.000002       0.00000
  23     57.69        0.0000        0.0000        0.0000        0.0000       0.000001       0.00000
  22     68.43        0.0000        0.0000        0.0000        0.0000       0.000000       0.00000
  21     81.20        0.0000        0.0000        0.0000        0.0000       0.000000       0.00000
  20     96.49        0.0000        0.0000        0.0000        0.0000       0.000000       0.00000
  19     114.6        0.0000        0.0000        0.0000        0.0000       0.000000       0.00000
  18     136.5        0.0000        0.0000        0.0000        0.0000       0.000000       0.00000
  17     162.9        0.0000        0.0000        0.0000        0.0000       0.000000       0.00000
  16     196.4        0.0000        0.0000        0.0000        0.0000       0.000000       0.00000
  15     218.7        0.0000        0.0000        0.0000        0.0000       0.000000       0.00000
  14     243.0        0.0000        0.0000        0.0000        0.0000       0.000000       0.00000
  13     269.0        0.0000        0.0000        0.0000        0.0000       0.000000       0.00000
  12     297.5        0.0000        0.0000        0.0000        0.0000       0.000000       0.00000
  11     328.5        0.0000        0.0000        0.0000        0.0000       0.000000       0.00000
  10     361.9        0.0000        0.0000        0.0000        0.0000       0.000000       0.00000
   9     398.1        0.0000        0.0000        0.0000        0.0000       0.000000       0.00000
   8     437.6        0.0000        0.0000        0.0000        0.0000       0.000000       0.00000
   7     480.5        0.0000        0.0000        0.0000        0.0000       0.000000       0.00000
   6     533.0        0.0000        0.0000        0.0000        0.0000       0.000000       0.00000
   5     589.8        0.0000        0.0000        0.0000        0.0000       0.000000       0.00000
   4     651.6        0.0000        0.0000        0.0000        0.0000       0.000000       0.00000
   3     718.7        0.0000        0.0000        0.0000        0.0000       0.000000       0.00000
   2     792.3        0.0000        0.0000        0.0000        0.0000       0.000000       0.00000
   1     891.5        0.0000        0.0000        0.0000        0.0000       0.000000       0.00000
   0    1013.0        0.0000        0.0000        0.0000        0.0000       0.000000       0.00000



 Wavenumbers:   820. -  2600. cm-1, ATM      1
 LEVEL PRESSURE   UPWARD FLUX   DIFDOWN FLUX  DIRDOWN FLUX  DOWNWARD FLUX   NET FLUX    HEATING RATE
          mb          W/m2          W/m2          W/m2        W/m2          W/m2       degree/day
  51    .06700        0.0444        0.0000        3.8670        3.8670       3.822649       0.00000
  50    .07753        0.0444        0.0000        3.8644        3.8644       3.820050       2.08287
  49    .09103        0.0444        0.0000        3.8638        3.8638       3.819380       0.41878
  48    0.1069        0.0444        0.0000        3.8630        3.8630       3.818631       0.39874
  47    0.1255        0.0444        0.0000        3.8622        3.8622       3.817818       0.36879
  46    0.1487        0.0444        0.0000        3.8613        3.8613       3.816890       0.33798
  45    0.1794        0.0444        0.0000        3.8602        3.8602       3.815781       0.30446
  44    0.2165        0.0444        0.0000        3.8590        3.8590       3.814647       0.25804
  43    0.2613        0.0444        0.0000        3.8579        3.8579       3.813488       0.21851
  42    0.3336        0.0444        0.0000        3.8562        3.8562       3.811803       0.19646
  41    0.4307        0.0444        0.0000        3.8540        3.8540       3.809637       0.18827
  40    0.5894        0.0444        0.0000        3.8505        3.8505       3.806149       0.18550
  39     1.339        0.0444        0.0000        3.8352        3.8352       3.790799       0.17281
  38     1.782        0.0444        0.0000        3.8267        3.8267       3.782320       0.16143
  37     2.292        0.0444        0.0000        3.8172        3.8172       3.772802       0.15766
  36     2.964        0.0538        0.0000        0.6767        0.6767       0.622953      39.54011
  35     3.853        0.0578        0.0000        0.5951        0.5951       0.537366       0.81224
  34     5.035        0.0598        0.0000        0.5605        0.5605       0.500649       0.26229
  33     6.613        0.0609        0.0000        0.5433        0.5433       0.482389       0.09762
  32     8.786        0.0615        0.0000        0.5341        0.5341       0.472604       0.03800
  31     11.80        0.0619        0.0000        0.5285        0.5285       0.466563       0.01691
  30     15.07        0.0621        0.0000        0.5254        0.5254       0.463305       0.00841
  29     18.79        0.0622        0.0000        0.5235        0.5235       0.461219       0.00473
  28     23.16        0.0623        0.0000        0.5220        0.5220       0.459654       0.00303
  27     28.12        0.0624        0.0000        0.5209        0.5209       0.458493       0.00197
  26     33.73        0.0625        0.0000        0.5201        0.5201       0.457623       0.00131
  25     40.54        0.0625        0.0000        0.5194        0.5194       0.456886       0.00091
  24     48.69        0.0626        0.0000        0.5188        0.5188       0.456180       0.00073
  23     57.69        0.0626        0.0000        0.5181        0.5181       0.455530       0.00061
  22     68.43        0.0627        0.0000        0.5175        0.5175       0.454875       0.00051
  21     81.20        0.0627        0.0000        0.5169        0.5169       0.454216       0.00044
  20     96.49        0.0627        0.0000        0.5163        0.5163       0.453551       0.00037
  19     114.6        0.0628        0.0000        0.5157        0.5157       0.452916       0.00030
  18     136.5        0.0628        0.0000        0.5151        0.5151       0.452250       0.00026
  17     162.9        0.0629        0.0000        0.5145        0.5145       0.451636       0.00020
  16     196.4        0.0629        0.0000        0.5140        0.5140       0.451135       0.00013
  15     218.7        0.0629        0.0000        0.5139        0.5139       0.450969       0.00006
  14     243.0        0.0629        0.0000        0.5138        0.5138       0.450844       0.00004
  13     269.0        0.0629        0.0000        0.5137        0.5137       0.450737       0.00003
  12     297.5        0.0629        0.0000        0.5135        0.5135       0.450605       0.00004
  11     328.5        0.0630        0.0000        0.5133        0.5134       0.450401       0.00006
  10     361.9        0.0630        0.0000        0.5130        0.5130       0.450046       0.00009
   9     398.1        0.0630        0.0000        0.5124        0.5125       0.449436       0.00014
   8     437.6        0.0631        0.0000        0.5115        0.5115       0.448411       0.00022
   7     480.5        0.0632        0.0000        0.5100        0.5100       0.446769       0.00032
   6     533.0        0.0634        0.0000        0.5070        0.5070       0.443635       0.00050
   5     589.8        0.0637        0.0000        0.5025        0.5025       0.438771       0.00072
   4     651.6        0.0643        0.0000        0.4949        0.4949       0.430629       0.00111
   3     718.7        0.0652        0.0000        0.4829        0.4829       0.417641       0.00163
   2     792.3        0.0667        0.0000        0.4650        0.4650       0.398301       0.00222
   1     891.5        0.0696        0.0000        0.4326        0.4326       0.363001       0.00300
   0    1013.0        0.0746        0.0000        0.3836        0.3836       0.309012       0.00375

  Modules and versions used in this calculation:

       rrtmg_sw.1col.f90:  $Revision$                    rrtmg_sw_init.f90:  $Revision$        
     rrtmgsw_cldprop.f90:  $Revision$                  rrtmgsw_cldprmc.f90:  NOT USED          
     rrtmg_sw_reftra.f90:  $Revision$                  rrtmg_sw_spcvrt.f90:  NOT USED          
     rrtmg_sw_spcvmc.f90:  NOT USED                    rrtmgsw_setcoef.f90:  NOT USED          
     rrtmg_sw_taumol.f90:  $Revision$                  rrtmg_sw_vrtqdr.f90:  NOT USED          
                rrtatm.f:  NOT USED                             util_xxx.f:  NOT USED          
                 extra.f:  NOT USED                       rrtmg_sw_k_g.f90:  $Revision$        

