

 Wavenumbers:   820. - 50000. cm-1, ATM      1
 LEVEL PRESSURE   UPWARD FLUX   DIFDOWN FLUX  DIRDOWN FLUX  DOWNWARD FLUX   NET FLUX    HEATING RATE
          mb          W/m2          W/m2          W/m2        W/m2          W/m2       degree/day
  51    .06700      183.5261        0.0000      397.8738      397.8738     214.347666       0.00000
  50    .07753      183.5255        0.0011      397.8579      397.8591     214.333611      11.26480
  49    .09103      183.5247        0.0026      397.8425      397.8450     214.320338       8.29650
  48    0.1069      183.5238        0.0042      397.8240      397.8283     214.304430       8.46792
  47    0.1255      183.5228        0.0061      397.8012      397.8073     214.284447       9.05911
  46    0.1487      183.5216        0.0085      397.7697      397.7782     214.256562      10.16455
  45    0.1794      183.5200        0.0118      397.7232      397.7350     214.215002      11.40909
  44    0.2165      183.5182        0.0156      397.6637      397.6794     214.161161      12.24790
  43    0.2613      183.5161        0.0202      397.5873      397.6075     214.091349      13.15926
  42    0.3336      183.5128        0.0276      397.4509      397.4785     213.965678      14.65203
  41    0.4307      183.5088        0.0374      397.2604      397.2978     213.789008      15.36104
  40    0.5894      183.5027        0.0531      396.9366      396.9897     213.487011      16.05979
  39     1.339      183.4846        0.1233      395.4503      395.5736     212.089024      15.73881
  38     1.782      183.4811        0.1626      394.7606      394.9232     211.442178      12.31489
  37     2.292      183.4831        0.2073      394.0955      394.3028     210.819701      10.30985
  36     2.964      183.4963        0.2924      384.8888      385.1812     201.684922     114.66908
  35     3.853      183.5261        0.3778      383.2320      383.6098     200.083710      15.19579
  34     5.035      183.5771        0.4819      381.8889      382.3707     198.793677       9.21546
  33     6.613      183.6510        0.6159      380.6037      381.2196     197.568616       6.54918
  32     8.786      183.7451        0.7933      379.2754      380.0688     196.323651       4.83499
  31     11.80      183.8585        1.0442      377.7603      378.8045     194.946003       3.85698
  30     15.07      183.9557        1.3110      376.3943      377.7053     193.749585       3.08892
  29     18.79      184.0438        1.6098      375.0330      376.6428     192.599036       2.60865
  28     23.16      184.1216        1.9558      373.6046      375.5604     191.438843       2.24344
  27     28.12      184.1813        2.3482      372.1309      374.4792     190.297893       1.93954
  26     33.73      184.2050        2.7841      370.6659      373.4499     189.244885       1.58323
  25     40.54      184.1840        3.3066      369.0873      372.3939     188.209849       1.28408
  24     48.69      184.1113        3.9309      367.3601      371.2910     187.179722       1.06602
  23     57.69      183.9861        4.6099      365.6252      370.2351     186.249016       0.87240
  22     68.43      183.7883        5.4102      363.7290      369.1392     185.350845       0.70608
  21     81.20      183.4855        6.3531      361.6888      368.0419     184.556387       0.52497
  20     96.49      183.0643        7.4620      359.4652      366.9272     183.862938       0.38273
  19     114.6      182.5447        8.7563      356.8323      365.5885     183.043840       0.38246
  18     136.5      181.9173       10.2585      353.8739      364.1323     182.215067       0.31868
  17     162.9      181.1650       12.0041      350.5202      362.5243     181.359237       0.27356
  16     196.4      180.1682       14.2028      346.4316      360.6345     180.466233       0.22478
  15     218.7      179.5117       15.6076      343.8658      359.4734     179.961669       0.19156
  14     243.0      178.8031       17.1011      341.1561      358.2572     179.454076       0.17605
  13     269.0      178.0416       18.6818      338.2949      356.9766     178.935065       0.16836
  12     297.5      177.2273       20.3472      335.2470      355.5942     178.366862       0.16852
  11     328.5      176.3628       22.0988      331.9318      354.0306     177.667815       0.19007
  10     361.9      175.4503       23.9312      328.2778      352.2091     176.758740       0.23001
   9     398.1      174.4899       25.8443      324.2041      350.0484     175.558507       0.27963
   8     437.6      173.4852       27.8328      319.6194      347.4522     173.966933       0.34029
   7     480.5      172.4402       29.8920      314.4187      344.3107     171.870501       0.41173
   6     533.0      171.2020       32.3313      307.6046      339.9359     168.733865       0.50459
   5     589.8      169.9296       34.8477      300.0428      334.8905     164.960948       0.56002
   4     651.6      168.6372       37.4311      291.9162      329.3473     160.710102       0.58131
   3     718.7      167.3444       40.0719      283.3628      323.4347     156.090342       0.58058
   2     792.3      166.0842       42.7544      274.4704      317.2249     151.140680       0.56767
   1     891.5      164.6128       46.1544      263.1060      309.2604     144.647554       0.55253
   0    1013.0      163.2968       49.9307      250.3045      300.2352     136.938379       0.53529



 Wavenumbers:  2600. -  3250. cm-1, ATM      1
 LEVEL PRESSURE   UPWARD FLUX   DIFDOWN FLUX  DIRDOWN FLUX  DOWNWARD FLUX   NET FLUX    HEATING RATE
          mb          W/m2          W/m2          W/m2        W/m2          W/m2       degree/day
  51    .06700        0.5184        0.0000        3.5066        3.5066       2.988222       0.00000
  50    .07753        0.5184        0.0000        3.5066        3.5066       2.988214       0.00640
  49    .09103        0.5184        0.0000        3.5066        3.5066       2.988204       0.00627
  48    0.1069        0.5184        0.0000        3.5066        3.5066       2.988192       0.00613
  47    0.1255        0.5184        0.0000        3.5066        3.5066       2.988179       0.00599
  46    0.1487        0.5184        0.0000        3.5066        3.5066       2.988162       0.00607
  45    0.1794        0.5184        0.0000        3.5065        3.5065       2.988140       0.00624
  44    0.2165        0.5184        0.0000        3.5065        3.5065       2.988113       0.00611
  43    0.2613        0.5184        0.0000        3.5065        3.5065       2.988081       0.00598
  42    0.3336        0.5184        0.0000        3.5064        3.5064       2.988028       0.00615
  41    0.4307        0.5184        0.0000        3.5064        3.5064       2.987957       0.00617
  40    0.5894        0.5184        0.0000        3.5062        3.5062       2.987838       0.00633
  39     1.339        0.5184        0.0000        3.5055        3.5055       2.987139       0.00787
  38     1.782        0.5184        0.0000        3.5050        3.5050       2.986609       0.01010
  37     2.292        0.5184        0.0000        3.5043        3.5043       2.985916       0.01147
  36     2.964        0.5184        0.0000        3.5033        3.5033       2.984926       0.01243
  35     3.853        0.5184        0.0000        3.5019        3.5019       2.983549       0.01307
  34     5.035        0.5184        0.0000        3.5001        3.5001       2.981685       0.01331
  33     6.613        0.5184        0.0000        3.4977        3.4977       2.979272       0.01290
  32     8.786        0.5184        0.0000        3.4947        3.4947       2.976293       0.01157
  31     11.80        0.5184        0.0000        3.4910        3.4910       2.972649       0.01020
  30     15.07        0.5184        0.0000        3.4878        3.4878       2.969419       0.00834
  29     18.79        0.5184        0.0000        3.4847        3.4847       2.966340       0.00698
  28     23.16        0.5184        0.0000        3.4815        3.4815       2.963096       0.00627
  27     28.12        0.5184        0.0000        3.4778        3.4779       2.959450       0.00620
  26     33.73        0.5184        0.0000        3.4733        3.4734       2.954951       0.00676
  25     40.54        0.5184        0.0000        3.4670        3.4670       2.948585       0.00790
  24     48.69        0.5184        0.0000        3.4580        3.4580       2.939621       0.00928
  23     57.69        0.5184        0.0000        3.4469        3.4469       2.928469       0.01045
  22     68.43        0.5185        0.0000        3.4324        3.4325       2.914020       0.01136
  21     81.20        0.5185        0.0000        3.4145        3.4146       2.896071       0.01186
  20     96.49        0.5185        0.0000        3.3932        3.3932       2.874694       0.01180
  19     114.6        0.5186        0.0000        3.3582        3.3582       2.839603       0.01638
  18     136.5        0.5188        0.0001        3.3239        3.3240       2.805174       0.01324
  17     162.9        0.5190        0.0001        3.2913        3.2914       2.772382       0.01048
  16     196.4        0.5193        0.0001        3.2582        3.2583       2.738978       0.00841
  15     218.7        0.5195        0.0001        3.2402        3.2403       2.720761       0.00692
  14     243.0        0.5197        0.0001        3.2227        3.2228       2.703097       0.00613
  13     269.0        0.5200        0.0001        3.2052        3.2053       2.685276       0.00578
  12     297.5        0.5203        0.0001        3.1859        3.1860       2.665726       0.00580
  11     328.5        0.5208        0.0001        3.1625        3.1626       2.641822       0.00650
  10     361.9        0.5214        0.0001        3.1329        3.1330       2.611578       0.00765
   9     398.1        0.5223        0.0001        3.0956        3.0958       2.573496       0.00887
   8     437.6        0.5234        0.0002        3.0476        3.0478       2.524387       0.01050
   7     480.5        0.5250        0.0002        2.9857        2.9859       2.460923       0.01246
   6     533.0        0.5275        0.0002        2.8937        2.8939       2.366395       0.01521
   5     589.8        0.5311        0.0002        2.7807        2.7809       2.249824       0.01730
   4     651.6        0.5360        0.0002        2.6515        2.6517       2.115658       0.01835
   3     718.7        0.5429        0.0002        2.5119        2.5121       1.969179       0.01841
   2     792.3        0.5525        0.0002        2.3665        2.3667       1.814197       0.01777
   1     891.5        0.5699        0.0002        2.1815        2.1818       1.611879       0.01722
   0    1013.0        0.6004        0.0003        1.9683        1.9686       1.368175       0.01692



 Wavenumbers:  3250. -  4000. cm-1, ATM      1
 LEVEL PRESSURE   UPWARD FLUX   DIFDOWN FLUX  DIRDOWN FLUX  DOWNWARD FLUX   NET FLUX    HEATING RATE
          mb          W/m2          W/m2          W/m2        W/m2          W/m2       degree/day
  51    .06700        0.0593        0.0000        5.9117        5.9117       5.852359       0.00000
  50    .07753        0.0593        0.0000        5.9075        5.9075       5.848197       3.33610
  49    .09103        0.0593        0.0000        5.9052        5.9052       5.845908       1.43069
  48    0.1069        0.0593        0.0000        5.9035        5.9035       5.844195       0.91190
  47    0.1255        0.0593        0.0000        5.9019        5.9019       5.842575       0.73437
  46    0.1487        0.0593        0.0000        5.9001        5.9001       5.840840       0.63248
  45    0.1794        0.0593        0.0000        5.8982        5.8982       5.838863       0.54263
  44    0.2165        0.0593        0.0000        5.8962        5.8962       5.836915       0.44316
  43    0.2613        0.0593        0.0000        5.8943        5.8943       5.834966       0.36742
  42    0.3336        0.0593        0.0000        5.8915        5.8915       5.832210       0.32131
  41    0.4307        0.0593        0.0000        5.8881        5.8881       5.828836       0.29332
  40    0.5894        0.0593        0.0000        5.8830        5.8830       5.823730       0.27154
  39     1.339        0.0593        0.0000        5.8641        5.8641       5.804811       0.21300
  38     1.782        0.0593        0.0000        5.8561        5.8561       5.796820       0.15212
  37     2.292        0.0593        0.0000        5.8483        5.8483       5.789034       0.12897
  36     2.964        0.0594        0.0000        4.1447        4.1447       4.085306      21.38693
  35     3.853        0.0594        0.0000        3.8723        3.8723       3.812913       2.58506
  34     5.035        0.0594        0.0000        3.7422        3.7423       3.682826       0.92929
  33     6.613        0.0594        0.0000        3.6667        3.6667       3.607224       0.40417
  32     8.786        0.0595        0.0000        3.6166        3.6166       3.557161       0.19443
  31     11.80        0.0595        0.0000        3.5766        3.5767       3.517201       0.11188
  30     15.07        0.0595        0.0000        3.5483        3.5483       3.488853       0.07319
  29     18.79        0.0595        0.0000        3.5243        3.5244       3.464889       0.05433
  28     23.16        0.0595        0.0000        3.5007        3.5007       3.441250       0.04571
  27     28.12        0.0595        0.0000        3.4773        3.4774       3.417907       0.03968
  26     33.73        0.0595        0.0000        3.4557        3.4558       3.396289       0.03250
  25     40.54        0.0595        0.0000        3.4329        3.4330       3.373499       0.02827
  24     48.69        0.0595        0.0000        3.4065        3.4065       3.347072       0.02735
  23     57.69        0.0595        0.0001        3.3780        3.3781       3.318616       0.02667
  22     68.43        0.0595        0.0001        3.3453        3.3454       3.285912       0.02571
  21     81.20        0.0594        0.0001        3.3080        3.3080       3.248593       0.02466
  20     96.49        0.0594        0.0001        3.2658        3.2658       3.206403       0.02329
  19     114.6        0.0594        0.0001        3.2182        3.2183       3.158883       0.02219
  18     136.5        0.0594        0.0001        3.1661        3.1662       3.106804       0.02003
  17     162.9        0.0594        0.0001        3.1092        3.1093       3.049911       0.01819
  16     196.4        0.0594        0.0002        3.0428        3.0429       2.983522       0.01671
  15     218.7        0.0594        0.0002        3.0027        3.0028       2.943422       0.01522
  14     243.0        0.0594        0.0002        2.9615        2.9617       2.902282       0.01427
  13     269.0        0.0594        0.0002        2.9171        2.9173       2.857943       0.01438
  12     297.5        0.0594        0.0002        2.8615        2.8617       2.802313       0.01650
  11     328.5        0.0594        0.0002        2.7807        2.7810       2.721561       0.02196
  10     361.9        0.0595        0.0003        2.6644        2.6647       2.605219       0.02944
   9     398.1        0.0595        0.0003        2.5089        2.5092       2.449661       0.03624
   8     437.6        0.0597        0.0003        2.3162        2.3165       2.256767       0.04124
   7     480.5        0.0600        0.0003        2.0924        2.0927       2.032728       0.04400
   6     533.0        0.0606        0.0003        1.8129        1.8132       1.752610       0.04506
   5     589.8        0.0616        0.0003        1.5383        1.5386       1.476970       0.04091
   4     651.6        0.0634        0.0002        1.2795        1.2797       1.216358       0.03564
   3     718.7        0.0662        0.0002        1.0399        1.0401       0.973945       0.03046
   2     792.3        0.0708        0.0002        0.8160        0.8162       0.745340       0.02622
   1     891.5        0.0810        0.0002        0.5655        0.5656       0.484681       0.02218
   0    1013.0        0.1042        0.0001        0.3414        0.3415       0.237372       0.01717



 Wavenumbers:  4000. -  4650. cm-1, ATM      1
 LEVEL PRESSURE   UPWARD FLUX   DIFDOWN FLUX  DIRDOWN FLUX  DOWNWARD FLUX   NET FLUX    HEATING RATE
          mb          W/m2          W/m2          W/m2        W/m2          W/m2       degree/day
  51    .06700        1.5201        0.0000        6.9421        6.9421       5.421942       0.00000
  50    .07753        1.5201        0.0000        6.9421        6.9421       5.421941       0.00082
  49    .09103        1.5201        0.0000        6.9421        6.9421       5.421940       0.00080
  48    0.1069        1.5201        0.0000        6.9421        6.9421       5.421938       0.00078
  47    0.1255        1.5201        0.0000        6.9421        6.9421       5.421936       0.00077
  46    0.1487        1.5201        0.0000        6.9421        6.9421       5.421934       0.00078
  45    0.1794        1.5201        0.0000        6.9421        6.9421       5.421931       0.00080
  44    0.2165        1.5201        0.0000        6.9421        6.9421       5.421928       0.00078
  43    0.2613        1.5201        0.0000        6.9420        6.9420       5.421924       0.00077
  42    0.3336        1.5201        0.0000        6.9420        6.9420       5.421917       0.00079
  41    0.4307        1.5201        0.0000        6.9420        6.9420       5.421908       0.00080
  40    0.5894        1.5201        0.0000        6.9420        6.9420       5.421893       0.00082
  39     1.339        1.5201        0.0000        6.9419        6.9419       5.421801       0.00103
  38     1.782        1.5201        0.0000        6.9418        6.9418       5.421729       0.00137
  37     2.292        1.5201        0.0000        6.9417        6.9418       5.421632       0.00160
  36     2.964        1.5201        0.0000        6.9416        6.9416       5.421489       0.00181
  35     3.853        1.5201        0.0000        6.9414        6.9414       5.421276       0.00202
  34     5.035        1.5201        0.0000        6.9411        6.9411       5.420961       0.00224
  33     6.613        1.5201        0.0000        6.9406        6.9406       5.420499       0.00247
  32     8.786        1.5201        0.0000        6.9399        6.9399       5.419818       0.00265
  31     11.80        1.5201        0.0000        6.9388        6.9388       5.418749       0.00299
  30     15.07        1.5201        0.0001        6.9375        6.9376       5.417499       0.00323
  29     18.79        1.5201        0.0001        6.9360        6.9361       5.415991       0.00342
  28     23.16        1.5201        0.0001        6.9341        6.9342       5.414124       0.00361
  27     28.12        1.5201        0.0001        6.9318        6.9319       5.411872       0.00383
  26     33.73        1.5201        0.0001        6.9290        6.9292       5.409106       0.00416
  25     40.54        1.5201        0.0002        6.9253        6.9254       5.405372       0.00463
  24     48.69        1.5201        0.0002        6.9203        6.9205       5.400423       0.00512
  23     57.69        1.5201        0.0002        6.9145        6.9147       5.394586       0.00547
  22     68.43        1.5201        0.0003        6.9072        6.9075       5.387318       0.00571
  21     81.20        1.5202        0.0003        6.8983        6.8986       5.378418       0.00588
  20     96.49        1.5203        0.0004        6.8875        6.8879       5.367644       0.00595
  19     114.6        1.5205        0.0004        6.8681        6.8686       5.348053       0.00915
  18     136.5        1.5208        0.0005        6.8471        6.8476       5.326773       0.00818
  17     162.9        1.5212        0.0006        6.8234        6.8241       5.302820       0.00766
  16     196.4        1.5219        0.0007        6.7940        6.7947       5.272838       0.00755
  15     218.7        1.5223        0.0008        6.7750        6.7759       5.253545       0.00733
  14     243.0        1.5228        0.0009        6.7547        6.7556       5.232765       0.00721
  13     269.0        1.5234        0.0010        6.7326        6.7336       5.210138       0.00734
  12     297.5        1.5242        0.0011        6.7078        6.7089       5.184752       0.00753
  11     328.5        1.5251        0.0012        6.6790        6.6803       5.155128       0.00805
  10     361.9        1.5264        0.0014        6.6450        6.6463       5.119926       0.00891
   9     398.1        1.5280        0.0015        6.6040        6.6055       5.077521       0.00988
   8     437.6        1.5301        0.0016        6.5540        6.5557       5.025541       0.01111
   7     480.5        1.5329        0.0018        6.4915        6.4932       4.960322       0.01281
   6     533.0        1.5373        0.0019        6.3999        6.4018       4.864532       0.01541
   5     589.8        1.5432        0.0021        6.2879        6.2900       4.746856       0.01747
   4     651.6        1.5508        0.0023        6.1610        6.1633       4.612466       0.01838
   3     718.7        1.5608        0.0025        6.0221        6.0246       4.463800       0.01868
   2     792.3        1.5742        0.0027        5.8689        5.8716       4.297383       0.01909
   1     891.5        1.5978        0.0029        5.6511        5.6541       4.056226       0.02052
   0    1013.0        1.6390        0.0032        5.3710        5.3742       3.735244       0.02229



 Wavenumbers:  4650. -  5150. cm-1, ATM      1
 LEVEL PRESSURE   UPWARD FLUX   DIFDOWN FLUX  DIRDOWN FLUX  DOWNWARD FLUX   NET FLUX    HEATING RATE
          mb          W/m2          W/m2          W/m2        W/m2          W/m2       degree/day
  51    .06700        1.0312        0.0000        6.5710        6.5710       5.539749       0.00000
  50    .07753        1.0312        0.0000        6.5708        6.5708       5.539519       0.18431
  49    .09103        1.0312        0.0000        6.5705        6.5705       5.539232       0.17917
  48    0.1069        1.0312        0.0000        6.5702        6.5702       5.538906       0.17374
  47    0.1255        1.0312        0.0000        6.5698        6.5698       5.538535       0.16820
  46    0.1487        1.0312        0.0000        6.5693        6.5693       5.538073       0.16848
  45    0.1794        1.0312        0.0000        6.5687        6.5687       5.537452       0.17048
  44    0.2165        1.0312        0.0000        6.5680        6.5680       5.536732       0.16381
  43    0.2613        1.0312        0.0000        6.5671        6.5671       5.535899       0.15692
  42    0.3336        1.0312        0.0000        6.5658        6.5658       5.534568       0.15515
  41    0.4307        1.0312        0.0000        6.5641        6.5641       5.532883       0.14658
  40    0.5894        1.0312        0.0000        6.5616        6.5616       5.530321       0.13620
  39     1.339        1.0312        0.0000        6.5520        6.5520       5.520746       0.10780
  38     1.782        1.0312        0.0000        6.5478        6.5478       5.516595       0.07902
  37     2.292        1.0312        0.0000        6.5440        6.5440       5.512739       0.06386
  36     2.964        1.0312        0.0000        6.5400        6.5400       5.508779       0.04971
  35     3.853        1.0312        0.0000        6.5360        6.5360       5.504799       0.03777
  34     5.035        1.0312        0.0000        6.5319        6.5320       5.500745       0.02896
  33     6.613        1.0312        0.0000        6.5275        6.5275       5.496304       0.02374
  32     8.786        1.0312        0.0001        6.5219        6.5220       5.490783       0.02144
  31     11.80        1.0312        0.0001        6.5138        6.5139       5.482684       0.02267
  30     15.07        1.0312        0.0001        6.5044        6.5045       5.473303       0.02422
  29     18.79        1.0312        0.0001        6.4929        6.4930       5.461778       0.02613
  28     23.16        1.0312        0.0001        6.4782        6.4784       5.447174       0.02824
  27     28.12        1.0312        0.0002        6.4602        6.4604       5.429230       0.03050
  26     33.73        1.0312        0.0002        6.4389        6.4391       5.407872       0.03211
  25     40.54        1.0312        0.0002        6.4118        6.4121       5.380878       0.03349
  24     48.69        1.0312        0.0003        6.3784        6.3786       5.347418       0.03463
  23     57.69        1.0313        0.0003        6.3414        6.3418       5.310504       0.03460
  22     68.43        1.0313        0.0004        6.2984        6.2988       5.267486       0.03382
  21     81.20        1.0314        0.0005        6.2497        6.2502       5.218791       0.03218
  20     96.49        1.0316        0.0005        6.1965        6.1970       5.165452       0.02944
  19     114.6        1.0318        0.0006        6.1377        6.1383       5.106507       0.02752
  18     136.5        1.0321        0.0008        6.0766        6.0774       5.045246       0.02356
  17     162.9        1.0326        0.0009        6.0119        6.0128       4.980183       0.02080
  16     196.4        1.0334        0.0011        5.9344        5.9355       4.902126       0.01965
  15     218.7        1.0339        0.0012        5.8848        5.8860       4.852076       0.01900
  14     243.0        1.0346        0.0013        5.8307        5.8320       4.797397       0.01896
  13     269.0        1.0354        0.0014        5.7712        5.7726       4.737244       0.01951
  12     297.5        1.0363        0.0016        5.7051        5.7066       4.670302       0.01985
  11     328.5        1.0375        0.0017        5.6309        5.6326       4.595045       0.02046
  10     361.9        1.0390        0.0019        5.5472        5.5490       4.510007       0.02152
   9     398.1        1.0409        0.0020        5.4533        5.4553       4.414357       0.02228
   8     437.6        1.0434        0.0022        5.3474        5.3496       4.306157       0.02313
   7     480.5        1.0467        0.0024        5.2278        5.2301       4.183455       0.02410
   6     533.0        1.0516        0.0026        5.0738        5.0763       4.024728       0.02553
   5     589.8        1.0581        0.0028        4.9049        4.9077       3.849544       0.02600
   4     651.6        1.0667        0.0030        4.7227        4.7257       3.659017       0.02606
   3     718.7        1.0778        0.0032        4.5323        4.5354       3.457616       0.02531
   2     792.3        1.0926        0.0033        4.3337        4.3371       3.244525       0.02444
   1     891.5        1.1178        0.0036        4.0804        4.0840       2.966246       0.02368
   0    1013.0        1.1588        0.0038        3.7961        3.8000       2.641183       0.02257



 Wavenumbers:  5150. -  6150. cm-1, ATM      1
 LEVEL PRESSURE   UPWARD FLUX   DIFDOWN FLUX  DIRDOWN FLUX  DOWNWARD FLUX   NET FLUX    HEATING RATE
          mb          W/m2          W/m2          W/m2        W/m2          W/m2       degree/day
  51    .06700        2.6862        0.0000       16.4735       16.4735      13.787274       0.00000
  50    .07753        2.6862        0.0000       16.4735       16.4735      13.787274       0.00019
  49    .09103        2.6862        0.0000       16.4735       16.4735      13.787274       0.00019
  48    0.1069        2.6862        0.0000       16.4735       16.4735      13.787274       0.00019
  47    0.1255        2.6862        0.0000       16.4735       16.4735      13.787273       0.00018
  46    0.1487        2.6862        0.0000       16.4735       16.4735      13.787273       0.00019
  45    0.1794        2.6862        0.0000       16.4735       16.4735      13.787272       0.00019
  44    0.2165        2.6862        0.0000       16.4735       16.4735      13.787271       0.00019
  43    0.2613        2.6862        0.0000       16.4735       16.4735      13.787270       0.00018
  42    0.3336        2.6862        0.0000       16.4735       16.4735      13.787269       0.00019
  41    0.4307        2.6862        0.0000       16.4735       16.4735      13.787266       0.00019
  40    0.5894        2.6862        0.0000       16.4735       16.4735      13.787263       0.00020
  39     1.339        2.6862        0.0000       16.4734       16.4734      13.787240       0.00025
  38     1.782        2.6862        0.0000       16.4734       16.4734      13.787223       0.00033
  37     2.292        2.6862        0.0001       16.4733       16.4734      13.787200       0.00039
  36     2.964        2.6870        0.0001       15.0252       15.0253      12.338260      18.18858
  35     3.853        2.6874        0.0001       14.8226       14.8227      12.135245       1.92664
  34     5.035        2.6877        0.0001       14.7174       14.7175      12.029861       0.75282
  33     6.613        2.6878        0.0002       14.6549       14.6551      11.967240       0.33477
  32     8.786        2.6879        0.0002       14.6140       14.6142      11.926284       0.15906
  31     11.80        2.6880        0.0003       14.5826       14.5829      11.894902       0.08786
  30     15.07        2.6880        0.0004       14.5616       14.5620      11.873982       0.05401
  29     18.79        2.6881        0.0005       14.5453       14.5458      11.857719       0.03687
  28     23.16        2.6881        0.0006       14.5306       14.5311      11.843059       0.02835
  27     28.12        2.6881        0.0007       14.5175       14.5181      11.830064       0.02209
  26     33.73        2.6881        0.0008       14.5057       14.5065      11.818397       0.01754
  25     40.54        2.6881        0.0010       14.4936       14.4945      11.806428       0.01485
  24     48.69        2.6881        0.0012       14.4797       14.4808      11.792676       0.01423
  23     57.69        2.6882        0.0014       14.4645       14.4659      11.777687       0.01405
  22     68.43        2.6883        0.0016       14.4467       14.4483      11.760066       0.01385
  21     81.20        2.6884        0.0019       14.4260       14.4279      11.739506       0.01359
  20     96.49        2.6885        0.0023       14.4020       14.4043      11.715748       0.01311
  19     114.6        2.6887        0.0027       14.3746       14.3773      11.688582       0.01268
  18     136.5        2.6889        0.0032       14.3439       14.3471      11.658151       0.01170
  17     162.9        2.6891        0.0038       14.3102       14.3140      11.624827       0.01065
  16     196.4        2.6894        0.0046       14.2707       14.2753      11.585844       0.00981
  15     218.7        2.6896        0.0051       14.2469       14.2520      11.562456       0.00888
  14     243.0        2.6898        0.0057       14.2219       14.2276      11.537827       0.00854
  13     269.0        2.6899        0.0063       14.1939       14.2002      11.510226       0.00895
  12     297.5        2.6902        0.0069       14.1567       14.1636      11.473413       0.01092
  11     328.5        2.6904        0.0076       14.0979       14.1054      11.414998       0.01588
  10     361.9        2.6909        0.0083       14.0004       14.0087      11.317887       0.02457
   9     398.1        2.6914        0.0091       13.8444       13.8535      11.162028       0.03631
   8     437.6        2.6923        0.0099       13.6069       13.6167      10.924481       0.05079
   7     480.5        2.6935        0.0106       13.2654       13.2760      10.582518       0.06716
   6     533.0        2.6957        0.0115       12.7354       12.7468      10.051119       0.08549
   5     589.8        2.6991        0.0122       12.1115       12.1237       9.424556       0.09300
   4     651.6        2.7045        0.0129       11.4575       11.4704       8.765901       0.09007
   3     718.7        2.7128        0.0136       10.8304       10.8440       8.131178       0.07977
   2     792.3        2.7257        0.0142       10.2657       10.2799       7.554217       0.06617
   1     891.5        2.7520        0.0151        9.6894        9.7045       6.952438       0.05121
   0    1013.0        2.8070        0.0163        9.1900        9.2063       6.399280       0.03841



 Wavenumbers:  6150. -  7700. cm-1, ATM      1
 LEVEL PRESSURE   UPWARD FLUX   DIFDOWN FLUX  DIRDOWN FLUX  DOWNWARD FLUX   NET FLUX    HEATING RATE
          mb          W/m2          W/m2          W/m2        W/m2          W/m2       degree/day
  51    .06700        4.6693        0.0000       30.4684       30.4684      25.799063       0.00000
  50    .07753        4.6693        0.0000       30.4684       30.4684      25.799047       0.01303
  49    .09103        4.6693        0.0000       30.4683       30.4683      25.799027       0.01277
  48    0.1069        4.6693        0.0000       30.4683       30.4683      25.799003       0.01250
  47    0.1255        4.6693        0.0000       30.4683       30.4683      25.798976       0.01223
  46    0.1487        4.6693        0.0000       30.4682       30.4682      25.798942       0.01241
  45    0.1794        4.6693        0.0000       30.4682       30.4682      25.798896       0.01276
  44    0.2165        4.6693        0.0000       30.4681       30.4681      25.798841       0.01252
  43    0.2613        4.6693        0.0000       30.4680       30.4681      25.798775       0.01228
  42    0.3336        4.6693        0.0000       30.4679       30.4680      25.798668       0.01256
  41    0.4307        4.6693        0.0000       30.4678       30.4678      25.798525       0.01241
  40    0.5894        4.6693        0.0001       30.4675       30.4676      25.798292       0.01239
  39     1.339        4.6692        0.0001       30.4662       30.4664      25.797192       0.01238
  38     1.782        4.6691        0.0002       30.4655       30.4657      25.796548       0.01227
  37     2.292        4.6691        0.0003       30.4646       30.4649      25.795803       0.01234
  36     2.964        4.6704        0.0003       27.9562       27.9565      23.286156      31.50365
  35     3.853        4.6710        0.0004       27.6927       27.6931      23.022150       2.50547
  34     5.035        4.6713        0.0006       27.5551       27.5557      22.884425       0.98385
  33     6.613        4.6714        0.0007       27.4737       27.4744      22.803030       0.43514
  32     8.786        4.6714        0.0009       27.4207       27.4216      22.750286       0.20484
  31     11.80        4.6712        0.0013       27.3803       27.3815      22.710307       0.11193
  30     15.07        4.6710        0.0016       27.3535       27.3550      22.683999       0.06792
  29     18.79        4.6708        0.0020       27.3326       27.3346      22.663800       0.04580
  28     23.16        4.6705        0.0024       27.3139       27.3163      22.645777       0.03485
  27     28.12        4.6701        0.0029       27.2972       27.3001      22.630013       0.02680
  26     33.73        4.6697        0.0035       27.2824       27.2859      22.616188       0.02079
  25     40.54        4.6691        0.0041       27.2675       27.2716      22.602467       0.01702
  24     48.69        4.6685        0.0050       27.2506       27.2556      22.587097       0.01590
  23     57.69        4.6678        0.0059       27.2325       27.2384      22.570596       0.01547
  22     68.43        4.6669        0.0069       27.2113       27.2183      22.551345       0.01513
  21     81.20        4.6659        0.0082       27.1865       27.1948      22.528859       0.01486
  20     96.49        4.6647        0.0098       27.1576       27.1673      22.502610       0.01449
  19     114.6        4.6633        0.0116       27.1228       27.1344      22.471085       0.01472
  18     136.5        4.6616        0.0137       27.0822       27.0960      22.434363       0.01412
  17     162.9        4.6596        0.0163       27.0347       27.0510      22.391399       0.01373
  16     196.4        4.6570        0.0197       26.9741       26.9937      22.336680       0.01377
  15     218.7        4.6553        0.0218       26.9347       26.9566      22.301245       0.01345
  14     243.0        4.6535        0.0242       26.8923       26.9166      22.263062       0.01324
  13     269.0        4.6515        0.0268       26.8444       26.8712      22.219644       0.01408
  12     297.5        4.6495        0.0296       26.7812       26.8108      22.161335       0.01729
  11     328.5        4.6474        0.0326       26.6831       26.7158      22.068380       0.02527
  10     361.9        4.6454        0.0358       26.5226       26.5584      21.913030       0.03931
   9     398.1        4.6437        0.0391       26.2661       26.3052      21.661436       0.05862
   8     437.6        4.6427        0.0425       25.8704       25.9129      21.270152       0.08366
   7     480.5        4.6429        0.0459       25.2876       25.3336      20.690625       0.11382
   6     533.0        4.6458        0.0496       24.3517       24.4013      19.755488       0.15043
   5     589.8        4.6530        0.0530       23.2099       23.2629      18.609866       0.17005
   4     651.6        4.6667        0.0561       21.9524       22.0084      17.341739       0.17342
   3     718.7        4.6904        0.0588       20.6508       20.7097      16.019236       0.16620
   2     792.3        4.7301        0.0614       19.3585       19.4198      14.689677       0.15249
   1     891.5        4.8148        0.0644       17.8497       17.9141      13.099316       0.13533
   0    1013.0        4.9944        0.0676       16.3195       16.3871      11.392722       0.11850



 Wavenumbers:  7700. -  8050. cm-1, ATM      1
 LEVEL PRESSURE   UPWARD FLUX   DIFDOWN FLUX  DIRDOWN FLUX  DOWNWARD FLUX   NET FLUX    HEATING RATE
          mb          W/m2          W/m2          W/m2        W/m2          W/m2       degree/day
  51    .06700        1.7456        0.0000        7.2006        7.2006       5.455017       0.00000
  50    .07753        1.7456        0.0000        7.2006        7.2006       5.454998       0.01516
  49    .09103        1.7456        0.0000        7.2005        7.2005       5.454975       0.01485
  48    0.1069        1.7456        0.0000        7.2005        7.2005       5.454947       0.01454
  47    0.1255        1.7456        0.0000        7.2005        7.2005       5.454916       0.01423
  46    0.1487        1.7456        0.0000        7.2004        7.2005       5.454876       0.01444
  45    0.1794        1.7456        0.0000        7.2004        7.2004       5.454822       0.01486
  44    0.2165        1.7456        0.0000        7.2003        7.2003       5.454758       0.01457
  43    0.2613        1.7456        0.0000        7.2003        7.2003       5.454682       0.01430
  42    0.3336        1.7456        0.0000        7.2001        7.2001       5.454557       0.01463
  41    0.4307        1.7456        0.0000        7.2000        7.2000       5.454390       0.01447
  40    0.5894        1.7456        0.0000        7.1997        7.1997       5.454119       0.01445
  39     1.339        1.7457        0.0001        7.1984        7.1985       5.452833       0.01447
  38     1.782        1.7457        0.0001        7.1977        7.1978       5.452079       0.01437
  37     2.292        1.7457        0.0001        7.1968        7.1969       5.451206       0.01446
  36     2.964        1.7458        0.0001        7.1957        7.1958       5.450059       0.01439
  35     3.853        1.7458        0.0002        7.1942        7.1944       5.448546       0.01436
  34     5.035        1.7459        0.0002        7.1922        7.1924       5.446537       0.01435
  33     6.613        1.7460        0.0003        7.1895        7.1899       5.443856       0.01433
  32     8.786        1.7461        0.0004        7.1860        7.1864       5.440249       0.01401
  31     11.80        1.7464        0.0006        7.1809        7.1815       5.435101       0.01441
  30     15.07        1.7466        0.0007        7.1755        7.1762       5.429588       0.01423
  29     18.79        1.7468        0.0009        7.1693        7.1702       5.423382       0.01407
  28     23.16        1.7471        0.0011        7.1622        7.1633       5.416160       0.01397
  27     28.12        1.7475        0.0013        7.1541        7.1554       5.407938       0.01398
  26     33.73        1.7479        0.0015        7.1451        7.1466       5.398784       0.01376
  25     40.54        1.7483        0.0018        7.1343        7.1361       5.387792       0.01364
  24     48.69        1.7489        0.0022        7.1213        7.1235       5.374639       0.01361
  23     57.69        1.7495        0.0026        7.1073        7.1098       5.360313       0.01343
  22     68.43        1.7503        0.0031        7.0906        7.0937       5.343418       0.01328
  21     81.20        1.7512        0.0036        7.0711        7.0747       5.323522       0.01315
  20     96.49        1.7523        0.0043        7.0481        7.0524       5.300138       0.01291
  19     114.6        1.7536        0.0051        7.0213        7.0264       5.272765       0.01278
  18     136.5        1.7552        0.0060        6.9901        6.9961       5.240926       0.01224
  17     162.9        1.7572        0.0071        6.9539        6.9610       5.203817       0.01186
  16     196.4        1.7597        0.0085        6.9081        6.9167       5.156935       0.01180
  15     218.7        1.7614        0.0095        6.8788        6.8883       5.126804       0.01144
  14     243.0        1.7634        0.0105        6.8475        6.8580       5.094619       0.01116
  13     269.0        1.7655        0.0116        6.8142        6.8258       5.060360       0.01111
  12     297.5        1.7678        0.0128        6.7790        6.7918       5.024018       0.01078
  11     328.5        1.7703        0.0140        6.7417        6.7558       4.985414       0.01050
  10     361.9        1.7732        0.0154        6.7023        6.7177       4.944540       0.01034
   9     398.1        1.7763        0.0168        6.6607        6.6775       4.901237       0.01009
   8     437.6        1.7798        0.0184        6.6167        6.6351       4.855342       0.00981
   7     480.5        1.7836        0.0201        6.5703        6.5904       4.806717       0.00955
   6     533.0        1.7886        0.0221        6.5138        6.5359       4.747310       0.00956
   5     589.8        1.7943        0.0243        6.4535        6.4778       4.683533       0.00947
   4     651.6        1.8007        0.0267        6.3890        6.4157       4.614932       0.00938
   3     718.7        1.8081        0.0292        6.3197        6.3489       4.540782       0.00932
   2     792.3        1.8166        0.0318        6.2451        6.2770       4.460317       0.00923
   1     891.5        1.8291        0.0354        6.1435        6.1789       4.349802       0.00940
   0    1013.0        1.8457        0.0396        6.0190        6.0586       4.212888       0.00951



 Wavenumbers:  8050. - 12850. cm-1, ATM      1
 LEVEL PRESSURE   UPWARD FLUX   DIFDOWN FLUX  DIRDOWN FLUX  DOWNWARD FLUX   NET FLUX    HEATING RATE
          mb          W/m2          W/m2          W/m2        W/m2          W/m2       degree/day
  51    .06700       26.9508        0.0000      100.8135      100.8135      73.862726       0.00000
  50    .07753       26.9508        0.0000      100.8135      100.8135      73.862726       0.00000
  49    .09103       26.9507        0.0001      100.8134      100.8135      73.862726      -0.00000
  48    0.1069       26.9507        0.0001      100.8134      100.8134      73.862726       0.00000
  47    0.1255       26.9507        0.0001      100.8133      100.8134      73.862726       0.00000
  46    0.1487       26.9506        0.0002      100.8132      100.8134      73.862726      -0.00000
  45    0.1794       26.9506        0.0003      100.8131      100.8133      73.862726       0.00000
  44    0.2165       26.9505        0.0003      100.8129      100.8133      73.862726       0.00000
  43    0.2613       26.9505        0.0004      100.8127      100.8132      73.862726      -0.00000
  42    0.3336       26.9503        0.0006      100.8125      100.8131      73.862726       0.00000
  41    0.4307       26.9502        0.0008      100.8121      100.8129      73.862726       0.00000
  40    0.5894       26.9499        0.0012      100.8115      100.8126      73.862726      -0.00000
  39     1.339       26.9486        0.0028      100.8085      100.8113      73.862726       0.00000
  38     1.782       26.9478        0.0038      100.8068      100.8105      73.862726       0.00000
  37     2.292       26.9469        0.0049      100.8047      100.8097      73.862726       0.00000
  36     2.964       26.9453        0.0071      100.8009      100.8080      73.862726      -0.00000
  35     3.853       26.9435        0.0093      100.7970      100.8063      73.862726      -0.00000
  34     5.035       26.9414        0.0120      100.7921      100.8041      73.862726       0.00000
  33     6.613       26.9386        0.0155      100.7858      100.8014      73.862726       0.00000
  32     8.786       26.9349        0.0203      100.7774      100.7977      73.862726      -0.00000
  31     11.80       26.9297        0.0270      100.7654      100.7924      73.862726       0.00000
  30     15.07       26.9240        0.0342      100.7525      100.7867      73.862726       0.00000
  29     18.79       26.9176        0.0424      100.7379      100.7803      73.862726       0.00000
  28     23.16       26.9101        0.0519      100.7209      100.7728      73.862726       0.00000
  27     28.12       26.9016        0.0629      100.7014      100.7643      73.862726      -0.00000
  26     33.73       26.8920        0.0751      100.6796      100.7547      73.862726       0.00000
  25     40.54       26.8804        0.0899      100.6531      100.7431      73.862726       0.00000
  24     48.69       26.8664        0.1078      100.6213      100.7291      73.862726      -0.00000
  23     57.69       26.8509        0.1275      100.5862      100.7137      73.862726       0.00000
  22     68.43       26.8326        0.1509      100.5443      100.6953      73.862726      -0.00000
  21     81.20       26.8106        0.1789      100.4944      100.6733      73.862726      -0.00000
  20     96.49       26.7844        0.2123      100.4348      100.6472      73.862726       0.00000
  19     114.6       26.7547        0.2519      100.2602      100.5122      73.757470       0.04915
  18     136.5       26.7191        0.2989      100.0837      100.3826      73.663567       0.03611
  17     162.9       26.6761        0.3550       99.8996      100.2546      73.578513       0.02719
  16     196.4       26.6197        0.4278       99.6862      100.1140      73.494281       0.02120
  15     218.7       26.5825        0.4758       99.5562      100.0320      73.449509       0.01700
  14     243.0       26.5418        0.5279       99.4211       99.9490      73.407191       0.01468
  13     269.0       26.4977        0.5846       99.2770       99.8615      73.363814       0.01407
  12     297.5       26.4501        0.6458       99.1133       99.7592      73.309098       0.01623
  11     328.5       26.3988        0.7121       98.9121       99.6242      73.225389       0.02276
  10     361.9       26.3443        0.7835       98.6550       99.4385      73.094168       0.03320
   9     398.1       26.2869        0.8602       98.3238       99.1840      72.897128       0.04591
   8     437.6       26.2272        0.9424       97.8957       98.8380      72.610877       0.06120
   7     480.5       26.1667        1.0300       97.3346       98.3646      72.197928       0.08110
   6     533.0       26.0995        1.1369       96.4706       97.6075      71.507963       0.11099
   5     589.8       26.0381        1.2506       95.3623       96.6129      70.574761       0.13852
   4     651.6       25.9877        1.3708       94.0078       95.3786      69.390925       0.16189
   3     718.7       25.9564        1.4972       92.3916       93.8888      67.932425       0.18329
   2     792.3       25.9575        1.6288       90.4991       92.1280      66.170466       0.20208
   1     891.5       26.0297        1.8005       87.8154       89.6159      63.586177       0.21991
   0    1013.0       26.2716        1.9974       84.4947       86.4922      60.220509       0.23370



 Wavenumbers: 12850. - 16000. cm-1, ATM      1
 LEVEL PRESSURE   UPWARD FLUX   DIFDOWN FLUX  DIRDOWN FLUX  DOWNWARD FLUX   NET FLUX    HEATING RATE
          mb          W/m2          W/m2          W/m2        W/m2          W/m2       degree/day
  51    .06700       33.2070        0.0000       63.1686       63.1686      29.961609       0.00000
  50    .07753       33.2069        0.0001       63.1677       63.1678      29.960830       0.62488
  49    .09103       33.2069        0.0001       63.1666       63.1668      29.959858       0.60722
  48    0.1069       33.2069        0.0002       63.1654       63.1656      29.958752       0.58878
  47    0.1255       33.2068        0.0003       63.1640       63.1643      29.957494       0.57029
  46    0.1487       33.2068        0.0004       63.1623       63.1627      29.955926       0.57177
  45    0.1794       33.2067        0.0006       63.1600       63.1606      29.953822       0.57740
  44    0.2165       33.2067        0.0008       63.1573       63.1581      29.951390       0.55338
  43    0.2613       33.2066        0.0010       63.1542       63.1552      29.948584       0.52882
  42    0.3336       33.2066        0.0014       63.1493       63.1507      29.944114       0.52125
  41    0.4307       33.2065        0.0019       63.1431       63.1450      29.938510       0.48718
  40    0.5894       33.2065        0.0027       63.1338       63.1365      29.930024       0.45129
  39     1.339       33.2077        0.0065       63.0955       63.1021      29.894367       0.40143
  38     1.782       33.2094        0.0088       63.0739       63.0827      29.873351       0.40010
  37     2.292       33.2122        0.0114       63.0475       63.0589      29.846659       0.44211
  36     2.964       33.2163        0.0164       63.0067       63.0230      29.806693       0.50169
  35     3.853       33.2246        0.0215       62.9493       62.9707      29.746101       0.57503
  34     5.035       33.2379        0.0277       62.8679       62.8956      29.657765       0.63103
  33     6.613       33.2567        0.0359       62.7571       62.7930      29.536304       0.64933
  32     8.786       33.2811        0.0467       62.6131       62.6598      29.378721       0.61199
  31     11.80       33.3122        0.0622       62.4230       62.4851      29.172880       0.57629
  30     15.07       33.3413        0.0786       62.2371       62.3157      28.974386       0.51247
  29     18.79       33.3703        0.0972       62.0436       62.1409      28.770578       0.46210
  28     23.16       33.3995        0.1189       61.8367       61.9556      28.556027       0.41487
  27     28.12       33.4277        0.1435       61.6221       61.7656      28.337857       0.37088
  26     33.73       33.4517        0.1711       61.4119       61.5830      28.131349       0.31049
  25     40.54       33.4718        0.2043       61.1926       61.3970      27.925125       0.25584
  24     48.69       33.4876        0.2443       60.9624       61.2067      27.719094       0.21321
  23     57.69       33.4967        0.2882       60.7423       61.0305      27.533751       0.17373
  22     68.43       33.4987        0.3404       60.5148       60.8552      27.356476       0.13936
  21     81.20       33.4889        0.4026       60.2885       60.6911      27.202236       0.10192
  20     96.49       33.4659        0.4767       60.0590       60.5357      27.069817       0.07309
  19     114.6       33.4369        0.5650       59.8010       60.3660      26.929122       0.06569
  18     136.5       33.3979        0.6694       59.5076       60.1770      26.779113       0.05768
  17     162.9       33.3473        0.7934       59.1678       59.9612      26.613839       0.05283
  16     196.4       33.2728        0.9538       58.7506       59.7044      26.431534       0.04589
  15     218.7       33.2207        1.0588       58.4855       59.5443      26.323605       0.04098
  14     243.0       33.1627        1.1727       58.2018       59.3745      26.211828       0.03877
  13     269.0       33.0984        1.2959       57.8999       59.1958      26.097430       0.03711
  12     297.5       33.0275        1.4286       57.5791       59.0077      25.980197       0.03477
  11     328.5       32.9506        1.5717       57.2360       58.8077      25.857168       0.03345
  10     361.9       32.8675        1.7254       56.8695       58.5949      25.727401       0.03283
   9     398.1       32.7781        1.8902       56.4778       58.3680      25.589933       0.03203
   8     437.6       32.6826        2.0667       56.0577       58.1244      25.441846       0.03166
   7     480.5       32.5811        2.2552       55.6066       57.8618      25.280758       0.03164
   6     533.0       32.4583        2.4863       55.0466       57.5328      25.074494       0.03318
   5     589.8       32.3295        2.7341       54.4361       57.1702      24.840709       0.03470
   4     651.6       32.1961        2.9990       53.7722       56.7712      24.575183       0.03631
   3     718.7       32.0600        3.2813       53.0524       56.3337      24.273773       0.03788
   2     792.3       31.9247        3.5808       52.2746       55.8554      23.930737       0.03934
   1     891.5       31.7629        3.9801       51.2201       55.2002      23.437267       0.04199
   0    1013.0       31.6087        4.4516       49.9503       54.4020      22.793251       0.04472



 Wavenumbers: 16000. - 22650. cm-1, ATM      1
 LEVEL PRESSURE   UPWARD FLUX   DIFDOWN FLUX  DIRDOWN FLUX  DOWNWARD FLUX   NET FLUX    HEATING RATE
          mb          W/m2          W/m2          W/m2        W/m2          W/m2       degree/day
  51    .06700       74.1540        0.0000      100.7153      100.7153      26.561315       0.00000
  50    .07753       74.1539        0.0003      100.7147      100.7151      26.561198       0.09360
  49    .09103       74.1537        0.0007      100.7140      100.7147      26.561028       0.10617
  48    0.1069       74.1535        0.0012      100.7131      100.7143      26.560801       0.12106
  47    0.1255       74.1534        0.0017      100.7121      100.7138      26.560496       0.13800
  46    0.1487       74.1531        0.0024      100.7108      100.7132      26.560048       0.16352
  45    0.1794       74.1529        0.0033      100.7089      100.7122      26.559346       0.19254
  44    0.2165       74.1526        0.0044      100.7066      100.7110      26.558395       0.21639
  43    0.2613       74.1523        0.0057      100.7037      100.7094      26.557104       0.24327
  42    0.3336       74.1519        0.0079      100.6987      100.7066      26.554651       0.28607
  41    0.4307       74.1516        0.0108      100.6918      100.7025      26.550952       0.32157
  40    0.5894       74.1513        0.0154      100.6797      100.6952      26.543899       0.37508
  39     1.339       74.1552        0.0375      100.6095      100.6470      26.491800       0.58654
  38     1.782       74.1615        0.0505      100.5585      100.6089      26.447431       0.84471
  37     2.292       74.1725        0.0655      100.4903      100.5557      26.383227       1.06338
  36     2.964       74.1882        0.0939      100.3736      100.4675      26.279269       1.30499
  35     3.853       74.2212        0.1231      100.2126      100.3357      26.114441       1.56425
  34     5.035       74.2744        0.1591       99.9841      100.1432      25.868804       1.75473
  33     6.613       74.3501        0.2058       99.6723       99.8781      25.527975       1.82207
  32     8.786       74.4484        0.2679       99.2659       99.5338      25.085404       1.71878
  31     11.80       74.5737        0.3560       98.7272       99.0832      24.509543       1.61223
  30     15.07       74.6902        0.4503       98.1973       98.6475      23.957283       1.42583
  29     18.79       74.8057        0.5562       97.6425       98.1988      23.393015       1.27937
  28     23.16       74.9220        0.6795       97.0446       97.7241      22.802042       1.14275
  27     28.12       75.0332        0.8199       96.4180       97.2379      22.204745       1.01536
  26     33.73       75.1263        0.9765       95.7954       96.7719      21.645627       0.84065
  25     40.54       75.2025        1.1650       95.1325       96.2975      21.094918       0.68322
  24     48.69       75.2594        1.3913       94.4197       95.8111      20.551660       0.56219
  23     57.69       75.2880        1.6389       93.7195       95.3584      20.070373       0.45113
  22     68.43       75.2858        1.9326       92.9734       94.9060      19.620163       0.35392
  21     81.20       75.2333        2.2811       92.2013       94.4824      19.249047       0.24523
  20     96.49       75.1249        2.6944       91.3893       94.0837      18.958821       0.16018
  19     114.6       74.9733        3.1817       90.4853       93.6670      18.693669       0.12381
  18     136.5       74.7791        3.7544       89.4585       93.2129      18.433836       0.09991
  17     162.9       74.5353        4.4294       88.2806       92.7100      18.174712       0.08283
  16     196.4       74.1909        5.2946       86.8392       92.1338      17.942848       0.05836
  15     218.7       73.9553        5.8565       85.9281       91.7846      17.829250       0.04313
  14     243.0       73.6956        6.4616       84.9584       91.4200      17.724401       0.03636
  13     269.0       73.4106        7.1109       83.9301       91.0410      17.630308       0.03052
  12     297.5       73.0997        7.8051       82.8422       90.6472      17.547564       0.02454
  11     328.5       72.7637        8.5465       81.6857       90.2322      17.468431       0.02152
  10     361.9       72.4027        9.3348       80.4612       89.7959      17.393281       0.01901
   9     398.1       72.0153       10.1718       79.1654       89.3373      17.321971       0.01661
   8     437.6       71.6017       11.0579       77.7969       88.8548      17.253055       0.01473
   7     480.5       71.1614       11.9931       76.3553       88.3484      17.186992       0.01297
   6     533.0       70.6242       13.1240       74.6137       87.7377      17.113494       0.01182
   5     589.8       70.0522       14.3186       72.7738       87.0924      17.040122       0.01089
   4     651.6       69.4460       15.5749       70.8366       86.4115      16.965526       0.01020
   3     718.7       68.8059       16.8912       68.8032       85.6944      16.888572       0.00967
   2     792.3       68.1335       18.2631       66.6783       84.9415      16.807947       0.00925
   1     891.5       67.2487       20.0531       63.8939       83.9470      16.698304       0.00933
   0    1013.0       66.2211       22.1114       60.6707       82.7821      16.561040       0.00953



 Wavenumbers: 22650. - 29000. cm-1, ATM      1
 LEVEL PRESSURE   UPWARD FLUX   DIFDOWN FLUX  DIRDOWN FLUX  DOWNWARD FLUX   NET FLUX    HEATING RATE
          mb          W/m2          W/m2          W/m2        W/m2          W/m2       degree/day
  51    .06700       32.0539        0.0000       38.0063       38.0063       5.952433       0.00000
  50    .07753       32.0537        0.0004       38.0057       38.0061       5.952433       0.00000
  49    .09103       32.0535        0.0009       38.0050       38.0059       5.952433       0.00000
  48    0.1069       32.0532        0.0014       38.0042       38.0056       5.952433      -0.00000
  47    0.1255       32.0529        0.0020       38.0033       38.0054       5.952433       0.00000
  46    0.1487       32.0526        0.0028       38.0022       38.0050       5.952433       0.00000
  45    0.1794       32.0521        0.0039       38.0006       38.0045       5.952433      -0.00000
  44    0.2165       32.0515        0.0052       37.9987       38.0039       5.952433       0.00000
  43    0.2613       32.0508        0.0067       37.9965       38.0032       5.952433       0.00000
  42    0.3336       32.0496        0.0092       37.9928       38.0021       5.952433       0.00000
  41    0.4307       32.0481        0.0125       37.9880       38.0005       5.952433       0.00000
  40    0.5894       32.0456        0.0180       37.9800       37.9980       5.952433       0.00000
  39     1.339       32.0338        0.0437       37.9425       37.9862       5.952433      -0.00000
  38     1.782       32.0268        0.0588       37.9204       37.9793       5.952433      -0.00000
  37     2.292       32.0188        0.0763       37.8949       37.9712       5.952433       0.00000
  36     2.964       32.0036        0.1095       37.8466       37.9560       5.952433       0.00000
  35     3.853       31.9879        0.1435       37.7968       37.9404       5.952433      -0.00000
  34     5.035       31.9686        0.1855       37.7355       37.9211       5.952433       0.00000
  33     6.613       31.9435        0.2401       37.6559       37.8960       5.952433       0.00000
  32     8.786       31.9102        0.3126       37.5500       37.8626       5.952433      -0.00000
  31     11.80       31.8627        0.4157       37.3994       37.8152       5.952433       0.00000
  30     15.07       31.8120        0.5259       37.2386       37.7644       5.952433       0.00000
  29     18.79       31.7549        0.6497       37.0577       37.7074       5.952433      -0.00000
  28     23.16       31.6885        0.7935       36.8474       37.6410       5.952433      -0.00000
  27     28.12       31.6130        0.9571       36.6083       37.5654       5.952433      -0.00000
  26     33.73       31.5289        1.1390       36.3424       37.4813       5.952433       0.00000
  25     40.54       31.4279        1.3570       36.0234       37.3804       5.952433      -0.00000
  24     48.69       31.3072        1.6173       35.6423       37.2596       5.952433       0.00000
  23     57.69       31.1757        1.9001       35.2280       37.1281       5.952433      -0.00000
  22     68.43       31.0208        2.2326       34.7406       36.9732       5.952433       0.00000
  21     81.20       30.8385        2.6226       34.1683       36.7909       5.952433       0.00000
  20     96.49       30.6246        3.0788       33.4983       36.5770       5.952433      -0.00000
  19     114.6       30.3752        3.6082       32.7194       36.3277       5.952433       0.00000
  18     136.5       30.0860        4.2192       31.8193       36.0385       5.952433       0.00000
  17     162.9       29.7505        4.9236       30.7793       35.7029       5.952433       0.00000
  16     196.4       29.3290        5.8013       29.4801       35.2814       5.952433      -0.00000
  15     218.7       29.0605        6.3561       28.6568       35.0129       5.952433       0.00000
  14     243.0       28.7757        6.9406       27.7876       34.7281       5.952433       0.00000
  13     269.0       28.4752        7.5527       26.8749       34.4276       5.952433      -0.00000
  12     297.5       28.1595        8.1901       25.9219       34.1120       5.952433       0.00000
  11     328.5       27.8286        8.8522       24.9289       33.7810       5.952433       0.00000
  10     361.9       27.4837        9.5349       23.9012       33.4361       5.952433       0.00000
   9     398.1       27.1250       10.2366       22.8408       33.0774       5.952433       0.00000
   8     437.6       26.7539       10.9527       21.7537       32.7064       5.952433       0.00000
   7     480.5       26.3716       11.6793       20.6447       32.3240       5.952433      -0.00000
   6     533.0       25.9211       12.5200       19.3535       31.8735       5.952433       0.00000
   5     589.8       25.4592       13.3627       18.0489       31.4116       5.952433      -0.00000
   4     651.6       24.9880       14.2001       16.7404       30.9404       5.952433      -0.00000
   3     718.7       24.5094       15.0255       15.4364       30.4619       5.952433       0.00000
   2     792.3       24.0265       15.8297       14.1492       29.9789       5.952433      -0.00000
   1     891.5       23.4187       16.7956       12.5755       29.3711       5.952433       0.00000
   0    1013.0       22.7487       17.7917       10.9094       28.7011       5.952433      -0.00000



 Wavenumbers: 29000. - 38000. cm-1, ATM      1
 LEVEL PRESSURE   UPWARD FLUX   DIFDOWN FLUX  DIRDOWN FLUX  DOWNWARD FLUX   NET FLUX    HEATING RATE
          mb          W/m2          W/m2          W/m2        W/m2          W/m2       degree/day
  51    .06700        4.6946        0.0000       13.4026       13.4026       8.707981       0.00000
  50    .07753        4.6944        0.0003       13.3983       13.3986       8.704191       3.03799
  49    .09103        4.6941        0.0007       13.3921       13.3928       8.698683       3.44236
  48    0.1069        4.6938        0.0011       13.3841       13.3851       8.691320       3.91946
  47    0.1255        4.6935        0.0016       13.3734       13.3750       8.681492       4.45570
  46    0.1487        4.6930        0.0022       13.3579       13.3601       8.667076       5.25460
  45    0.1794        4.6925        0.0030       13.3342       13.3372       8.644711       6.13983
  44    0.2165        4.6918        0.0040       13.3025       13.3065       8.614713       6.82393
  43    0.2613        4.6910        0.0051       13.2605       13.2657       8.574669       7.54820
  42    0.3336        4.6898        0.0070       13.1834       13.1904       8.500677       8.62670
  41    0.4307        4.6882        0.0095       13.0730       13.0824       8.394221       9.25616
  40    0.5894        4.6858        0.0133       12.8795       12.8929       8.207071       9.95236
  39     1.339        4.6772        0.0295       11.9153       11.9449       7.267640      10.57629
  38     1.782        4.6738        0.0378       11.4377       11.4755       6.801650       8.87169
  37     2.292        4.6713        0.0466       10.9754       11.0220       6.350654       7.46967
  36     2.964        4.6657        0.0631       10.4619       10.5250       5.859354       6.16731
  35     3.853        4.6646        0.0782        9.9214        9.9996       5.334981       4.97639
  34     5.035        4.6669        0.0955        9.3769        9.4724       4.805478       3.78255
  33     6.613        4.6722        0.1167        8.8508        8.9675       4.295308       2.72737
  32     8.786        4.6795        0.1437        8.3552        8.4989       3.819340       1.84849
  31     11.80        4.6885        0.1808        7.8673        8.0481       3.359630       1.28704
  30     15.07        4.6960        0.2190        7.4892        7.7082       3.012213       0.89696
  29     18.79        4.7028        0.2607        7.1565        7.4172       2.714402       0.67523
  28     23.16        4.7088        0.3077        6.8455        7.1531       2.444328       0.52223
  27     28.12        4.7132        0.3596        6.5576        6.9171       2.203964       0.40860
  26     33.73        4.7136        0.4162        6.2995        6.7157       2.002168       0.30341
  25     40.54        4.7086        0.4830        6.0469        6.5299       1.821217       0.22449
  24     48.69        4.6980        0.5612        5.7937        6.3550       1.657011       0.16993
  23     57.69        4.6817        0.6447        5.5587        6.2033       1.521623       0.12691
  22     68.43        4.6574        0.7412        5.3189        6.0601       1.402661       0.09352
  21     81.20        4.6209        0.8532        5.0776        5.9308       1.309889       0.06130
  20     96.49        4.5708        0.9825        4.8290        5.8115       1.240689       0.03819
  19     114.6        4.5101        1.1289        4.5617        5.6905       1.180420       0.02814
  18     136.5        4.4398        1.2922        4.2715        5.5637       1.123973       0.02171
  17     162.9        4.3591        1.4737        3.9556        5.4293       1.070200       0.01719
  16     196.4        4.2569        1.6905        3.5909        5.2814       1.024432       0.01152
  15     218.7        4.1926        1.8218        3.3738        5.1955       1.002929       0.00816
  14     243.0        4.1255        1.9554        3.1537        5.1091       0.983653       0.00669
  13     269.0        4.0559        2.0903        2.9324        5.0227       0.966824       0.00546
  12     297.5        3.9842        2.2253        2.7113        4.9366       0.952394       0.00428
  11     328.5        3.9114        2.3588        2.4914        4.8502       0.938871       0.00368
  10     361.9        3.8377        2.4896        2.2744        4.7640       0.926293       0.00318
   9     398.1        3.7636        2.6164        2.0618        4.6783       0.914612       0.00272
   8     437.6        3.6896        2.7381        1.8551        4.5932       0.903597       0.00235
   7     480.5        3.6160        2.8532        1.6562        4.5094       0.893350       0.00201
   6     533.0        3.5326        2.9760        1.4391        4.4151       0.882418       0.00176
   5     589.8        3.4509        3.0869        1.2361        4.3230       0.872077       0.00153
   4     651.6        3.3712        3.1849        1.0485        4.2334       0.862219       0.00135
   3     718.7        3.2937        3.2689        0.8776        4.1465       0.852799       0.00118
   2     792.3        3.2187        3.3380        0.7245        4.0626       0.843808       0.00103
   1     891.5        3.1283        3.4033        0.5580        3.9612       0.832969       0.00092
   0    1013.0        3.0326        3.4476        0.4063        3.8539       0.821295       0.00081



 Wavenumbers: 38000. - 50000. cm-1, ATM      1
 LEVEL PRESSURE   UPWARD FLUX   DIFDOWN FLUX  DIRDOWN FLUX  DOWNWARD FLUX   NET FLUX    HEATING RATE
          mb          W/m2          W/m2          W/m2        W/m2          W/m2       degree/day
  51    .06700        0.0052        0.0000        0.8267        0.8267       0.821425       0.00000
  50    .07753        0.0052        0.0001        0.8242        0.8243       0.819093       1.86945
  49    .09103        0.0051        0.0002        0.8207        0.8209       0.815769       2.07722
  48    0.1069        0.0050        0.0002        0.8162        0.8164       0.811411       2.32009
  47    0.1255        0.0049        0.0004        0.8103        0.8106       0.805697       2.59036
  46    0.1487        0.0048        0.0005        0.8018        0.8023       0.797462       3.00184
  45    0.1794        0.0047        0.0007        0.7889        0.7896       0.784906       3.44691
  44    0.2165        0.0045        0.0009        0.7720        0.7729       0.768399       3.75502
  43    0.2613        0.0043        0.0011        0.7500        0.7511       0.746846       4.06261
  42    0.3336        0.0040        0.0015        0.7106        0.7121       0.708157       4.51077
  41    0.4307        0.0036        0.0019        0.6566        0.6584       0.654861       4.63393
  40    0.5894        0.0030        0.0024        0.5680        0.5704       0.567352       4.65364
  39     1.339        0.0016        0.0030        0.2422        0.2452       0.243595       3.64492
  38     1.782        0.0012        0.0026        0.1493        0.1519       0.150763       1.76738
  37     2.292        0.0009        0.0022        0.0924        0.0946       0.093770       0.94396
  36     2.964        0.0005        0.0019        0.0537        0.0556       0.055078       0.48570
  35     3.853        0.0003        0.0014        0.0293        0.0307       0.030425       0.23396
  34     5.035        0.0002        0.0011        0.0153        0.0163       0.016149       0.10199
  33     6.613        0.0001        0.0007        0.0073        0.0080       0.007908       0.04406
  32     8.786        0.0000        0.0005        0.0030        0.0034       0.003395       0.01753
  31     11.80        0.0000        0.0003        0.0010        0.0012       0.001205       0.00613
  30     15.07        0.0000        0.0001        0.0003        0.0005       0.000468       0.00190
  29     18.79        0.0000        0.0001        0.0001        0.0002       0.000185       0.00064
  28     23.16        0.0000        0.0000        0.0000        0.0001       0.000072       0.00022
  27     28.12        0.0000        0.0000        0.0000        0.0000       0.000028       0.00007
  26     33.73        0.0000        0.0000        0.0000        0.0000       0.000012       0.00003
  25     40.54        0.0000        0.0000        0.0000        0.0000       0.000005       0.00001
  24     48.69        0.0000        0.0000        0.0000        0.0000       0.000002       0.00000
  23     57.69        0.0000        0.0000        0.0000        0.0000       0.000001       0.00000
  22     68.43        0.0000        0.0000        0.0000        0.0000       0.000000       0.00000
  21     81.20        0.0000        0.0000        0.0000        0.0000       0.000000       0.00000
  20     96.49        0.0000        0.0000        0.0000        0.0000       0.000000       0.00000
  19     114.6        0.0000        0.0000        0.0000        0.0000       0.000000       0.00000
  18     136.5        0.0000        0.0000        0.0000        0.0000       0.000000       0.00000
  17     162.9        0.0000        0.0000        0.0000        0.0000       0.000000       0.00000
  16     196.4        0.0000        0.0000        0.0000        0.0000       0.000000       0.00000
  15     218.7        0.0000        0.0000        0.0000        0.0000       0.000000       0.00000
  14     243.0        0.0000        0.0000        0.0000        0.0000       0.000000       0.00000
  13     269.0        0.0000        0.0000        0.0000        0.0000       0.000000       0.00000
  12     297.5        0.0000        0.0000        0.0000        0.0000       0.000000       0.00000
  11     328.5        0.0000        0.0000        0.0000        0.0000       0.000000       0.00000
  10     361.9        0.0000        0.0000        0.0000        0.0000       0.000000       0.00000
   9     398.1        0.0000        0.0000        0.0000        0.0000       0.000000       0.00000
   8     437.6        0.0000        0.0000        0.0000        0.0000       0.000000       0.00000
   7     480.5        0.0000        0.0000        0.0000        0.0000       0.000000       0.00000
   6     533.0        0.0000        0.0000        0.0000        0.0000       0.000000       0.00000
   5     589.8        0.0000        0.0000        0.0000        0.0000       0.000000       0.00000
   4     651.6        0.0000        0.0000        0.0000        0.0000       0.000000       0.00000
   3     718.7        0.0000        0.0000        0.0000        0.0000       0.000000       0.00000
   2     792.3        0.0000        0.0000        0.0000        0.0000       0.000000       0.00000
   1     891.5        0.0000        0.0000        0.0000        0.0000       0.000000       0.00000
   0    1013.0        0.0000        0.0000        0.0000        0.0000       0.000000       0.00000



 Wavenumbers:   820. -  2600. cm-1, ATM      1
 LEVEL PRESSURE   UPWARD FLUX   DIFDOWN FLUX  DIRDOWN FLUX  DOWNWARD FLUX   NET FLUX    HEATING RATE
          mb          W/m2          W/m2          W/m2        W/m2          W/m2       degree/day
  51    .06700        0.2305        0.0000        3.8670        3.8670       3.636550       0.00000
  50    .07753        0.2305        0.0000        3.8644        3.8644       3.633952       2.08287
  49    .09103        0.2305        0.0000        3.8638        3.8638       3.633282       0.41878
  48    0.1069        0.2305        0.0000        3.8630        3.8630       3.632533       0.39874
  47    0.1255        0.2305        0.0000        3.8622        3.8622       3.631719       0.36879
  46    0.1487        0.2305        0.0000        3.8613        3.8613       3.630792       0.33798
  45    0.1794        0.2305        0.0000        3.8602        3.8602       3.629683       0.30446
  44    0.2165        0.2305        0.0000        3.8590        3.8590       3.628548       0.25804
  43    0.2613        0.2305        0.0000        3.8579        3.8579       3.627389       0.21851
  42    0.3336        0.2305        0.0000        3.8562        3.8562       3.625704       0.19646
  41    0.4307        0.2305        0.0000        3.8540        3.8540       3.623539       0.18827
  40    0.5894        0.2305        0.0000        3.8505        3.8505       3.620051       0.18550
  39     1.339        0.2305        0.0000        3.8352        3.8352       3.604701       0.17281
  38     1.782        0.2305        0.0000        3.8267        3.8267       3.596222       0.16143
  37     2.292        0.2305        0.0000        3.8172        3.8172       3.586703       0.15766
  36     2.964        0.2444        0.0000        1.0388        1.0388       0.794395      35.05190
  35     3.853        0.2505        0.0000        0.9647        0.9647       0.714127       0.76176
  34     5.035        0.2537        0.0000        0.9370        0.9370       0.683283       0.22034
  33     6.613        0.2554        0.0000        0.9240        0.9240       0.668538       0.07882
  32     8.786        0.2564        0.0000        0.9172        0.9172       0.660757       0.03022
  31     11.80        0.2570        0.0000        0.9130        0.9130       0.655993       0.01334
  30     15.07        0.2573        0.0000        0.9108        0.9108       0.653434       0.00661
  29     18.79        0.2576        0.0000        0.9094        0.9094       0.651800       0.00370
  28     23.16        0.2577        0.0000        0.9083        0.9083       0.650574       0.00237
  27     28.12        0.2578        0.0000        0.9075        0.9075       0.649666       0.00154
  26     33.73        0.2579        0.0000        0.9069        0.9069       0.648984       0.00102
  25     40.54        0.2580        0.0000        0.9064        0.9064       0.648406       0.00072
  24     48.69        0.2581        0.0000        0.9059        0.9059       0.647851       0.00057
  23     57.69        0.2582        0.0000        0.9055        0.9055       0.647338       0.00048
  22     68.43        0.2582        0.0000        0.9050        0.9050       0.646820       0.00041
  21     81.20        0.2583        0.0000        0.9046        0.9046       0.646295       0.00035
  20     96.49        0.2584        0.0000        0.9041        0.9041       0.645764       0.00029
  19     114.6        0.2584        0.0000        0.9037        0.9037       0.645248       0.00024
  18     136.5        0.2585        0.0000        0.9032        0.9032       0.644708       0.00021
  17     162.9        0.2586        0.0000        0.9028        0.9028       0.644204       0.00016
  16     196.4        0.2586        0.0000        0.9024        0.9024       0.643781       0.00011
  15     218.7        0.2587        0.0000        0.9023        0.9023       0.643633       0.00006
  14     243.0        0.2587        0.0000        0.9022        0.9022       0.643520       0.00004
  13     269.0        0.2587        0.0000        0.9021        0.9021       0.643424       0.00003
  12     297.5        0.2587        0.0000        0.9020        0.9020       0.643316       0.00003
  11     328.5        0.2587        0.0000        0.9019        0.9019       0.643176       0.00004
  10     361.9        0.2588        0.0000        0.9017        0.9017       0.642976       0.00005
   9     398.1        0.2588        0.0000        0.9015        0.9015       0.642694       0.00007
   8     437.6        0.2588        0.0000        0.9011        0.9011       0.642297       0.00008
   7     480.5        0.2589        0.0000        0.9007        0.9007       0.641754       0.00011
   6     533.0        0.2590        0.0000        0.8999        0.8999       0.640882       0.00014
   5     589.8        0.2592        0.0000        0.8989        0.8989       0.639697       0.00018
   4     651.6        0.2595        0.0000        0.8972        0.8972       0.637745       0.00027
   3     718.7        0.2599        0.0000        0.8945        0.8945       0.634603       0.00039
   2     792.3        0.2607        0.0000        0.8903        0.8903       0.629633       0.00057
   1     891.5        0.2621        0.0000        0.8819        0.8819       0.619817       0.00084
   0    1013.0        0.2646        0.0000        0.8676        0.8676       0.602987       0.00117

  Modules and versions used in this calculation:

       rrtmg_sw.1col.f90:  $Revision$                    rrtmg_sw_init.f90:  $Revision$        
     rrtmgsw_cldprop.f90:  $Revision$                  rrtmgsw_cldprmc.f90:  NOT USED          
     rrtmg_sw_reftra.f90:  $Revision$                  rrtmg_sw_spcvrt.f90:  NOT USED          
     rrtmg_sw_spcvmc.f90:  NOT USED                    rrtmgsw_setcoef.f90:  NOT USED          
     rrtmg_sw_taumol.f90:  $Revision$                  rrtmg_sw_vrtqdr.f90:  NOT USED          
                rrtatm.f:  NOT USED                             util_xxx.f:  NOT USED          
                 extra.f:  NOT USED                       rrtmg_sw_k_g.f90:  $Revision$        

