

 Wavenumbers:   820. - 50000. cm-1, ATM      1
 LEVEL PRESSURE   UPWARD FLUX   DIFDOWN FLUX  DIRDOWN FLUX  DOWNWARD FLUX   NET FLUX    HEATING RATE
          mb          W/m2          W/m2          W/m2        W/m2          W/m2       degree/day
  51    .06700      178.8650        0.0000      397.8738      397.8738     219.008749       0.00000
  50    .07753      178.8644        0.0011      397.8580      397.8591     218.994693      11.26659
  49    .09103      178.8636        0.0026      397.8425      397.8450     218.981416       8.29819
  48    0.1069      178.8627        0.0042      397.8240      397.8282     218.965505       8.46951
  47    0.1255      178.8618        0.0061      397.8011      397.8073     218.945519       9.06059
  46    0.1487      178.8605        0.0085      397.7697      397.7782     218.917630      10.16598
  45    0.1794      178.8589        0.0118      397.7232      397.7350     218.876066      11.41046
  44    0.2165      178.8571        0.0156      397.6637      397.6793     218.822219      12.24914
  43    0.2613      178.8550        0.0202      397.5872      397.6074     218.752401      13.16036
  42    0.3336      178.8517        0.0276      397.4508      397.4784     218.626722      14.65301
  41    0.4307      178.8476        0.0374      397.2603      397.2977     218.450043      15.36185
  40    0.5894      178.8415        0.0531      396.9365      396.9896     218.148035      16.06037
  39     1.339      178.8233        0.1233      395.4501      395.5734     216.750057      15.73869
  38     1.782      178.8197        0.1625      394.7604      394.9229     216.103250      12.31416
  37     2.292      178.8216        0.2072      394.0952      394.3025     215.480825      10.30898
  36     2.964      178.8135        0.3327      382.5917      382.9244     204.110892     142.72703
  35     3.853      178.8347        0.4325      380.6033      381.0358     202.201031      18.12493
  34     5.035      178.8807        0.5429      379.1112      379.6541     200.773380      10.19855
  33     6.613      178.9511        0.6797      377.7423      378.4220     199.470954       6.96277
  32     8.786      179.0419        0.8582      376.3613      377.2195     198.177620       5.02284
  31     11.80      179.1517        1.1092      374.8076      375.9168     196.765066       3.95470
  30     15.07      179.2457        1.3758      373.4174      374.7932     195.547433       3.14369
  29     18.79      179.3306        1.6741      372.0390      373.7131     194.382498       2.64127
  28     23.16      179.4051        2.0195      370.5969      372.6163     193.211250       2.26481
  27     28.12      179.4614        2.4111      369.1131      371.5242     192.062738       1.95239
  26     33.73      179.4820        2.8461      367.6394      370.4854     191.003384       1.59277
  25     40.54      179.4578        3.3676      366.0524      369.4200     189.962201       1.29171
  24     48.69      179.3819        3.9907      364.3163      368.3070     188.925105       1.07323
  23     57.69      179.2536        4.6684      362.5716      367.2401     187.986435       0.87986
  22     68.43      179.0530        5.4672      360.6637      366.1310     187.078001       0.71415
  21     81.20      178.7475        6.4084      358.6093      365.0178     186.270275       0.53373
  20     96.49      178.3238        7.5153      356.3685      363.8838     185.560025       0.39201
  19     114.6      177.8041        8.8072      353.5578      362.3650     184.560904       0.46652
  18     136.5      177.1763       10.3066      350.4696      360.7762     183.599828       0.36956
  17     162.9      176.4231       12.0488      347.0119      359.0608     182.637618       0.30756
  16     196.4      175.4245       14.2433      342.8254      357.0687     181.644245       0.25004
  15     218.7      174.7665       15.6454      340.2082      355.8535     181.087068       0.21154
  14     243.0      174.0560       17.1359      337.4485      354.5844     180.528343       0.19378
  13     269.0      173.2924       18.7133      334.5332      353.2465     179.954087       0.18629
  12     297.5      172.4759       20.3753      331.4104      351.7857     179.309781       0.19109
  11     328.5      171.6091       22.1232      327.9700      350.0932     178.484059       0.22451
  10     361.9      170.6945       23.9514      324.1012      348.0526     177.358059       0.28489
   9     398.1      169.7326       25.8597      319.6806      345.5403     175.807670       0.36121
   8     437.6      168.7276       27.8426      314.5843      342.4269     173.699287       0.45079
   7     480.5      167.6837       29.8958      308.6886      338.5844     170.900647       0.54964
   6     533.0      166.4512       32.3250      300.9003      333.2253     166.774164       0.66382
   5     589.8      165.1908       34.8288      292.3369      327.1658     161.974960       0.71236
   4     651.6      163.9202       37.3968      283.2737      320.6705     156.750243       0.71449
   3     718.7      162.6642       40.0184      273.8599      313.8783     151.214109       0.69574
   2     792.3      161.4637       42.6781      264.1572      306.8353     145.371602       0.67007
   1     891.5      160.1171       46.0435      251.7562      297.7997     137.682609       0.65430
   0    1013.0      159.0465       49.7707      237.6821      287.4528     128.406308       0.64410



 Wavenumbers:  2600. -  3250. cm-1, ATM      1
 LEVEL PRESSURE   UPWARD FLUX   DIFDOWN FLUX  DIRDOWN FLUX  DOWNWARD FLUX   NET FLUX    HEATING RATE
          mb          W/m2          W/m2          W/m2        W/m2          W/m2       degree/day
  51    .06700        0.4052        0.0000        3.5066        3.5066       3.101443       0.00000
  50    .07753        0.4052        0.0000        3.5066        3.5066       3.101435       0.00640
  49    .09103        0.4052        0.0000        3.5066        3.5066       3.101425       0.00627
  48    0.1069        0.4052        0.0000        3.5066        3.5066       3.101413       0.00613
  47    0.1255        0.4052        0.0000        3.5066        3.5066       3.101400       0.00599
  46    0.1487        0.4052        0.0000        3.5066        3.5066       3.101383       0.00607
  45    0.1794        0.4052        0.0000        3.5065        3.5065       3.101361       0.00624
  44    0.2165        0.4052        0.0000        3.5065        3.5065       3.101334       0.00611
  43    0.2613        0.4052        0.0000        3.5065        3.5065       3.101302       0.00598
  42    0.3336        0.4052        0.0000        3.5064        3.5064       3.101249       0.00615
  41    0.4307        0.4052        0.0000        3.5064        3.5064       3.101178       0.00617
  40    0.5894        0.4052        0.0000        3.5062        3.5062       3.101059       0.00633
  39     1.339        0.4052        0.0000        3.5055        3.5055       3.100361       0.00787
  38     1.782        0.4052        0.0000        3.5050        3.5050       3.099830       0.01010
  37     2.292        0.4052        0.0000        3.5043        3.5043       3.099137       0.01147
  36     2.964        0.4052        0.0000        3.5033        3.5033       3.098147       0.01243
  35     3.853        0.4052        0.0000        3.5019        3.5019       3.096770       0.01307
  34     5.035        0.4052        0.0000        3.5001        3.5001       3.094906       0.01331
  33     6.613        0.4052        0.0000        3.4977        3.4977       3.092493       0.01290
  32     8.786        0.4052        0.0000        3.4947        3.4947       3.089514       0.01157
  31     11.80        0.4052        0.0000        3.4910        3.4910       3.085871       0.01020
  30     15.07        0.4052        0.0000        3.4878        3.4878       3.082642       0.00834
  29     18.79        0.4052        0.0000        3.4847        3.4847       3.079563       0.00698
  28     23.16        0.4052        0.0000        3.4815        3.4815       3.076321       0.00627
  27     28.12        0.4052        0.0000        3.4778        3.4779       3.072676       0.00620
  26     33.73        0.4052        0.0000        3.4733        3.4734       3.068180       0.00676
  25     40.54        0.4052        0.0000        3.4670        3.4670       3.061818       0.00789
  24     48.69        0.4052        0.0000        3.4580        3.4580       3.052860       0.00927
  23     57.69        0.4052        0.0000        3.4469        3.4469       3.041717       0.01044
  22     68.43        0.4052        0.0000        3.4324        3.4325       3.027280       0.01135
  21     81.20        0.4052        0.0000        3.4145        3.4146       3.009347       0.01185
  20     96.49        0.4052        0.0000        3.3932        3.3932       2.987993       0.01179
  19     114.6        0.4053        0.0000        3.3472        3.3473       2.941944       0.02150
  18     136.5        0.4054        0.0001        3.3061        3.3061       2.900680       0.01587
  17     162.9        0.4056        0.0001        3.2693        3.2694       2.863800       0.01179
  16     196.4        0.4058        0.0001        3.2330        3.2331       2.827259       0.00920
  15     218.7        0.4060        0.0001        3.2129        3.2130       2.807035       0.00768
  14     243.0        0.4061        0.0001        3.1929        3.1930       2.786840       0.00700
  13     269.0        0.4063        0.0001        3.1719        3.1720       2.765682       0.00686
  12     297.5        0.4066        0.0001        3.1480        3.1481       2.741516       0.00717
  11     328.5        0.4070        0.0001        3.1178        3.1179       2.710972       0.00830
  10     361.9        0.4075        0.0001        3.0782        3.0783       2.670818       0.01016
   9     398.1        0.4082        0.0001        3.0253        3.0254       2.617279       0.01247
   8     437.6        0.4091        0.0001        2.9554        2.9556       2.546476       0.01514
   7     480.5        0.4105        0.0002        2.8645        2.8647       2.454210       0.01812
   6     533.0        0.4127        0.0002        2.7318        2.7320       2.319271       0.02171
   5     589.8        0.4159        0.0002        2.5783        2.5785       2.162550       0.02326
   4     651.6        0.4206        0.0002        2.4163        2.4165       1.995930       0.02279
   3     718.7        0.4272        0.0002        2.2496        2.2498       1.822695       0.02177
   2     792.3        0.4367        0.0002        2.0749        2.0751       1.638401       0.02114
   1     891.5        0.4546        0.0002        1.8485        1.8487       1.394178       0.02078
   0    1013.0        0.4876        0.0002        1.5984        1.5986       1.111017       0.01966



 Wavenumbers:  3250. -  4000. cm-1, ATM      1
 LEVEL PRESSURE   UPWARD FLUX   DIFDOWN FLUX  DIRDOWN FLUX  DOWNWARD FLUX   NET FLUX    HEATING RATE
          mb          W/m2          W/m2          W/m2        W/m2          W/m2       degree/day
  51    .06700        0.0069        0.0000        5.9117        5.9117       5.904761       0.00000
  50    .07753        0.0069        0.0000        5.9075        5.9075       5.900599       3.33612
  49    .09103        0.0069        0.0000        5.9052        5.9052       5.898310       1.43070
  48    0.1069        0.0069        0.0000        5.9035        5.9035       5.896597       0.91190
  47    0.1255        0.0069        0.0000        5.9019        5.9019       5.894977       0.73438
  46    0.1487        0.0069        0.0000        5.9001        5.9001       5.893242       0.63248
  45    0.1794        0.0069        0.0000        5.8982        5.8982       5.891265       0.54263
  44    0.2165        0.0069        0.0000        5.8962        5.8962       5.889317       0.44317
  43    0.2613        0.0069        0.0000        5.8943        5.8943       5.887368       0.36742
  42    0.3336        0.0069        0.0000        5.8915        5.8915       5.884612       0.32131
  41    0.4307        0.0069        0.0000        5.8881        5.8881       5.881238       0.29332
  40    0.5894        0.0069        0.0000        5.8830        5.8830       5.876132       0.27154
  39     1.339        0.0069        0.0000        5.8641        5.8641       5.857212       0.21300
  38     1.782        0.0069        0.0000        5.8561        5.8561       5.849222       0.15212
  37     2.292        0.0069        0.0000        5.8483        5.8483       5.841435       0.12897
  36     2.964        0.0069        0.0000        3.5047        3.5047       3.497744      29.42041
  35     3.853        0.0069        0.0000        3.2228        3.2228       3.215869       2.67504
  34     5.035        0.0069        0.0000        3.0889        3.0889       3.082004       0.95627
  33     6.613        0.0069        0.0000        3.0100        3.0100       3.003073       0.42197
  32     8.786        0.0069        0.0000        2.9577        2.9577       2.950728       0.20329
  31     11.80        0.0069        0.0000        2.9166        2.9166       2.909693       0.11489
  30     15.07        0.0069        0.0000        2.8886        2.8886       2.881638       0.07243
  29     18.79        0.0069        0.0000        2.8661        2.8661       2.859190       0.05090
  28     23.16        0.0069        0.0000        2.8452        2.8453       2.838313       0.04037
  27     28.12        0.0069        0.0000        2.8260        2.8260       2.819111       0.03264
  26     33.73        0.0069        0.0000        2.8082        2.8082       2.801242       0.02687
  25     40.54        0.0069        0.0000        2.7893        2.7893       2.782362       0.02342
  24     48.69        0.0069        0.0000        2.7676        2.7676       2.760682       0.02244
  23     57.69        0.0069        0.0000        2.7443        2.7444       2.737435       0.02179
  22     68.43        0.0069        0.0000        2.7173        2.7173       2.710415       0.02124
  21     81.20        0.0069        0.0001        2.6860        2.6861       2.679162       0.02065
  20     96.49        0.0069        0.0001        2.6500        2.6501       2.643161       0.01987
  19     114.6        0.0069        0.0001        2.6089        2.6090       2.602111       0.01917
  18     136.5        0.0069        0.0001        2.5630        2.5631       2.556255       0.01763
  17     162.9        0.0069        0.0001        2.5124        2.5125       2.505608       0.01619
  16     196.4        0.0069        0.0001        2.4524        2.4525       2.445619       0.01510
  15     218.7        0.0068        0.0001        2.4160        2.4161       2.409292       0.01379
  14     243.0        0.0068        0.0002        2.3790        2.3792       2.372334       0.01282
  13     269.0        0.0068        0.0002        2.3393        2.3394       2.332598       0.01289
  12     297.5        0.0068        0.0002        2.2890        2.2892       2.282355       0.01490
  11     328.5        0.0068        0.0002        2.2159        2.2161       2.209253       0.01988
  10     361.9        0.0068        0.0002        2.1095        2.1097       2.102928       0.02690
   9     398.1        0.0068        0.0002        1.9668        1.9670       1.960181       0.03326
   8     437.6        0.0068        0.0002        1.7899        1.7902       1.783308       0.03782
   7     480.5        0.0069        0.0002        1.5849        1.5852       1.578250       0.04027
   6     533.0        0.0071        0.0002        1.3265        1.3267       1.319636       0.04160
   5     589.8        0.0074        0.0002        1.0730        1.0732       1.065803       0.03768
   4     651.6        0.0079        0.0002        0.8316        0.8318       0.823934       0.03308
   3     718.7        0.0087        0.0001        0.6064        0.6066       0.597856       0.02841
   2     792.3        0.0102        0.0001        0.4110        0.4111       0.400825       0.02260
   1     891.5        0.0141        0.0001        0.2234        0.2235       0.209401       0.01629
   0    1013.0        0.0251        0.0000        0.0822        0.0822       0.057147       0.01057



 Wavenumbers:  4000. -  4650. cm-1, ATM      1
 LEVEL PRESSURE   UPWARD FLUX   DIFDOWN FLUX  DIRDOWN FLUX  DOWNWARD FLUX   NET FLUX    HEATING RATE
          mb          W/m2          W/m2          W/m2        W/m2          W/m2       degree/day
  51    .06700        1.3847        0.0000        6.9421        6.9421       5.557419       0.00000
  50    .07753        1.3847        0.0000        6.9421        6.9421       5.557418       0.00081
  49    .09103        1.3847        0.0000        6.9421        6.9421       5.557417       0.00079
  48    0.1069        1.3847        0.0000        6.9421        6.9421       5.557415       0.00077
  47    0.1255        1.3847        0.0000        6.9421        6.9421       5.557414       0.00076
  46    0.1487        1.3847        0.0000        6.9421        6.9421       5.557412       0.00077
  45    0.1794        1.3847        0.0000        6.9421        6.9421       5.557409       0.00079
  44    0.2165        1.3847        0.0000        6.9421        6.9421       5.557405       0.00077
  43    0.2613        1.3847        0.0000        6.9421        6.9421       5.557401       0.00076
  42    0.3336        1.3847        0.0000        6.9420        6.9420       5.557395       0.00078
  41    0.4307        1.3847        0.0000        6.9420        6.9420       5.557386       0.00078
  40    0.5894        1.3846        0.0000        6.9420        6.9420       5.557371       0.00081
  39     1.339        1.3846        0.0000        6.9419        6.9419       5.557280       0.00102
  38     1.782        1.3846        0.0000        6.9418        6.9419       5.557210       0.00134
  37     2.292        1.3846        0.0000        6.9418        6.9418       5.557115       0.00157
  36     2.964        1.3846        0.0000        6.9416        6.9416       5.556973       0.00178
  35     3.853        1.3846        0.0000        6.9414        6.9414       5.556763       0.00199
  34     5.035        1.3846        0.0000        6.9411        6.9411       5.556454       0.00221
  33     6.613        1.3846        0.0000        6.9406        6.9406       5.555998       0.00243
  32     8.786        1.3846        0.0000        6.9399        6.9399       5.555327       0.00261
  31     11.80        1.3846        0.0001        6.9388        6.9389       5.554275       0.00295
  30     15.07        1.3846        0.0001        6.9376        6.9376       5.553043       0.00318
  29     18.79        1.3846        0.0001        6.9361        6.9362       5.551559       0.00337
  28     23.16        1.3846        0.0001        6.9342        6.9343       5.549722       0.00355
  27     28.12        1.3846        0.0001        6.9320        6.9321       5.547507       0.00377
  26     33.73        1.3846        0.0001        6.9292        6.9293       5.544788       0.00409
  25     40.54        1.3845        0.0002        6.9255        6.9257       5.541119       0.00455
  24     48.69        1.3845        0.0002        6.9206        6.9208       5.536260       0.00503
  23     57.69        1.3845        0.0002        6.9148        6.9151       5.530534       0.00537
  22     68.43        1.3845        0.0003        6.9077        6.9079       5.523410       0.00560
  21     81.20        1.3845        0.0003        6.8989        6.8992       5.514695       0.00576
  20     96.49        1.3846        0.0004        6.8883        6.8887       5.504155       0.00582
  19     114.6        1.3847        0.0004        6.8624        6.8628       5.478100       0.01217
  18     136.5        1.3849        0.0005        6.8374        6.8380       5.453023       0.00964
  17     162.9        1.3852        0.0006        6.8106        6.8112       5.425958       0.00865
  16     196.4        1.3857        0.0007        6.7776        6.7783       5.392657       0.00838
  15     218.7        1.3860        0.0008        6.7566        6.7574       5.371421       0.00806
  14     243.0        1.3863        0.0009        6.7341        6.7350       5.348672       0.00789
  13     269.0        1.3868        0.0010        6.7097        6.7107       5.323905       0.00803
  12     297.5        1.3873        0.0011        6.6819        6.6830       5.295682       0.00837
  11     328.5        1.3881        0.0012        6.6482        6.6494       5.261379       0.00933
  10     361.9        1.3891        0.0013        6.6060        6.6073       5.218234       0.01092
   9     398.1        1.3905        0.0015        6.5520        6.5534       5.162951       0.01288
   8     437.6        1.3924        0.0016        6.4821        6.4837       5.091301       0.01532
   7     480.5        1.3949        0.0017        6.3932        6.3949       5.000001       0.01793
   6     533.0        1.3987        0.0019        6.2680        6.2699       4.871234       0.02071
   5     589.8        1.4037        0.0021        6.1267        6.1287       4.725021       0.02170
   4     651.6        1.4105        0.0022        5.9701        5.9723       4.561815       0.02232
   3     718.7        1.4199        0.0024        5.7883        5.7907       4.370862       0.02400
   2     792.3        1.4330        0.0026        5.5730        5.5756       4.142604       0.02618
   1     891.5        1.4573        0.0028        5.2713        5.2740       3.816778       0.02773
   0    1013.0        1.5027        0.0030        4.9243        4.9273       3.424636       0.02723



 Wavenumbers:  4650. -  5150. cm-1, ATM      1
 LEVEL PRESSURE   UPWARD FLUX   DIFDOWN FLUX  DIRDOWN FLUX  DOWNWARD FLUX   NET FLUX    HEATING RATE
          mb          W/m2          W/m2          W/m2        W/m2          W/m2       degree/day
  51    .06700        0.9425        0.0000        6.5710        6.5710       5.628462       0.00000
  50    .07753        0.9425        0.0000        6.5708        6.5708       5.628230       0.18628
  49    .09103        0.9425        0.0000        6.5705        6.5705       5.627940       0.18108
  48    0.1069        0.9425        0.0000        6.5701        6.5701       5.627610       0.17559
  47    0.1255        0.9425        0.0000        6.5698        6.5698       5.627235       0.16998
  46    0.1487        0.9425        0.0000        6.5693        6.5693       5.626768       0.17026
  45    0.1794        0.9425        0.0000        6.5687        6.5687       5.626141       0.17227
  44    0.2165        0.9425        0.0000        6.5679        6.5679       5.625413       0.16553
  43    0.2613        0.9425        0.0000        6.5671        6.5671       5.624572       0.15855
  42    0.3336        0.9425        0.0000        6.5658        6.5658       5.623227       0.15675
  41    0.4307        0.9425        0.0000        6.5640        6.5641       5.621524       0.14808
  40    0.5894        0.9425        0.0000        6.5615        6.5615       5.618937       0.13757
  39     1.339        0.9425        0.0000        6.5518        6.5518       5.609269       0.10885
  38     1.782        0.9425        0.0000        6.5476        6.5476       5.605080       0.07975
  37     2.292        0.9425        0.0000        6.5437        6.5437       5.601190       0.06443
  36     2.964        0.9425        0.0000        6.5397        6.5397       5.597198       0.05012
  35     3.853        0.9425        0.0000        6.5357        6.5357       5.593188       0.03805
  34     5.035        0.9425        0.0000        6.5316        6.5316       5.589109       0.02914
  33     6.613        0.9425        0.0000        6.5271        6.5271       5.584647       0.02386
  32     8.786        0.9425        0.0001        6.5215        6.5216       5.579104       0.02153
  31     11.80        0.9425        0.0001        6.5134        6.5134       5.570976       0.02276
  30     15.07        0.9425        0.0001        6.5039        6.5040       5.561562       0.02430
  29     18.79        0.9425        0.0001        6.4923        6.4924       5.549998       0.02622
  28     23.16        0.9424        0.0001        6.4776        6.4778       5.535346       0.02833
  27     28.12        0.9424        0.0002        6.4596        6.4598       5.517344       0.03060
  26     33.73        0.9424        0.0002        6.4381        6.4383       5.495918       0.03221
  25     40.54        0.9424        0.0002        6.4110        6.4113       5.468840       0.03359
  24     48.69        0.9424        0.0003        6.3774        6.3777       5.435281       0.03473
  23     57.69        0.9424        0.0003        6.3404        6.3407       5.398263       0.03470
  22     68.43        0.9425        0.0004        6.2972        6.2976       5.355132       0.03391
  21     81.20        0.9425        0.0005        6.2484        6.2488       5.306324       0.03225
  20     96.49        0.9426        0.0005        6.1949        6.1955       5.252884       0.02950
  19     114.6        0.9428        0.0006        6.1325        6.1332       5.190413       0.02917
  18     136.5        0.9430        0.0008        6.0685        6.0693       5.126268       0.02467
  17     162.9        0.9434        0.0009        6.0011        6.0020       5.058662       0.02161
  16     196.4        0.9439        0.0011        5.9208        5.9219       4.977986       0.02031
  15     218.7        0.9443        0.0012        5.8696        5.8708       4.926470       0.01956
  14     243.0        0.9448        0.0013        5.8139        5.8152       4.870394       0.01945
  13     269.0        0.9453        0.0014        5.7527        5.7541       4.808783       0.01999
  12     297.5        0.9460        0.0016        5.6841        5.6856       4.739598       0.02052
  11     328.5        0.9469        0.0017        5.6058        5.6075       4.660529       0.02150
  10     361.9        0.9481        0.0018        5.5152        5.5170       4.568887       0.02319
   9     398.1        0.9498        0.0020        5.4094        5.4114       4.461596       0.02500
   8     437.6        0.9520        0.0022        5.2888        5.2910       4.339020       0.02621
   7     480.5        0.9549        0.0023        5.1509        5.1532       4.198337       0.02763
   6     533.0        0.9593        0.0025        4.9708        4.9733       4.014012       0.02965
   5     589.8        0.9654        0.0027        4.7715        4.7741       3.808790       0.03046
   4     651.6        0.9734        0.0029        4.5591        4.5620       3.588522       0.03012
   3     718.7        0.9844        0.0030        4.3375        4.3406       3.356220       0.02919
   2     792.3        0.9992        0.0032        4.1103        4.1135       3.114355       0.02774
   1     891.5        1.0254        0.0034        3.8224        3.8258       2.800392       0.02672
   0    1013.0        1.0699        0.0036        3.5049        3.5085       2.438604       0.02512



 Wavenumbers:  5150. -  6150. cm-1, ATM      1
 LEVEL PRESSURE   UPWARD FLUX   DIFDOWN FLUX  DIRDOWN FLUX  DOWNWARD FLUX   NET FLUX    HEATING RATE
          mb          W/m2          W/m2          W/m2        W/m2          W/m2       degree/day
  51    .06700        2.4373        0.0000       16.4735       16.4735      14.036256       0.00000
  50    .07753        2.4373        0.0000       16.4735       16.4735      14.036256       0.00019
  49    .09103        2.4373        0.0000       16.4735       16.4735      14.036255       0.00019
  48    0.1069        2.4373        0.0000       16.4735       16.4735      14.036255       0.00018
  47    0.1255        2.4373        0.0000       16.4735       16.4735      14.036255       0.00018
  46    0.1487        2.4372        0.0000       16.4735       16.4735      14.036254       0.00018
  45    0.1794        2.4372        0.0000       16.4735       16.4735      14.036253       0.00019
  44    0.2165        2.4372        0.0000       16.4735       16.4735      14.036253       0.00018
  43    0.2613        2.4372        0.0000       16.4735       16.4735      14.036252       0.00018
  42    0.3336        2.4372        0.0000       16.4735       16.4735      14.036250       0.00018
  41    0.4307        2.4372        0.0000       16.4735       16.4735      14.036248       0.00019
  40    0.5894        2.4372        0.0000       16.4735       16.4735      14.036244       0.00019
  39     1.339        2.4372        0.0000       16.4734       16.4734      14.036223       0.00024
  38     1.782        2.4372        0.0000       16.4734       16.4734      14.036206       0.00032
  37     2.292        2.4372        0.0001       16.4733       16.4734      14.036184       0.00037
  36     2.964        2.4382        0.0001       14.4533       14.4534      12.015136      25.37025
  35     3.853        2.4388        0.0001       14.1445       14.1446      11.705826       2.93541
  34     5.035        2.4391        0.0001       13.9934       13.9935      11.554464       1.08127
  33     6.613        2.4393        0.0002       13.9049       13.9051      11.465835       0.47381
  32     8.786        2.4394        0.0002       13.8471       13.8474      11.407936       0.22486
  31     11.80        2.4395        0.0003       13.8026       13.8029      11.363349       0.12483
  30     15.07        2.4396        0.0004       13.7727       13.7731      11.333486       0.07710
  29     18.79        2.4396        0.0005       13.7493       13.7498      11.310160       0.05289
  28     23.16        2.4397        0.0005       13.7282       13.7287      11.289042       0.04084
  27     28.12        2.4397        0.0007       13.7093       13.7099      11.270268       0.03191
  26     33.73        2.4397        0.0008       13.6923       13.6931      11.253414       0.02534
  25     40.54        2.4397        0.0009       13.6749       13.6759      11.236160       0.02140
  24     48.69        2.4397        0.0011       13.6549       13.6561      11.216322       0.02053
  23     57.69        2.4398        0.0013       13.6331       13.6344      11.194636       0.02033
  22     68.43        2.4399        0.0015       13.6074       13.6089      11.169058       0.02011
  21     81.20        2.4400        0.0018       13.5772       13.5791      11.139111       0.01979
  20     96.49        2.4401        0.0022       13.5424       13.5445      11.104455       0.01913
  19     114.6        2.4402        0.0026       13.5026       13.5051      11.064883       0.01848
  18     136.5        2.4404        0.0030       13.4583       13.4613      11.020890       0.01692
  17     162.9        2.4406        0.0036       13.4106       13.4142      10.973571       0.01512
  16     196.4        2.4408        0.0043       13.3565       13.3608      10.920062       0.01347
  15     218.7        2.4408        0.0048       13.3254       13.3302      10.889357       0.01166
  14     243.0        2.4409        0.0053       13.2931       13.2984      10.857569       0.01103
  13     269.0        2.4409        0.0059       13.2573       13.2631      10.822222       0.01147
  12     297.5        2.4410        0.0065       13.2092       13.2157      10.774697       0.01410
  11     328.5        2.4412        0.0071       13.1325       13.1396      10.698445       0.02073
  10     361.9        2.4414        0.0078       13.0049       13.0127      10.571261       0.03218
   9     398.1        2.4419        0.0085       12.8023       12.8107      10.368853       0.04716
   8     437.6        2.4426        0.0091       12.5005       12.5096      10.067044       0.06453
   7     480.5        2.4438        0.0098       12.0825       12.0923       9.648510       0.08220
   6     533.0        2.4460        0.0104       11.4774       11.4879       9.041812       0.09760
   5     589.8        2.4497        0.0110       10.8409       10.8519       8.402240       0.09493
   4     651.6        2.4556        0.0116       10.2535       10.2651       7.809529       0.08105
   3     718.7        2.4649        0.0122        9.7537        9.7659       7.301012       0.06391
   2     792.3        2.4797        0.0128        9.3397        9.3525       6.872891       0.04910
   1     891.5        2.5102        0.0138        8.9037        8.9175       6.407294       0.03962
   0    1013.0        2.5730        0.0150        8.4237        8.4387       5.865710       0.03760



 Wavenumbers:  6150. -  7700. cm-1, ATM      1
 LEVEL PRESSURE   UPWARD FLUX   DIFDOWN FLUX  DIRDOWN FLUX  DOWNWARD FLUX   NET FLUX    HEATING RATE
          mb          W/m2          W/m2          W/m2        W/m2          W/m2       degree/day
  51    .06700        3.9276        0.0000       30.4684       30.4684      26.540746       0.00000
  50    .07753        3.9276        0.0000       30.4684       30.4684      26.540729       0.01303
  49    .09103        3.9276        0.0000       30.4683       30.4683      26.540709       0.01277
  48    0.1069        3.9276        0.0000       30.4683       30.4683      26.540685       0.01250
  47    0.1255        3.9276        0.0000       30.4683       30.4683      26.540658       0.01223
  46    0.1487        3.9276        0.0000       30.4682       30.4683      26.540624       0.01241
  45    0.1794        3.9276        0.0000       30.4682       30.4682      26.540578       0.01276
  44    0.2165        3.9276        0.0000       30.4681       30.4681      26.540523       0.01252
  43    0.2613        3.9276        0.0000       30.4681       30.4681      26.540458       0.01228
  42    0.3336        3.9276        0.0000       30.4679       30.4680      26.540350       0.01256
  41    0.4307        3.9276        0.0000       30.4678       30.4678      26.540207       0.01241
  40    0.5894        3.9276        0.0001       30.4675       30.4676      26.539974       0.01239
  39     1.339        3.9275        0.0001       30.4662       30.4664      26.538875       0.01238
  38     1.782        3.9275        0.0002       30.4655       30.4657      26.538230       0.01227
  37     2.292        3.9274        0.0002       30.4647       30.4649      26.537485       0.01234
  36     2.964        3.9285        0.0004       27.1402       27.1405      23.212019      41.74465
  35     3.853        3.9291        0.0005       26.6776       26.6781      22.749051       4.39365
  34     5.035        3.9294        0.0006       26.4496       26.4502      22.520823       1.63037
  33     6.613        3.9295        0.0008       26.3176       26.3184      22.388915       0.70518
  32     8.786        3.9295        0.0010       26.2328       26.2338      22.304306       0.32859
  31     11.80        3.9294        0.0013       26.1685       26.1698      22.240417       0.17887
  30     15.07        3.9292        0.0016       26.1261       26.1277      22.198477       0.10828
  29     18.79        3.9290        0.0019       26.0933       26.0953      22.166328       0.07289
  28     23.16        3.9287        0.0024       26.0640       26.0663      22.137690       0.05538
  27     28.12        3.9283        0.0028       26.0382       26.0410      22.112703       0.04247
  26     33.73        3.9279        0.0034       26.0154       26.0188      22.090868       0.03283
  25     40.54        3.9274        0.0040       25.9927       25.9967      22.069293       0.02677
  24     48.69        3.9268        0.0048       25.9672       25.9720      22.045216       0.02492
  23     57.69        3.9261        0.0056       25.9399       25.9455      22.019456       0.02415
  22     68.43        3.9253        0.0066       25.9081       25.9148      21.989532       0.02352
  21     81.20        3.9243        0.0079       25.8712       25.8791      21.954760       0.02298
  20     96.49        3.9231        0.0093       25.8283       25.8376      21.914426       0.02226
  19     114.6        3.9218        0.0110       25.7779       25.7889      21.867183       0.02206
  18     136.5        3.9201        0.0130       25.7199       25.7329      21.812778       0.02092
  17     162.9        3.9182        0.0155       25.6527       25.6682      21.749976       0.02007
  16     196.4        3.9157        0.0186       25.5684       25.5870      21.671265       0.01981
  15     218.7        3.9140        0.0206       25.5144       25.5351      21.621007       0.01908
  14     243.0        3.9123        0.0229       25.4568       25.4797      21.567450       0.01858
  13     269.0        3.9103        0.0253       25.3918       25.4171      21.506812       0.01967
  12     297.5        3.9083        0.0279       25.3046       25.3325      21.424173       0.02451
  11     328.5        3.9062        0.0307       25.1649       25.1956      21.289364       0.03665
  10     361.9        3.9043        0.0336       24.9328       24.9664      21.062113       0.05750
   9     398.1        3.9026        0.0366       24.5635       24.6001      20.697459       0.08496
   8     437.6        3.9015        0.0395       24.0079       24.0474      20.145901       0.11793
   7     480.5        3.9016        0.0423       23.2225       23.2648      19.363258       0.15371
   6     533.0        3.9040        0.0452       22.0308       22.0760      18.171994       0.19164
   5     589.8        3.9103        0.0476       20.6778       20.7254      16.815044       0.20142
   4     651.6        3.9226        0.0497       19.2986       19.3483      15.425730       0.18999
   3     718.7        3.9440        0.0516       17.9653       18.0168      14.072778       0.17003
   2     792.3        3.9801        0.0533       16.6953       16.7485      12.768405       0.14960
   1     891.5        4.0578        0.0553       15.2466       15.3019      11.244065       0.12971
   0    1013.0        4.2245        0.0576       13.8036       13.8612       9.636626       0.11161



 Wavenumbers:  7700. -  8050. cm-1, ATM      1
 LEVEL PRESSURE   UPWARD FLUX   DIFDOWN FLUX  DIRDOWN FLUX  DOWNWARD FLUX   NET FLUX    HEATING RATE
          mb          W/m2          W/m2          W/m2        W/m2          W/m2       degree/day
  51    .06700        1.7232        0.0000        7.2006        7.2006       5.477409       0.00000
  50    .07753        1.7232        0.0000        7.2006        7.2006       5.477390       0.01513
  49    .09103        1.7232        0.0000        7.2005        7.2005       5.477366       0.01482
  48    0.1069        1.7232        0.0000        7.2005        7.2005       5.477339       0.01451
  47    0.1255        1.7232        0.0000        7.2005        7.2005       5.477307       0.01420
  46    0.1487        1.7232        0.0000        7.2004        7.2005       5.477268       0.01441
  45    0.1794        1.7232        0.0000        7.2004        7.2004       5.477214       0.01483
  44    0.2165        1.7232        0.0000        7.2003        7.2003       5.477150       0.01454
  43    0.2613        1.7232        0.0000        7.2003        7.2003       5.477074       0.01427
  42    0.3336        1.7232        0.0000        7.2001        7.2001       5.476949       0.01460
  41    0.4307        1.7232        0.0000        7.2000        7.2000       5.476783       0.01444
  40    0.5894        1.7232        0.0000        7.1997        7.1997       5.476512       0.01442
  39     1.339        1.7233        0.0001        7.1984        7.1985       5.475229       0.01444
  38     1.782        1.7233        0.0001        7.1977        7.1978       5.474476       0.01434
  37     2.292        1.7233        0.0001        7.1968        7.1969       5.473604       0.01443
  36     2.964        1.7233        0.0002        7.1956        7.1958       5.472460       0.01436
  35     3.853        1.7234        0.0002        7.1941        7.1943       5.470950       0.01433
  34     5.035        1.7235        0.0003        7.1921        7.1924       5.468945       0.01432
  33     6.613        1.7236        0.0003        7.1895        7.1898       5.466270       0.01430
  32     8.786        1.7237        0.0004        7.1859        7.1864       5.462670       0.01398
  31     11.80        1.7239        0.0006        7.1809        7.1814       5.457531       0.01439
  30     15.07        1.7241        0.0007        7.1754        7.1762       5.452030       0.01420
  29     18.79        1.7244        0.0009        7.1693        7.1702       5.445835       0.01404
  28     23.16        1.7247        0.0011        7.1622        7.1633       5.438628       0.01394
  27     28.12        1.7250        0.0013        7.1541        7.1554       5.430422       0.01395
  26     33.73        1.7254        0.0016        7.1451        7.1467       5.421287       0.01373
  25     40.54        1.7258        0.0019        7.1343        7.1361       5.410317       0.01361
  24     48.69        1.7264        0.0022        7.1213        7.1236       5.397191       0.01358
  23     57.69        1.7270        0.0026        7.1073        7.1099       5.382894       0.01340
  22     68.43        1.7277        0.0031        7.0907        7.0938       5.366034       0.01325
  21     81.20        1.7286        0.0036        7.0711        7.0748       5.346179       0.01312
  20     96.49        1.7297        0.0043        7.0482        7.0525       5.322844       0.01288
  19     114.6        1.7310        0.0051        7.0213        7.0264       5.295453       0.01279
  18     136.5        1.7325        0.0060        6.9901        6.9961       5.263608       0.01224
  17     162.9        1.7344        0.0071        6.9538        6.9609       5.226509       0.01186
  16     196.4        1.7369        0.0086        6.9079        6.9165       5.179585       0.01181
  15     218.7        1.7386        0.0095        6.8786        6.8881       5.149485       0.01143
  14     243.0        1.7404        0.0105        6.8473        6.8578       5.117338       0.01115
  13     269.0        1.7425        0.0116        6.8140        6.8256       5.083122       0.01110
  12     297.5        1.7447        0.0128        6.7787        6.7915       5.046747       0.01079
  11     328.5        1.7472        0.0140        6.7413        6.7553       5.008087       0.01051
  10     361.9        1.7500        0.0154        6.7017        6.7171       4.967100       0.01037
   9     398.1        1.7531        0.0169        6.6598        6.6767       4.923572       0.01014
   8     437.6        1.7565        0.0184        6.6154        6.6338       4.877250       0.00990
   7     480.5        1.7604        0.0201        6.5681        6.5882       4.827786       0.00971
   6     533.0        1.7655        0.0221        6.5100        6.5321       4.766636       0.00984
   5     589.8        1.7714        0.0243        6.4471        6.4715       4.700060       0.00988
   4     651.6        1.7782        0.0266        6.3790        6.4056       4.627410       0.00994
   3     718.7        1.7862        0.0291        6.3047        6.3339       4.547619       0.01003
   2     792.3        1.7957        0.0318        6.2233        6.2550       4.459341       0.01012
   1     891.5        1.8099        0.0353        6.1099        6.1451       4.335215       0.01056
   0    1013.0        1.8297        0.0394        5.9668        6.0061       4.176401       0.01103



 Wavenumbers:  8050. - 12850. cm-1, ATM      1
 LEVEL PRESSURE   UPWARD FLUX   DIFDOWN FLUX  DIRDOWN FLUX  DOWNWARD FLUX   NET FLUX    HEATING RATE
          mb          W/m2          W/m2          W/m2        W/m2          W/m2       degree/day
  51    .06700       24.6300        0.0000      100.8135      100.8135      76.183529       0.00000
  50    .07753       24.6300        0.0000      100.8135      100.8135      76.183529       0.00000
  49    .09103       24.6299        0.0001      100.8134      100.8135      76.183529       0.00000
  48    0.1069       24.6299        0.0001      100.8134      100.8134      76.183529       0.00000
  47    0.1255       24.6299        0.0001      100.8133      100.8134      76.183529      -0.00000
  46    0.1487       24.6298        0.0002      100.8132      100.8134      76.183529       0.00000
  45    0.1794       24.6298        0.0002      100.8131      100.8133      76.183529      -0.00000
  44    0.2165       24.6297        0.0003      100.8129      100.8133      76.183529       0.00000
  43    0.2613       24.6296        0.0004      100.8127      100.8132      76.183529       0.00000
  42    0.3336       24.6295        0.0006      100.8125      100.8130      76.183529      -0.00000
  41    0.4307       24.6293        0.0008      100.8121      100.8129      76.183529       0.00000
  40    0.5894       24.6291        0.0011      100.8115      100.8126      76.183529      -0.00000
  39     1.339       24.6278        0.0028      100.8085      100.8113      76.183529      -0.00000
  38     1.782       24.6270        0.0038      100.8068      100.8105      76.183529       0.00000
  37     2.292       24.6261        0.0049      100.8047      100.8096      76.183529      -0.00000
  36     2.964       24.6236        0.0080      100.7992      100.8072      76.183529       0.00000
  35     3.853       24.6216        0.0105      100.7946      100.8051      76.183529       0.00000
  34     5.035       24.6193        0.0134      100.7894      100.8028      76.183529       0.00000
  33     6.613       24.6164        0.0170      100.7829      100.8000      76.183529      -0.00000
  32     8.786       24.6127        0.0218      100.7744      100.7962      76.183529       0.00000
  31     11.80       24.6073        0.0285      100.7623      100.7908      76.183529      -0.00000
  30     15.07       24.6016        0.0357      100.7494      100.7851      76.183529       0.00000
  29     18.79       24.5951        0.0438      100.7348      100.7786      76.183529      -0.00000
  28     23.16       24.5875        0.0533      100.7178      100.7711      76.183529       0.00000
  27     28.12       24.5789        0.0641      100.6983      100.7624      76.183529      -0.00000
  26     33.73       24.5692        0.0763      100.6764      100.7527      76.183529       0.00000
  25     40.54       24.5575        0.0910      100.6500      100.7410      76.183529      -0.00000
  24     48.69       24.5433        0.1087      100.6181      100.7269      76.183529       0.00000
  23     57.69       24.5278        0.1283      100.5830      100.7113      76.183529       0.00000
  22     68.43       24.5092        0.1515      100.5412      100.6927      76.183529       0.00000
  21     81.20       24.4870        0.1793      100.4913      100.6706      76.183529       0.00000
  20     96.49       24.4606        0.2124      100.4317      100.6441      76.183529      -0.00000
  19     114.6       24.4319        0.2516      100.1231      100.3747      75.942818       0.11240
  18     136.5       24.3972        0.2981       99.8561      100.1543      75.757095       0.07142
  17     162.9       24.3548        0.3535       99.6059       99.9594      75.604592       0.04875
  16     196.4       24.2987        0.4256       99.3360       99.7615      75.462804       0.03569
  15     218.7       24.2614        0.4730       99.1783       99.6512      75.389868       0.02769
  14     243.0       24.2206        0.5245       99.0172       99.5417      75.321123       0.02384
  13     269.0       24.1763        0.5805       98.8460       99.4265      75.250188       0.02301
  12     297.5       24.1285        0.6410       98.6470       99.2881      75.159572       0.02688
  11     328.5       24.0772        0.7064       98.3894       99.0958      75.018606       0.03833
  10     361.9       24.0229        0.7766       98.0380       98.8146      74.791717       0.05741
   9     398.1       23.9660        0.8518       97.5544       98.4063      74.440313       0.08187
   8     437.6       23.9074        0.9319       96.8925       97.8245      73.917022       0.11188
   7     480.5       23.8491        1.0166       95.9939       97.0105      73.161428       0.14840
   6     533.0       23.7866        1.1186       94.6076       95.7261      71.939571       0.19656
   5     589.8       23.7330        1.2255       92.8634       94.0889      70.355873       0.23507
   4     651.6       23.6953        1.3367       90.7899       92.1266      68.431314       0.26319
   3     718.7       23.6841        1.4516       88.4214       89.8730      66.188966       0.28180
   2     792.3       23.7169        1.5693       85.7899       87.3593      63.642368       0.29207
   1     891.5       23.8551        1.7205       82.2135       83.9340      60.078908       0.30323
   0    1013.0       24.2353        1.8896       77.9068       79.7964      55.561105       0.31369



 Wavenumbers: 12850. - 16000. cm-1, ATM      1
 LEVEL PRESSURE   UPWARD FLUX   DIFDOWN FLUX  DIRDOWN FLUX  DOWNWARD FLUX   NET FLUX    HEATING RATE
          mb          W/m2          W/m2          W/m2        W/m2          W/m2       degree/day
  51    .06700       32.5324        0.0000       63.1686       63.1686      30.636152       0.00000
  50    .07753       32.5324        0.0001       63.1677       63.1678      30.635373       0.62459
  49    .09103       32.5324        0.0001       63.1666       63.1668      30.634402       0.60689
  48    0.1069       32.5323        0.0002       63.1654       63.1656      30.633297       0.58840
  47    0.1255       32.5323        0.0003       63.1640       63.1643      30.632040       0.56985
  46    0.1487       32.5322        0.0004       63.1623       63.1627      30.630472       0.57126
  45    0.1794       32.5322        0.0006       63.1600       63.1606      30.628371       0.57680
  44    0.2165       32.5321        0.0008       63.1573       63.1581      30.625942       0.55270
  43    0.2613       32.5321        0.0010       63.1542       63.1552      30.623140       0.52806
  42    0.3336       32.5320        0.0014       63.1493       63.1507      30.618677       0.52035
  41    0.4307       32.5319        0.0019       63.1431       63.1450      30.613086       0.48617
  40    0.5894       32.5319        0.0027       63.1338       63.1365      30.604621       0.45012
  39     1.339       32.5329        0.0065       63.0955       63.1020      30.569127       0.39960
  38     1.782       32.5344        0.0087       63.0739       63.0827      30.548251       0.39746
  37     2.292       32.5370        0.0113       63.0474       63.0588      30.521759       0.43877
  36     2.964       32.5394        0.0186       63.0029       63.0215      30.482120       0.49759
  35     3.853       32.5466        0.0245       62.9441       62.9686      30.422049       0.57008
  34     5.035       32.5587        0.0311       62.8621       62.8932      30.334494       0.62546
  33     6.613       32.5762        0.0395       62.7509       62.7903      30.214120       0.64352
  32     8.786       32.5990        0.0504       62.6066       62.6570      30.057958       0.60648
  31     11.80       32.6282        0.0658       62.4164       62.4822      29.853978       0.57108
  30     15.07       32.6554        0.0822       62.2304       62.3126      29.657284       0.50783
  29     18.79       32.6823        0.1007       62.0369       62.1376      29.455329       0.45789
  28     23.16       32.7095        0.1222       61.8300       61.9522      29.242737       0.41108
  27     28.12       32.7355        0.1468       61.6152       61.7620      29.026565       0.36748
  26     33.73       32.7573        0.1742       61.4051       61.5793      28.821946       0.30765
  25     40.54       32.7754        0.2073       61.1857       61.3930      28.617605       0.25351
  24     48.69       32.7891        0.2471       60.9555       61.2025      28.413459       0.21126
  23     57.69       32.7962        0.2907       60.7353       61.0261      28.229821       0.17213
  22     68.43       32.7963        0.3427       60.5078       60.8505      28.054186       0.13807
  21     81.20       32.7847        0.4045       60.2815       60.6860      27.901360       0.10099
  20     96.49       32.7600        0.4782       60.0520       60.5302      27.770133       0.07243
  19     114.6       32.7302        0.5660       59.7917       60.3577      27.627549       0.06658
  18     136.5       32.6902        0.6700       59.4959       60.1658      27.475667       0.05840
  17     162.9       32.6384        0.7933       59.1538       59.9472      27.308838       0.05333
  16     196.4       32.5622        0.9529       58.7344       59.6873      27.125094       0.04625
  15     218.7       32.5090        1.0574       58.4682       59.5256      27.016571       0.04120
  14     243.0       32.4498        1.1707       58.1834       59.3542      26.904405       0.03890
  13     269.0       32.3840        1.2932       57.8805       59.1737      26.789719       0.03720
  12     297.5       32.3116        1.4253       57.5583       58.9836      26.671926       0.03494
  11     328.5       32.2330        1.5676       57.2126       58.7803      26.547225       0.03391
  10     361.9       32.1483        1.7204       56.8416       58.5620      26.413716       0.03378
   9     398.1       32.0573        1.8843       56.4422       58.3265      26.269170       0.03368
   8     437.6       31.9606        2.0597       56.0097       58.0694      26.108823       0.03428
   7     480.5       31.8586        2.2470       55.5388       57.7858      25.927138       0.03568
   6     533.0       31.7372        2.4763       54.9430       57.4193      25.682095       0.03942
   5     589.8       31.6124        2.7217       54.2803       57.0020      25.389573       0.04342
   4     651.6       31.4871        2.9834       53.5452       56.5286      25.041467       0.04760
   3     718.7       31.3652        3.2614       52.7319       55.9933      24.628043       0.05196
   2     792.3       31.2531        3.5550       51.8345       55.3896      24.136407       0.05639
   1     891.5       31.1388        3.9440       50.5916       54.5356      23.396817       0.06294
   0    1013.0       31.0679        4.3991       49.0732       53.4722      22.404317       0.06891



 Wavenumbers: 16000. - 22650. cm-1, ATM      1
 LEVEL PRESSURE   UPWARD FLUX   DIFDOWN FLUX  DIRDOWN FLUX  DOWNWARD FLUX   NET FLUX    HEATING RATE
          mb          W/m2          W/m2          W/m2        W/m2          W/m2       degree/day
  51    .06700       73.9649        0.0000      100.7153      100.7153      26.750381       0.00000
  50    .07753       73.9648        0.0003      100.7147      100.7151      26.750264       0.09345
  49    .09103       73.9646        0.0007      100.7140      100.7147      26.750095       0.10599
  48    0.1069       73.9645        0.0012      100.7131      100.7143      26.749868       0.12087
  47    0.1255       73.9643        0.0017      100.7121      100.7138      26.749564       0.13777
  46    0.1487       73.9641        0.0024      100.7108      100.7132      26.749116       0.16326
  45    0.1794       73.9638        0.0033      100.7089      100.7122      26.748416       0.19222
  44    0.2165       73.9635        0.0044      100.7066      100.7110      26.747466       0.21603
  43    0.2613       73.9632        0.0057      100.7037      100.7094      26.746178       0.24287
  42    0.3336       73.9629        0.0079      100.6987      100.7066      26.743728       0.28561
  41    0.4307       73.9625        0.0108      100.6918      100.7025      26.740036       0.32104
  40    0.5894       73.9622        0.0154      100.6797      100.6952      26.732994       0.37447
  39     1.339       73.9660        0.0375      100.6095      100.6470      26.680980       0.58558
  38     1.782       73.9722        0.0504      100.5585      100.6089      26.636684       0.84332
  37     2.292       73.9831        0.0654      100.4903      100.5557      26.572586       1.06163
  36     2.964       73.9921        0.1070      100.3539      100.4609      26.468804       1.30278
  35     3.853       74.0223        0.1411      100.1855      100.3266      26.304264       1.56151
  34     5.035       74.0739        0.1794       99.9536      100.1329      26.059066       1.75159
  33     6.613       74.1484        0.2272       99.6400       99.8673      25.718852       1.81878
  32     8.786       74.2456        0.2899       99.2327       99.5227      25.277088       1.71565
  31     11.80       74.3696        0.3784       98.6935       99.0719      24.702286       1.60926
  30     15.07       74.4851        0.4727       98.1634       98.6361      24.151051       1.42318
  29     18.79       74.5995        0.5787       97.6087       98.1874      23.587841       1.27697
  28     23.16       74.7146        0.7019       97.0107       97.7126      22.997986       1.14059
  27     28.12       74.8247        0.8423       96.3842       97.2265      22.401829       1.01343
  26     33.73       74.9167        0.9987       95.7618       96.7605      21.843789       0.83903
  25     40.54       74.9918        1.1871       95.0989       96.2860      21.294151       0.68189
  24     48.69       75.0476        1.4132       94.3863       95.7996      20.751960       0.56108
  23     57.69       75.0753        1.6606       93.6863       95.3469      20.271626       0.45024
  22     68.43       75.0721        1.9540       92.9403       94.8944      19.822317       0.35322
  21     81.20       75.0188        2.3022       92.1685       94.4707      19.451950       0.24473
  20     96.49       74.9096        2.7152       91.3567       94.0719      19.162315       0.15986
  19     114.6       74.7576        3.2021       90.4526       93.6547      18.897067       0.12385
  18     136.5       74.5629        3.7742       89.4258       93.2001      18.637136       0.09995
  17     162.9       74.3187        4.4487       88.2479       92.6966      18.377921       0.08286
  16     196.4       73.9738        5.3131       86.8067       92.1197      18.145888       0.05841
  15     218.7       73.7379        5.8744       85.8956       91.7701      18.032169       0.04317
  14     243.0       73.4779        6.4790       84.9261       91.4051      17.927197       0.03641
  13     269.0       73.1927        7.1277       83.8979       91.0256      17.832950       0.03057
  12     297.5       72.8814        7.8212       82.8102       90.6313      17.749940       0.02462
  11     328.5       72.5452        8.5619       81.6536       90.2155      17.670294       0.02166
  10     361.9       72.1840        9.3494       80.4287       89.7782      17.594196       0.01925
   9     398.1       71.7966       10.1857       79.1321       89.3179      17.521265       0.01699
   8     437.6       71.3833       11.0710       77.7620       88.8330      17.449712       0.01530
   7     480.5       70.9435       12.0053       76.3176       88.3229      17.379432       0.01380
   6     533.0       70.4077       13.1353       74.5706       87.7059      17.298148       0.01308
   5     589.8       69.8382       14.3288       72.7224       87.0512      17.213019       0.01264
   4     651.6       69.2358       15.5839       70.7736       86.3575      17.121684       0.01249
   3     718.7       68.6014       16.8988       68.7242       85.6230      17.021597       0.01258
   2     792.3       67.9374       18.2688       66.5781       84.8470      16.909553       0.01285
   1     891.5       67.0679       20.0567       63.7565       83.8132      16.745316       0.01398
   0    1013.0       66.0663       22.1109       60.4791       82.5900      16.523662       0.01539



 Wavenumbers: 22650. - 29000. cm-1, ATM      1
 LEVEL PRESSURE   UPWARD FLUX   DIFDOWN FLUX  DIRDOWN FLUX  DOWNWARD FLUX   NET FLUX    HEATING RATE
          mb          W/m2          W/m2          W/m2        W/m2          W/m2       degree/day
  51    .06700       32.0552        0.0000       38.0063       38.0063       5.951088       0.00000
  50    .07753       32.0550        0.0004       38.0057       38.0061       5.951088       0.00000
  49    .09103       32.0548        0.0009       38.0050       38.0059       5.951088       0.00000
  48    0.1069       32.0546        0.0014       38.0042       38.0056       5.951088       0.00000
  47    0.1255       32.0543        0.0020       38.0033       38.0054       5.951088       0.00000
  46    0.1487       32.0539        0.0028       38.0022       38.0050       5.951088      -0.00000
  45    0.1794       32.0534        0.0039       38.0006       38.0045       5.951088       0.00000
  44    0.2165       32.0528        0.0052       37.9987       38.0039       5.951088      -0.00000
  43    0.2613       32.0521        0.0067       37.9965       38.0032       5.951088       0.00000
  42    0.3336       32.0510        0.0092       37.9928       38.0021       5.951088       0.00000
  41    0.4307       32.0494        0.0125       37.9880       38.0005       5.951088      -0.00000
  40    0.5894       32.0469        0.0180       37.9800       37.9980       5.951088       0.00000
  39     1.339       32.0351        0.0437       37.9425       37.9862       5.951088       0.00000
  38     1.782       32.0282        0.0588       37.9204       37.9793       5.951088       0.00000
  37     2.292       32.0202        0.0763       37.8949       37.9712       5.951088      -0.00000
  36     2.964       31.9979        0.1247       37.8243       37.9490       5.951088       0.00000
  35     3.853       31.9796        0.1645       37.7662       37.9307       5.951088       0.00000
  34     5.035       31.9591        0.2092       37.7010       37.9102       5.951088       0.00000
  33     6.613       31.9334        0.2651       37.6194       37.8845       5.951088      -0.00000
  32     8.786       31.8997        0.3384       37.5124       37.8508       5.951088      -0.00000
  31     11.80       31.8520        0.4418       37.3613       37.8031       5.951088       0.00000
  30     15.07       31.8013        0.5521       37.2002       37.7523       5.951088       0.00000
  29     18.79       31.7442        0.6759       37.0193       37.6953       5.951088      -0.00000
  28     23.16       31.6778        0.8198       36.8091       37.6289       5.951088      -0.00000
  27     28.12       31.6023        0.9833       36.5701       37.5534       5.951088       0.00000
  26     33.73       31.5182        1.1650       36.3044       37.4693       5.951088       0.00000
  25     40.54       31.4174        1.3828       35.9857       37.3684       5.951088      -0.00000
  24     48.69       31.2967        1.6428       35.6049       37.2478       5.951088      -0.00000
  23     57.69       31.1653        1.9253       35.1911       37.1164       5.951088       0.00000
  22     68.43       31.0105        2.2575       34.7041       36.9616       5.951088       0.00000
  21     81.20       30.8284        2.6471       34.1324       36.7795       5.951088       0.00000
  20     96.49       30.6147        3.1027       33.4631       36.5658       5.951088       0.00000
  19     114.6       30.3656        3.6316       32.6851       36.3167       5.951088       0.00000
  18     136.5       30.0767        4.2419       31.7859       36.0278       5.951088       0.00000
  17     162.9       29.7414        4.9456       30.7470       35.6925       5.951088      -0.00000
  16     196.4       29.3204        5.8222       29.4492       35.2715       5.951088       0.00000
  15     218.7       29.0521        6.3764       28.6268       35.0032       5.951088      -0.00000
  14     243.0       28.7676        6.9601       27.7585       34.7187       5.951088       0.00000
  13     269.0       28.4673        7.5715       26.8469       34.4184       5.951088       0.00000
  12     297.5       28.1520        8.2082       25.8949       34.1031       5.951088      -0.00000
  11     328.5       27.8214        8.8695       24.9029       33.7725       5.951088      -0.00000
  10     361.9       27.4768        9.5515       23.8763       33.4279       5.951088       0.00000
   9     398.1       27.1184       10.2525       22.8170       33.0695       5.951088       0.00000
   8     437.6       26.7476       10.9678       21.7310       32.6987       5.951088      -0.00000
   7     480.5       26.3653       11.6944       20.6219       32.3164       5.951088       0.00000
   6     533.0       25.9151       12.5342       19.3320       31.8662       5.951088       0.00000
   5     589.8       25.4535       13.3759       18.0286       31.4046       5.951088       0.00000
   4     651.6       24.9824       14.2129       16.7206       30.9335       5.951088      -0.00000
   3     718.7       24.5040       15.0375       15.4175       30.4550       5.951088       0.00000
   2     792.3       24.0209       15.8415       14.1304       29.9719       5.951088       0.00000
   1     891.5       23.4128       16.8070       12.5569       29.3639       5.951088       0.00000
   0    1013.0       22.7418       17.8039       10.8890       28.6929       5.951088      -0.00000



 Wavenumbers: 29000. - 38000. cm-1, ATM      1
 LEVEL PRESSURE   UPWARD FLUX   DIFDOWN FLUX  DIRDOWN FLUX  DOWNWARD FLUX   NET FLUX    HEATING RATE
          mb          W/m2          W/m2          W/m2        W/m2          W/m2       degree/day
  51    .06700        4.7007        0.0000       13.4026       13.4026       8.701883       0.00000
  50    .07753        4.7005        0.0003       13.3983       13.3986       8.698093       3.03818
  49    .09103        4.7002        0.0007       13.3921       13.3928       8.692585       3.44259
  48    0.1069        4.6999        0.0011       13.3841       13.3851       8.685221       3.91972
  47    0.1255        4.6996        0.0016       13.3734       13.3750       8.675392       4.45599
  46    0.1487        4.6991        0.0022       13.3579       13.3601       8.660976       5.25495
  45    0.1794        4.6986        0.0030       13.3342       13.3372       8.638609       6.14024
  44    0.2165        4.6979        0.0040       13.3025       13.3065       8.608609       6.82440
  43    0.2613        4.6971        0.0051       13.2605       13.2657       8.568562       7.54873
  42    0.3336        4.6959        0.0070       13.1834       13.1905       8.494565       8.62734
  41    0.4307        4.6943        0.0095       13.0730       13.0824       8.388100       9.25688
  40    0.5894        4.6919        0.0133       12.8795       12.8929       8.200935       9.95322
  39     1.339        4.6835        0.0295       11.9153       11.9449       7.261377      10.57771
  38     1.782        4.6802        0.0378       11.4377       11.4755       6.795271       8.87391
  37     2.292        4.6779        0.0466       10.9754       11.0220       6.344089       7.47275
  36     2.964        4.6662        0.0717       10.4473       10.5190       5.852791       6.16728
  35     3.853        4.6631        0.0894        9.9031        9.9925       5.329435       4.96674
  34     5.035        4.6645        0.1075        9.3582        9.4657       4.801194       3.77353
  33     6.613        4.6693        0.1287        8.8326        8.9613       4.292051       2.72188
  32     8.786        4.6764        0.1555        8.3377        8.4932       3.816784       1.84576
  31     11.80        4.6853        0.1922        7.8507        8.0429       3.357602       1.28556
  30     15.07        4.6928        0.2301        7.4733        7.7033       3.010527       0.89608
  29     18.79        4.6996        0.2713        7.1412        7.4126       2.712985       0.67462
  28     23.16        4.7056        0.3179        6.8308        7.1487       2.443145       0.52178
  27     28.12        4.7100        0.3695        6.5435        6.9130       2.202982       0.40826
  26     33.73        4.7104        0.4258        6.2860        6.7117       2.001349       0.30316
  25     40.54        4.7055        0.4922        6.0338        6.5261       1.820540       0.22431
  24     48.69        4.6949        0.5701        5.7812        6.3514       1.656457       0.16980
  23     57.69        4.6787        0.6533        5.5466        6.1999       1.521167       0.12681
  22     68.43        4.6545        0.7495        5.3073        6.0568       1.402286       0.09346
  21     81.20        4.6181        0.8611        5.0666        5.9277       1.309577       0.06126
  20     96.49        4.5681        0.9900        4.8185        5.8085       1.240397       0.03818
  19     114.6        4.5076        1.1360        4.5517        5.6877       1.180166       0.02812
  18     136.5        4.4373        1.2989        4.2622        5.5611       1.123752       0.02169
  17     162.9        4.3568        1.4798        3.9470        5.4268       1.070007       0.01718
  16     196.4        4.2549        1.6961        3.5831        5.2792       1.024260       0.01151
  15     218.7        4.1907        1.8270        3.3664        5.1934       1.002765       0.00816
  14     243.0        4.1237        1.9603        3.1468        5.1072       0.983495       0.00668
  13     269.0        4.0542        2.0949        2.9260        5.0209       0.966671       0.00546
  12     297.5        3.9827        2.2295        2.7055        4.9350       0.952244       0.00428
  11     328.5        3.9100        2.3627        2.4860        4.8487       0.938723       0.00368
  10     361.9        3.8365        2.4931        2.2695        4.7626       0.926146       0.00318
   9     398.1        3.7625        2.6196        2.0574        4.6770       0.914465       0.00272
   8     437.6        3.6886        2.7410        1.8511        4.5921       0.903451       0.00235
   7     480.5        3.6151        2.8558        1.6526        4.5084       0.893205       0.00201
   6     533.0        3.5319        2.9782        1.4360        4.4142       0.882272       0.00176
   5     589.8        3.4502        3.0889        1.2333        4.3222       0.871929       0.00154
   4     651.6        3.3706        3.1865        1.0461        4.2327       0.862070       0.00135
   3     718.7        3.2931        3.2704        0.8754        4.1458       0.852649       0.00118
   2     792.3        3.2181        3.3394        0.7224        4.0618       0.843655       0.00103
   1     891.5        3.1276        3.4044        0.5561        3.9604       0.832813       0.00092
   0    1013.0        3.0319        3.4485        0.4045        3.8530       0.821139       0.00081



 Wavenumbers: 38000. - 50000. cm-1, ATM      1
 LEVEL PRESSURE   UPWARD FLUX   DIFDOWN FLUX  DIRDOWN FLUX  DOWNWARD FLUX   NET FLUX    HEATING RATE
          mb          W/m2          W/m2          W/m2        W/m2          W/m2       degree/day
  51    .06700        0.0054        0.0000        0.8267        0.8267       0.821272       0.00000
  50    .07753        0.0053        0.0001        0.8242        0.8243       0.818939       1.86955
  49    .09103        0.0053        0.0002        0.8207        0.8209       0.815616       2.07732
  48    0.1069        0.0052        0.0002        0.8162        0.8164       0.811257       2.32019
  47    0.1255        0.0051        0.0004        0.8103        0.8106       0.805543       2.59046
  46    0.1487        0.0050        0.0005        0.8018        0.8023       0.797307       3.00195
  45    0.1794        0.0048        0.0007        0.7889        0.7896       0.784751       3.44703
  44    0.2165        0.0046        0.0009        0.7720        0.7729       0.768244       3.75515
  43    0.2613        0.0044        0.0011        0.7500        0.7511       0.746690       4.06275
  42    0.3336        0.0041        0.0015        0.7106        0.7121       0.708000       4.51092
  41    0.4307        0.0037        0.0019        0.6566        0.6584       0.654702       4.63409
  40    0.5894        0.0032        0.0024        0.5680        0.5704       0.567189       4.65382
  39     1.339        0.0018        0.0030        0.2422        0.2452       0.243409       3.64518
  38     1.782        0.0014        0.0026        0.1493        0.1519       0.150554       1.76780
  37     2.292        0.0011        0.0022        0.0924        0.0946       0.093523       0.94459
  36     2.964        0.0006        0.0021        0.0533        0.0554       0.054882       0.48505
  35     3.853        0.0003        0.0016        0.0290        0.0306       0.030321       0.23310
  34     5.035        0.0002        0.0012        0.0151        0.0163       0.016109       0.10152
  33     6.613        0.0001        0.0008        0.0072        0.0080       0.007904       0.04387
  32     8.786        0.0000        0.0005        0.0029        0.0034       0.003405       0.01747
  31     11.80        0.0000        0.0003        0.0009        0.0012       0.001216       0.00613
  30     15.07        0.0000        0.0002        0.0003        0.0005       0.000475       0.00191
  29     18.79        0.0000        0.0001        0.0001        0.0002       0.000189       0.00065
  28     23.16        0.0000        0.0000        0.0000        0.0001       0.000074       0.00022
  27     28.12        0.0000        0.0000        0.0000        0.0000       0.000030       0.00008
  26     33.73        0.0000        0.0000        0.0000        0.0000       0.000012       0.00003
  25     40.54        0.0000        0.0000        0.0000        0.0000       0.000005       0.00001
  24     48.69        0.0000        0.0000        0.0000        0.0000       0.000002       0.00000
  23     57.69        0.0000        0.0000        0.0000        0.0000       0.000001       0.00000
  22     68.43        0.0000        0.0000        0.0000        0.0000       0.000000       0.00000
  21     81.20        0.0000        0.0000        0.0000        0.0000       0.000000       0.00000
  20     96.49        0.0000        0.0000        0.0000        0.0000       0.000000       0.00000
  19     114.6        0.0000        0.0000        0.0000        0.0000       0.000000       0.00000
  18     136.5        0.0000        0.0000        0.0000        0.0000       0.000000       0.00000
  17     162.9        0.0000        0.0000        0.0000        0.0000       0.000000       0.00000
  16     196.4        0.0000        0.0000        0.0000        0.0000       0.000000       0.00000
  15     218.7        0.0000        0.0000        0.0000        0.0000       0.000000       0.00000
  14     243.0        0.0000        0.0000        0.0000        0.0000       0.000000       0.00000
  13     269.0        0.0000        0.0000        0.0000        0.0000       0.000000       0.00000
  12     297.5        0.0000        0.0000        0.0000        0.0000       0.000000       0.00000
  11     328.5        0.0000        0.0000        0.0000        0.0000       0.000000       0.00000
  10     361.9        0.0000        0.0000        0.0000        0.0000       0.000000       0.00000
   9     398.1        0.0000        0.0000        0.0000        0.0000       0.000000       0.00000
   8     437.6        0.0000        0.0000        0.0000        0.0000       0.000000       0.00000
   7     480.5        0.0000        0.0000        0.0000        0.0000       0.000000       0.00000
   6     533.0        0.0000        0.0000        0.0000        0.0000       0.000000       0.00000
   5     589.8        0.0000        0.0000        0.0000        0.0000       0.000000       0.00000
   4     651.6        0.0000        0.0000        0.0000        0.0000       0.000000       0.00000
   3     718.7        0.0000        0.0000        0.0000        0.0000       0.000000       0.00000
   2     792.3        0.0000        0.0000        0.0000        0.0000       0.000000       0.00000
   1     891.5        0.0000        0.0000        0.0000        0.0000       0.000000       0.00000
   0    1013.0        0.0000        0.0000        0.0000        0.0000       0.000000       0.00000



 Wavenumbers:   820. -  2600. cm-1, ATM      1
 LEVEL PRESSURE   UPWARD FLUX   DIFDOWN FLUX  DIRDOWN FLUX  DOWNWARD FLUX   NET FLUX    HEATING RATE
          mb          W/m2          W/m2          W/m2        W/m2          W/m2       degree/day
  51    .06700        0.1491        0.0000        3.8670        3.8670       3.717949       0.00000
  50    .07753        0.1491        0.0000        3.8644        3.8644       3.715350       2.08287
  49    .09103        0.1491        0.0000        3.8638        3.8638       3.714680       0.41878
  48    0.1069        0.1491        0.0000        3.8630        3.8630       3.713931       0.39874
  47    0.1255        0.1491        0.0000        3.8622        3.8622       3.713117       0.36879
  46    0.1487        0.1491        0.0000        3.8613        3.8613       3.712190       0.33798
  45    0.1794        0.1491        0.0000        3.8602        3.8602       3.711081       0.30446
  44    0.2165        0.1491        0.0000        3.8590        3.8590       3.709947       0.25804
  43    0.2613        0.1491        0.0000        3.8579        3.8579       3.708788       0.21851
  42    0.3336        0.1491        0.0000        3.8562        3.8562       3.707103       0.19646
  41    0.4307        0.1491        0.0000        3.8540        3.8540       3.704937       0.18827
  40    0.5894        0.1491        0.0000        3.8505        3.8505       3.701449       0.18550
  39     1.339        0.1491        0.0000        3.8352        3.8352       3.686099       0.17281
  38     1.782        0.1491        0.0000        3.8267        3.8267       3.677620       0.16143
  37     2.292        0.1491        0.0000        3.8172        3.8172       3.668101       0.15766
  36     2.964        0.1645        0.0000        0.8325        0.8325       0.668001      37.66033
  35     3.853        0.1708        0.0000        0.7627        0.7627       0.591927       0.72195
  34     5.035        0.1740        0.0000        0.7352        0.7352       0.561194       0.21954
  33     6.613        0.1757        0.0000        0.7219        0.7219       0.546180       0.08027
  32     8.786        0.1766        0.0000        0.7148        0.7148       0.538182       0.03106
  31     11.80        0.1772        0.0000        0.7105        0.7105       0.533255       0.01379
  30     15.07        0.1776        0.0000        0.7082        0.7082       0.530601       0.00685
  29     18.79        0.1778        0.0000        0.7067        0.7067       0.528903       0.00385
  28     23.16        0.1779        0.0000        0.7056        0.7056       0.527629       0.00246
  27     28.12        0.1781        0.0000        0.7047        0.7047       0.526684       0.00161
  26     33.73        0.1781        0.0000        0.7041        0.7041       0.525975       0.00107
  25     40.54        0.1782        0.0000        0.7036        0.7036       0.525374       0.00075
  24     48.69        0.1783        0.0000        0.7031        0.7031       0.524799       0.00060
  23     57.69        0.1784        0.0000        0.7026        0.7026       0.524268       0.00050
  22     68.43        0.1784        0.0000        0.7022        0.7022       0.523733       0.00042
  21     81.20        0.1785        0.0000        0.7017        0.7017       0.523193       0.00036
  20     96.49        0.1786        0.0000        0.7012        0.7012       0.522647       0.00030
  19     114.6        0.1786        0.0000        0.7008        0.7008       0.522131       0.00024
  18     136.5        0.1787        0.0000        0.7003        0.7003       0.521589       0.00021
  17     162.9        0.1788        0.0000        0.6998        0.6998       0.521088       0.00016
  16     196.4        0.1788        0.0000        0.6995        0.6995       0.520677       0.00010
  15     218.7        0.1788        0.0000        0.6994        0.6994       0.520540       0.00005
  14     243.0        0.1788        0.0000        0.6993        0.6993       0.520436       0.00004
  13     269.0        0.1789        0.0000        0.6992        0.6992       0.520348       0.00003
  12     297.5        0.1789        0.0000        0.6991        0.6991       0.520244       0.00003
  11     328.5        0.1789        0.0000        0.6990        0.6990       0.520094       0.00004
  10     361.9        0.1789        0.0000        0.6988        0.6988       0.519856       0.00006
   9     398.1        0.1790        0.0000        0.6984        0.6984       0.519479       0.00009
   8     437.6        0.1790        0.0000        0.6979        0.6979       0.518891       0.00013
   7     480.5        0.1792        0.0000        0.6971        0.6972       0.518003       0.00017
   6     533.0        0.1794        0.0000        0.6957        0.6958       0.516394       0.00026
   5     589.8        0.1797        0.0000        0.6936        0.6936       0.513971       0.00036
   4     651.6        0.1802        0.0000        0.6900        0.6900       0.509750       0.00058
   3     718.7        0.1812        0.0000        0.6839        0.6839       0.502724       0.00088
   2     792.3        0.1827        0.0000        0.6743        0.6744       0.491708       0.00126
   1     891.5        0.1856        0.0000        0.6560        0.6560       0.470344       0.00182
   0    1013.0        0.1908        0.0000        0.6257        0.6257       0.434855       0.00246

  Modules and versions used in this calculation:

       rrtmg_sw.1col.f90:  $Revision$                    rrtmg_sw_init.f90:  $Revision$        
     rrtmgsw_cldprop.f90:  $Revision$                  rrtmgsw_cldprmc.f90:  NOT USED          
     rrtmg_sw_reftra.f90:  $Revision$                  rrtmg_sw_spcvrt.f90:  NOT USED          
     rrtmg_sw_spcvmc.f90:  NOT USED                    rrtmgsw_setcoef.f90:  NOT USED          
     rrtmg_sw_taumol.f90:  $Revision$                  rrtmg_sw_vrtqdr.f90:  NOT USED          
                rrtatm.f:  NOT USED                             util_xxx.f:  NOT USED          
                 extra.f:  NOT USED                       rrtmg_sw_k_g.f90:  $Revision$        

