

 Wavenumbers:   820. - 50000. cm-1, ATM      1
 LEVEL PRESSURE   UPWARD FLUX   DIFDOWN FLUX  DIRDOWN FLUX  DOWNWARD FLUX   NET FLUX    HEATING RATE
          mb          W/m2          W/m2          W/m2        W/m2          W/m2       degree/day
  51    .06700      178.5497        0.0000      397.8738      397.8738     219.324082       0.00000
  50    .07753      178.5491        0.0012      397.8580      397.8591     219.310025      11.26716
  49    .09103      178.5483        0.0026      397.8425      397.8451     219.296747       8.29891
  48    0.1069      178.5475        0.0043      397.8240      397.8283     219.280834       8.47038
  47    0.1255      178.5465        0.0062      397.8011      397.8073     219.260846       9.06164
  46    0.1487      178.5453        0.0086      397.7697      397.7783     219.232953      10.16729
  45    0.1794      178.5437        0.0119      397.7232      397.7351     219.191383      11.41206
  44    0.2165      178.5419        0.0158      397.6637      397.6795     219.137528      12.25099
  43    0.2613      178.5399        0.0203      397.5872      397.6076     219.067699      13.16251
  42    0.3336      178.5367        0.0279      397.4508      397.4787     218.941997      14.65560
  41    0.4307      178.5327        0.0377      397.2603      397.2980     218.765284      15.36483
  40    0.5894      178.5269        0.0536      396.9365      396.9901     218.463210      16.06392
  39     1.339      178.5099        0.1245      395.4501      395.5746     217.064718      15.74447
  38     1.782      178.5071        0.1641      394.7604      394.9245     216.417466      12.32264
  37     2.292      178.5102        0.2093      394.0952      394.3045     215.794392      10.31972
  36     2.964      178.4981        0.3361      382.5917      382.9278     204.429691     142.66135
  35     3.853      178.5194        0.4370      380.6033      381.0403     202.520828      18.11545
  34     5.035      178.5677        0.5486      379.1112      379.6598     201.092076      10.20641
  33     6.613      178.6423        0.6870      377.7423      378.4293     199.786958       6.97716
  32     8.786      178.7392        0.8675      376.3613      377.2288     198.489564       5.03861
  31     11.80      178.8575        1.1214      374.8076      375.9289     197.071417       3.97037
  30     15.07      178.9601        1.3910      373.4174      374.8083     195.848270       3.15793
  29     18.79      179.0541        1.6927      372.0390      373.7317     194.677601       2.65427
  28     23.16      179.1388        2.0422      370.5969      372.6390     193.500272       2.27658
  27     28.12      179.2059        2.4384      369.1131      371.5515     192.345544       1.96296
  26     33.73      179.2376        2.8786      367.6394      370.5179     191.280332       1.60157
  25     40.54      179.2255        3.4064      366.0524      369.4589     190.233364       1.29888
  24     48.69      179.1628        4.0371      364.3163      368.3534     189.190561       1.07914
  23     57.69      179.0480        4.7233      362.5716      367.2949     188.246863       0.88457
  22     68.43      178.8620        5.5321      360.6637      366.1958     187.333797       0.71779
  21     81.20      178.5722        6.4853      358.6093      365.0946     186.522439       0.53613
  20     96.49      178.1654        7.6065      356.3685      363.9750     185.809637       0.39342
  19     114.6      177.6648        8.9155      353.5578      362.4733     184.808476       0.46747
  18     136.5      177.0592       10.4352      350.4696      360.9048     183.845635       0.37024
  17     162.9      176.3318       12.2018      347.0119      359.2137     182.881922       0.30804
  16     196.4      175.3655       14.4280      342.8254      357.2534     181.887913       0.25020
  15     218.7      174.7282       15.8509      340.2082      356.0591     181.330818       0.21151
  14     243.0      174.0403       17.3642      337.4485      354.8127     180.772446       0.19366
  13     269.0      173.3007       18.9664      334.5332      353.4996     180.198880       0.18606
  12     297.5      172.5101       20.6554      331.4104      352.0658     179.555694       0.19076
  11     328.5      171.6709       22.4324      327.9700      350.4024     178.731556       0.22408
  10     361.9      170.7857       24.2923      324.1012      348.3934     177.607790       0.28432
   9     398.1      169.8548       26.2347      319.6806      345.9153     176.060513       0.36048
   8     437.6      168.8824       28.2545      314.5843      342.8388     173.956405       0.44987
   7     480.5      167.8725       30.3476      308.6886      339.0361     171.163654       0.54849
   6     533.0      166.6797       32.8261      300.9003      333.7265     167.046745       0.66228
   5     589.8      165.4594       35.3837      292.3369      327.7206     162.261179       0.71033
   4     651.6      164.2277       38.0100      283.2737      321.2836     157.055959       0.71183
   3     718.7      163.0068       40.6948      273.8599      314.5547     151.547860       0.69222
   2     792.3      161.8338       43.4228      264.1572      307.5800     145.746201       0.66539
   1     891.5      160.5032       46.8817      251.7562      298.6379     138.134675       0.64770
   0    1013.0      159.4035       50.7229      237.6821      288.4050     129.001453       0.63417



 Wavenumbers:  2600. -  3250. cm-1, ATM      1
 LEVEL PRESSURE   UPWARD FLUX   DIFDOWN FLUX  DIRDOWN FLUX  DOWNWARD FLUX   NET FLUX    HEATING RATE
          mb          W/m2          W/m2          W/m2        W/m2          W/m2       degree/day
  51    .06700        0.3389        0.0000        3.5066        3.5066       3.167712       0.00000
  50    .07753        0.3389        0.0000        3.5066        3.5066       3.167704       0.00640
  49    .09103        0.3389        0.0000        3.5066        3.5066       3.167694       0.00627
  48    0.1069        0.3389        0.0000        3.5066        3.5066       3.167682       0.00613
  47    0.1255        0.3389        0.0000        3.5066        3.5066       3.167669       0.00599
  46    0.1487        0.3389        0.0000        3.5066        3.5066       3.167653       0.00607
  45    0.1794        0.3389        0.0000        3.5065        3.5065       3.167630       0.00624
  44    0.2165        0.3389        0.0000        3.5065        3.5065       3.167603       0.00611
  43    0.2613        0.3389        0.0000        3.5065        3.5065       3.167571       0.00598
  42    0.3336        0.3389        0.0000        3.5064        3.5064       3.167518       0.00615
  41    0.4307        0.3389        0.0000        3.5064        3.5064       3.167447       0.00617
  40    0.5894        0.3389        0.0000        3.5062        3.5062       3.167328       0.00633
  39     1.339        0.3389        0.0000        3.5055        3.5055       3.166630       0.00787
  38     1.782        0.3389        0.0000        3.5050        3.5050       3.166099       0.01010
  37     2.292        0.3389        0.0000        3.5043        3.5043       3.165406       0.01147
  36     2.964        0.3389        0.0000        3.5033        3.5033       3.164416       0.01243
  35     3.853        0.3389        0.0000        3.5019        3.5019       3.163039       0.01307
  34     5.035        0.3389        0.0000        3.5001        3.5001       3.161176       0.01331
  33     6.613        0.3389        0.0000        3.4977        3.4977       3.158762       0.01290
  32     8.786        0.3389        0.0000        3.4947        3.4947       3.155784       0.01157
  31     11.80        0.3389        0.0000        3.4910        3.4910       3.152141       0.01020
  30     15.07        0.3389        0.0000        3.4878        3.4878       3.148911       0.00834
  29     18.79        0.3389        0.0000        3.4847        3.4847       3.145833       0.00698
  28     23.16        0.3389        0.0000        3.4815        3.4815       3.142590       0.00627
  27     28.12        0.3389        0.0000        3.4778        3.4779       3.138946       0.00619
  26     33.73        0.3389        0.0000        3.4733        3.4734       3.134451       0.00676
  25     40.54        0.3389        0.0000        3.4670        3.4670       3.128089       0.00789
  24     48.69        0.3389        0.0000        3.4580        3.4580       3.119132       0.00927
  23     57.69        0.3389        0.0000        3.4469        3.4469       3.107990       0.01044
  22     68.43        0.3389        0.0000        3.4324        3.4325       3.093555       0.01135
  21     81.20        0.3389        0.0000        3.4145        3.4146       3.075625       0.01185
  20     96.49        0.3389        0.0000        3.3932        3.3932       3.054275       0.01178
  19     114.6        0.3390        0.0000        3.3472        3.3473       3.008241       0.02149
  18     136.5        0.3391        0.0001        3.3061        3.3061       2.966997       0.01586
  17     162.9        0.3392        0.0001        3.2693        3.2694       2.930144       0.01178
  16     196.4        0.3394        0.0001        3.2330        3.2331       2.893641       0.00919
  15     218.7        0.3395        0.0001        3.2129        3.2130       2.873443       0.00767
  14     243.0        0.3397        0.0001        3.1929        3.1930       2.853279       0.00699
  13     269.0        0.3399        0.0001        3.1719        3.1720       2.832157       0.00685
  12     297.5        0.3401        0.0001        3.1480        3.1481       2.808035       0.00715
  11     328.5        0.3404        0.0001        3.1178        3.1179       2.777552       0.00829
  10     361.9        0.3408        0.0001        3.0782        3.0783       2.737480       0.01014
   9     398.1        0.3414        0.0001        3.0253        3.0254       2.684056       0.01245
   8     437.6        0.3422        0.0001        2.9554        2.9556       2.613412       0.01510
   7     480.5        0.3433        0.0002        2.8645        2.8647       2.521368       0.01808
   6     533.0        0.3452        0.0002        2.7318        2.7320       2.386798       0.02165
   5     589.8        0.3479        0.0002        2.5783        2.5785       2.230609       0.02318
   4     651.6        0.3517        0.0002        2.4163        2.4165       2.064747       0.02268
   3     718.7        0.3573        0.0002        2.2496        2.2498       1.892593       0.02163
   2     792.3        0.3652        0.0002        2.0749        2.0751       1.709865       0.02096
   1     891.5        0.3802        0.0002        1.8485        1.8487       1.468569       0.02053
   0    1013.0        0.4078        0.0002        1.5984        1.5986       1.190809       0.01929



 Wavenumbers:  3250. -  4000. cm-1, ATM      1
 LEVEL PRESSURE   UPWARD FLUX   DIFDOWN FLUX  DIRDOWN FLUX  DOWNWARD FLUX   NET FLUX    HEATING RATE
          mb          W/m2          W/m2          W/m2        W/m2          W/m2       degree/day
  51    .06700        0.0208        0.0000        5.9117        5.9117       5.890870       0.00000
  50    .07753        0.0208        0.0000        5.9075        5.9075       5.886708       3.33612
  49    .09103        0.0208        0.0000        5.9052        5.9052       5.884419       1.43070
  48    0.1069        0.0208        0.0000        5.9035        5.9035       5.882706       0.91190
  47    0.1255        0.0208        0.0000        5.9019        5.9019       5.881086       0.73438
  46    0.1487        0.0208        0.0000        5.9001        5.9001       5.879351       0.63248
  45    0.1794        0.0208        0.0000        5.8982        5.8982       5.877374       0.54263
  44    0.2165        0.0208        0.0000        5.8962        5.8962       5.875426       0.44317
  43    0.2613        0.0208        0.0000        5.8943        5.8943       5.873477       0.36742
  42    0.3336        0.0208        0.0000        5.8915        5.8915       5.870721       0.32131
  41    0.4307        0.0208        0.0000        5.8881        5.8881       5.867347       0.29332
  40    0.5894        0.0208        0.0000        5.8830        5.8830       5.862241       0.27154
  39     1.339        0.0208        0.0000        5.8641        5.8641       5.843321       0.21300
  38     1.782        0.0208        0.0000        5.8561        5.8561       5.835331       0.15212
  37     2.292        0.0208        0.0000        5.8483        5.8483       5.827544       0.12897
  36     2.964        0.0208        0.0000        3.5047        3.5047       3.483816      29.42087
  35     3.853        0.0209        0.0000        3.2228        3.2228       3.201923       2.67522
  34     5.035        0.0209        0.0000        3.0889        3.0889       3.068046       0.95636
  33     6.613        0.0209        0.0000        3.0100        3.0100       2.989106       0.42201
  32     8.786        0.0209        0.0000        2.9577        2.9577       2.936756       0.20331
  31     11.80        0.0209        0.0000        2.9166        2.9166       2.895716       0.11490
  30     15.07        0.0209        0.0000        2.8886        2.8886       2.867658       0.07244
  29     18.79        0.0209        0.0000        2.8661        2.8661       2.845207       0.05090
  28     23.16        0.0209        0.0000        2.8452        2.8453       2.824328       0.04037
  27     28.12        0.0209        0.0000        2.8260        2.8260       2.805123       0.03265
  26     33.73        0.0209        0.0000        2.8082        2.8082       2.787252       0.02687
  25     40.54        0.0209        0.0000        2.7893        2.7893       2.768371       0.02342
  24     48.69        0.0209        0.0000        2.7676        2.7676       2.746689       0.02244
  23     57.69        0.0209        0.0000        2.7443        2.7444       2.723439       0.02179
  22     68.43        0.0209        0.0000        2.7173        2.7173       2.696417       0.02124
  21     81.20        0.0209        0.0001        2.6860        2.6861       2.665160       0.02065
  20     96.49        0.0209        0.0001        2.6500        2.6501       2.629156       0.01987
  19     114.6        0.0209        0.0001        2.6089        2.6090       2.588101       0.01917
  18     136.5        0.0209        0.0001        2.5630        2.5631       2.542239       0.01763
  17     162.9        0.0209        0.0001        2.5124        2.5125       2.491586       0.01619
  16     196.4        0.0209        0.0001        2.4524        2.4525       2.431589       0.01510
  15     218.7        0.0209        0.0001        2.4160        2.4161       2.395256       0.01379
  14     243.0        0.0209        0.0002        2.3790        2.3792       2.358291       0.01282
  13     269.0        0.0209        0.0002        2.3393        2.3394       2.318548       0.01289
  12     297.5        0.0209        0.0002        2.2890        2.2892       2.268295       0.01490
  11     328.5        0.0209        0.0002        2.2159        2.2161       2.195175       0.01988
  10     361.9        0.0209        0.0002        2.1095        2.1097       2.088819       0.02691
   9     398.1        0.0210        0.0002        1.9668        1.9670       1.946015       0.03327
   8     437.6        0.0211        0.0002        1.7899        1.7902       1.769045       0.03784
   7     480.5        0.0213        0.0002        1.5849        1.5852       1.563815       0.04031
   6     533.0        0.0219        0.0002        1.3265        1.3267       1.304842       0.04166
   5     589.8        0.0228        0.0002        1.0730        1.0732       1.050380       0.03777
   4     651.6        0.0244        0.0002        0.8316        0.8318       0.807435       0.03322
   3     718.7        0.0270        0.0001        0.6064        0.6066       0.579520       0.02864
   2     792.3        0.0318        0.0001        0.4110        0.4111       0.379239       0.02297
   1     891.5        0.0437        0.0001        0.2234        0.2235       0.179734       0.01698
   0    1013.0        0.0779        0.0000        0.0822        0.0822       0.004278       0.01218



 Wavenumbers:  4000. -  4650. cm-1, ATM      1
 LEVEL PRESSURE   UPWARD FLUX   DIFDOWN FLUX  DIRDOWN FLUX  DOWNWARD FLUX   NET FLUX    HEATING RATE
          mb          W/m2          W/m2          W/m2        W/m2          W/m2       degree/day
  51    .06700        0.7326        0.0000        6.9421        6.9421       6.209477       0.00000
  50    .07753        0.7326        0.0000        6.9421        6.9421       6.209476       0.00081
  49    .09103        0.7326        0.0000        6.9421        6.9421       6.209475       0.00079
  48    0.1069        0.7326        0.0000        6.9421        6.9421       6.209474       0.00077
  47    0.1255        0.7326        0.0000        6.9421        6.9421       6.209472       0.00076
  46    0.1487        0.7326        0.0000        6.9421        6.9421       6.209470       0.00077
  45    0.1794        0.7326        0.0000        6.9421        6.9421       6.209467       0.00079
  44    0.2165        0.7326        0.0000        6.9421        6.9421       6.209464       0.00077
  43    0.2613        0.7326        0.0000        6.9421        6.9421       6.209460       0.00076
  42    0.3336        0.7326        0.0000        6.9420        6.9420       6.209453       0.00078
  41    0.4307        0.7326        0.0000        6.9420        6.9420       6.209444       0.00078
  40    0.5894        0.7326        0.0000        6.9420        6.9420       6.209429       0.00081
  39     1.339        0.7326        0.0000        6.9419        6.9419       6.209338       0.00102
  38     1.782        0.7326        0.0000        6.9418        6.9419       6.209268       0.00134
  37     2.292        0.7326        0.0000        6.9418        6.9418       6.209173       0.00157
  36     2.964        0.7326        0.0000        6.9416        6.9416       6.209031       0.00178
  35     3.853        0.7326        0.0000        6.9414        6.9414       6.208822       0.00199
  34     5.035        0.7326        0.0000        6.9411        6.9411       6.208512       0.00221
  33     6.613        0.7326        0.0000        6.9406        6.9406       6.208057       0.00243
  32     8.786        0.7326        0.0000        6.9399        6.9399       6.207386       0.00261
  31     11.80        0.7326        0.0000        6.9388        6.9389       6.206334       0.00295
  30     15.07        0.7325        0.0001        6.9376        6.9376       6.205103       0.00318
  29     18.79        0.7325        0.0001        6.9361        6.9361       6.203620       0.00336
  28     23.16        0.7325        0.0001        6.9342        6.9343       6.201785       0.00355
  27     28.12        0.7325        0.0001        6.9320        6.9321       6.199572       0.00376
  26     33.73        0.7325        0.0001        6.9292        6.9293       6.196856       0.00408
  25     40.54        0.7325        0.0002        6.9255        6.9257       6.193191       0.00455
  24     48.69        0.7325        0.0002        6.9206        6.9208       6.188340       0.00502
  23     57.69        0.7324        0.0002        6.9148        6.9151       6.182624       0.00536
  22     68.43        0.7324        0.0003        6.9077        6.9079       6.175515       0.00559
  21     81.20        0.7324        0.0003        6.8989        6.8992       6.166822       0.00574
  20     96.49        0.7324        0.0004        6.8883        6.8887       6.156312       0.00580
  19     114.6        0.7324        0.0004        6.8624        6.8628       6.130361       0.01212
  18     136.5        0.7325        0.0005        6.8374        6.8379       6.105418       0.00959
  17     162.9        0.7326        0.0006        6.8106        6.8112       6.078529       0.00859
  16     196.4        0.7328        0.0007        6.7776        6.7783       6.045479       0.00832
  15     218.7        0.7329        0.0008        6.7566        6.7574       6.024422       0.00799
  14     243.0        0.7331        0.0009        6.7341        6.7350       6.001879       0.00782
  13     269.0        0.7333        0.0010        6.7097        6.7106       5.977352       0.00796
  12     297.5        0.7335        0.0011        6.6819        6.6829       5.949428       0.00828
  11     328.5        0.7339        0.0012        6.6482        6.6494       5.915519       0.00922
  10     361.9        0.7344        0.0013        6.6060        6.6073       5.872906       0.01078
   9     398.1        0.7350        0.0014        6.5520        6.5534       5.818332       0.01271
   8     437.6        0.7360        0.0015        6.4821        6.4836       5.747644       0.01511
   7     480.5        0.7373        0.0017        6.3932        6.3949       5.657592       0.01769
   6     533.0        0.7392        0.0018        6.2680        6.2699       5.530676       0.02042
   5     589.8        0.7418        0.0020        6.1267        6.1287       5.386905       0.02134
   4     651.6        0.7453        0.0021        5.9701        5.9722       5.226985       0.02187
   3     718.7        0.7501        0.0023        5.7883        5.7906       5.040518       0.02343
   2     792.3        0.7569        0.0025        5.5730        5.5755       4.818530       0.02546
   1     891.5        0.7696        0.0026        5.2713        5.2739       4.504283       0.02674
   0    1013.0        0.7935        0.0028        4.9243        4.9272       4.133696       0.02573



 Wavenumbers:  4650. -  5150. cm-1, ATM      1
 LEVEL PRESSURE   UPWARD FLUX   DIFDOWN FLUX  DIRDOWN FLUX  DOWNWARD FLUX   NET FLUX    HEATING RATE
          mb          W/m2          W/m2          W/m2        W/m2          W/m2       degree/day
  51    .06700        0.5167        0.0000        6.5710        6.5710       6.054296       0.00000
  50    .07753        0.5167        0.0000        6.5708        6.5708       6.054063       0.18628
  49    .09103        0.5167        0.0000        6.5705        6.5705       6.053773       0.18108
  48    0.1069        0.5167        0.0000        6.5701        6.5701       6.053444       0.17559
  47    0.1255        0.5167        0.0000        6.5698        6.5698       6.053069       0.16998
  46    0.1487        0.5167        0.0000        6.5693        6.5693       6.052602       0.17026
  45    0.1794        0.5167        0.0000        6.5687        6.5687       6.051974       0.17227
  44    0.2165        0.5167        0.0000        6.5679        6.5679       6.051246       0.16553
  43    0.2613        0.5167        0.0000        6.5671        6.5671       6.050405       0.15855
  42    0.3336        0.5167        0.0000        6.5658        6.5658       6.049061       0.15675
  41    0.4307        0.5167        0.0000        6.5640        6.5641       6.047358       0.14808
  40    0.5894        0.5167        0.0000        6.5615        6.5615       6.044771       0.13757
  39     1.339        0.5167        0.0000        6.5518        6.5518       6.035102       0.10885
  38     1.782        0.5167        0.0000        6.5476        6.5476       6.030913       0.07974
  37     2.292        0.5167        0.0000        6.5437        6.5437       6.027024       0.06442
  36     2.964        0.5167        0.0000        6.5397        6.5397       6.023031       0.05012
  35     3.853        0.5167        0.0000        6.5357        6.5357       6.019022       0.03805
  34     5.035        0.5167        0.0000        6.5316        6.5316       6.014944       0.02914
  33     6.613        0.5167        0.0000        6.5271        6.5271       6.010482       0.02385
  32     8.786        0.5166        0.0001        6.5215        6.5216       6.004940       0.02152
  31     11.80        0.5166        0.0001        6.5134        6.5134       5.996814       0.02275
  30     15.07        0.5166        0.0001        6.5039        6.5040       5.987403       0.02430
  29     18.79        0.5166        0.0001        6.4923        6.4924       5.975843       0.02621
  28     23.16        0.5166        0.0001        6.4776        6.4778       5.961195       0.02832
  27     28.12        0.5166        0.0002        6.4596        6.4598       5.943200       0.03059
  26     33.73        0.5166        0.0002        6.4381        6.4383       5.921784       0.03220
  25     40.54        0.5165        0.0002        6.4110        6.4113       5.894720       0.03358
  24     48.69        0.5165        0.0003        6.3774        6.3777       5.861180       0.03471
  23     57.69        0.5165        0.0003        6.3404        6.3407       5.824186       0.03468
  22     68.43        0.5165        0.0004        6.2972        6.2976       5.781090       0.03388
  21     81.20        0.5165        0.0005        6.2484        6.2488       5.732330       0.03222
  20     96.49        0.5165        0.0005        6.1949        6.1955       5.678957       0.02946
  19     114.6        0.5166        0.0006        6.1325        6.1332       5.616606       0.02911
  18     136.5        0.5166        0.0007        6.0685        6.0693       5.552619       0.02460
  17     162.9        0.5168        0.0009        6.0011        6.0020       5.485224       0.02154
  16     196.4        0.5170        0.0010        5.9208        5.9219       5.404855       0.02023
  15     218.7        0.5172        0.0011        5.8696        5.8707       5.353561       0.01947
  14     243.0        0.5174        0.0012        5.8139        5.8151       5.297745       0.01936
  13     269.0        0.5176        0.0014        5.7527        5.7541       5.236438       0.01989
  12     297.5        0.5179        0.0015        5.6841        5.6856       5.167621       0.02041
  11     328.5        0.5184        0.0016        5.6058        5.6074       5.089020       0.02137
  10     361.9        0.5190        0.0018        5.5152        5.5170       4.997990       0.02303
   9     398.1        0.5198        0.0019        5.4094        5.4113       4.891518       0.02481
   8     437.6        0.5209        0.0021        5.2888        5.2909       4.769996       0.02598
   7     480.5        0.5224        0.0022        5.1509        5.1531       4.630690       0.02736
   6     533.0        0.5248        0.0024        4.9708        4.9732       4.448471       0.02931
   5     589.8        0.5280        0.0026        4.7715        4.7741       4.246079       0.03004
   4     651.6        0.5323        0.0028        4.5591        4.5619       4.029574       0.02961
   3     718.7        0.5382        0.0029        4.3375        4.3405       3.802319       0.02856
   2     792.3        0.5461        0.0031        4.1103        4.1134       3.567266       0.02696
   1     891.5        0.5603        0.0033        3.8224        3.8257       3.265333       0.02569
   0    1013.0        0.5845        0.0034        3.5049        3.5084       2.923887       0.02371



 Wavenumbers:  5150. -  6150. cm-1, ATM      1
 LEVEL PRESSURE   UPWARD FLUX   DIFDOWN FLUX  DIRDOWN FLUX  DOWNWARD FLUX   NET FLUX    HEATING RATE
          mb          W/m2          W/m2          W/m2        W/m2          W/m2       degree/day
  51    .06700        1.3884        0.0000       16.4735       16.4735      15.085104       0.00000
  50    .07753        1.3884        0.0000       16.4735       16.4735      15.085103       0.00018
  49    .09103        1.3884        0.0000       16.4735       16.4735      15.085103       0.00018
  48    0.1069        1.3884        0.0000       16.4735       16.4735      15.085103       0.00018
  47    0.1255        1.3884        0.0000       16.4735       16.4735      15.085102       0.00017
  46    0.1487        1.3884        0.0000       16.4735       16.4735      15.085102       0.00017
  45    0.1794        1.3884        0.0000       16.4735       16.4735      15.085101       0.00018
  44    0.2165        1.3884        0.0000       16.4735       16.4735      15.085101       0.00018
  43    0.2613        1.3884        0.0000       16.4735       16.4735      15.085100       0.00017
  42    0.3336        1.3884        0.0000       16.4735       16.4735      15.085098       0.00018
  41    0.4307        1.3884        0.0000       16.4735       16.4735      15.085096       0.00018
  40    0.5894        1.3884        0.0000       16.4735       16.4735      15.085093       0.00018
  39     1.339        1.3884        0.0000       16.4734       16.4734      15.085072       0.00023
  38     1.782        1.3884        0.0000       16.4734       16.4734      15.085056       0.00031
  37     2.292        1.3884        0.0001       16.4733       16.4734      15.085034       0.00036
  36     2.964        1.3890        0.0001       14.4533       14.4534      13.064398      25.36509
  35     3.853        1.3893        0.0001       14.1445       14.1446      12.755302       2.93338
  34     5.035        1.3895        0.0001       13.9934       13.9935      12.604076       1.08029
  33     6.613        1.3896        0.0002       13.9049       13.9051      12.515542       0.47330
  32     8.786        1.3896        0.0002       13.8471       13.8474      12.457715       0.22458
  31     11.80        1.3897        0.0003       13.8026       13.8029      12.413191       0.12465
  30     15.07        1.3897        0.0004       13.7727       13.7731      12.383378       0.07697
  29     18.79        1.3897        0.0004       13.7493       13.7498      12.360096       0.05279
  28     23.16        1.3897        0.0005       13.7282       13.7287      12.339024       0.04075
  27     28.12        1.3896        0.0006       13.7093       13.7099      12.320297       0.03183
  26     33.73        1.3896        0.0008       13.6923       13.6931      12.303492       0.02527
  25     40.54        1.3895        0.0009       13.6749       13.6758      12.286299       0.02133
  24     48.69        1.3895        0.0011       13.6549       13.6560      12.266538       0.02045
  23     57.69        1.3894        0.0013       13.6331       13.6344      12.244944       0.02024
  22     68.43        1.3894        0.0015       13.6074       13.6089      12.219480       0.02002
  21     81.20        1.3893        0.0018       13.5772       13.5790      12.189675       0.01969
  20     96.49        1.3893        0.0021       13.5424       13.5445      12.155192       0.01903
  19     114.6        1.3892        0.0025       13.5026       13.5050      12.115830       0.01838
  18     136.5        1.3891        0.0029       13.4583       13.4612      12.072082       0.01682
  17     162.9        1.3890        0.0035       13.4106       13.4140      12.025044       0.01504
  16     196.4        1.3888        0.0042       13.3565       13.3607      11.971872       0.01338
  15     218.7        1.3887        0.0046       13.3254       13.3300      11.941368       0.01158
  14     243.0        1.3885        0.0051       13.2931       13.2983      11.909792       0.01095
  13     269.0        1.3883        0.0057       13.2573       13.2630      11.874673       0.01139
  12     297.5        1.3881        0.0063       13.2092       13.2155      11.827404       0.01402
  11     328.5        1.3879        0.0069       13.1325       13.1394      11.751455       0.02065
  10     361.9        1.3878        0.0075       13.0049       13.0124      11.624638       0.03209
   9     398.1        1.3877        0.0082       12.8023       12.8104      11.422691       0.04705
   8     437.6        1.3878        0.0088       12.5005       12.5093      11.121480       0.06440
   7     480.5        1.3882        0.0094       12.0825       12.0920      10.703754       0.08204
   6     533.0        1.3891        0.0101       11.4774       11.4875      10.098382       0.09739
   5     589.8        1.3908        0.0106       10.8409       10.8515       9.460747       0.09465
   4     651.6        1.3937        0.0111       10.2535       10.2647       8.870942       0.08066
   3     718.7        1.3986        0.0117        9.7537        9.7654       8.366823       0.06335
   2     792.3        1.4065        0.0123        9.3397        9.3520       7.945489       0.04832
   1     891.5        1.4232        0.0132        8.9037        8.9169       7.493624       0.03845
   0    1013.0        1.4582        0.0143        8.4237        8.4380       6.979854       0.03567



 Wavenumbers:  6150. -  7700. cm-1, ATM      1
 LEVEL PRESSURE   UPWARD FLUX   DIFDOWN FLUX  DIRDOWN FLUX  DOWNWARD FLUX   NET FLUX    HEATING RATE
          mb          W/m2          W/m2          W/m2        W/m2          W/m2       degree/day
  51    .06700        2.2944        0.0000       30.4684       30.4684      28.174025       0.00000
  50    .07753        2.2944        0.0000       30.4684       30.4684      28.174009       0.01303
  49    .09103        2.2944        0.0000       30.4683       30.4683      28.173989       0.01277
  48    0.1069        2.2944        0.0000       30.4683       30.4683      28.173965       0.01250
  47    0.1255        2.2944        0.0000       30.4683       30.4683      28.173938       0.01223
  46    0.1487        2.2943        0.0000       30.4682       30.4683      28.173904       0.01241
  45    0.1794        2.2943        0.0000       30.4682       30.4682      28.173858       0.01276
  44    0.2165        2.2943        0.0000       30.4681       30.4681      28.173803       0.01252
  43    0.2613        2.2943        0.0000       30.4681       30.4681      28.173737       0.01228
  42    0.3336        2.2943        0.0000       30.4679       30.4680      28.173630       0.01256
  41    0.4307        2.2943        0.0000       30.4678       30.4678      28.173487       0.01241
  40    0.5894        2.2943        0.0001       30.4675       30.4676      28.173254       0.01239
  39     1.339        2.2942        0.0001       30.4662       30.4664      28.172154       0.01238
  38     1.782        2.2942        0.0002       30.4655       30.4657      28.171510       0.01227
  37     2.292        2.2941        0.0002       30.4647       30.4649      28.170765       0.01234
  36     2.964        2.2949        0.0004       27.1402       27.1405      24.845636      41.74042
  35     3.853        2.2952        0.0005       26.6776       26.6781      24.382853       4.39189
  34     5.035        2.2954        0.0006       26.4496       26.4502      24.154742       1.62953
  33     6.613        2.2955        0.0007       26.3176       26.3184      24.022913       0.70476
  32     8.786        2.2954        0.0009       26.2328       26.2338      23.938357       0.32838
  31     11.80        2.2952        0.0012       26.1685       26.1698      23.874511       0.17875
  30     15.07        2.2950        0.0015       26.1261       26.1276      23.832600       0.10821
  29     18.79        2.2948        0.0019       26.0933       26.0952      23.800474       0.07284
  28     23.16        2.2944        0.0023       26.0640       26.0663      23.771856       0.05534
  27     28.12        2.2940        0.0028       26.0382       26.0409      23.746888       0.04244
  26     33.73        2.2936        0.0033       26.0154       26.0187      23.725068       0.03281
  25     40.54        2.2931        0.0039       25.9927       25.9966      23.703510       0.02675
  24     48.69        2.2924        0.0047       25.9672       25.9719      23.679451       0.02490
  23     57.69        2.2917        0.0055       25.9399       25.9454      23.653712       0.02413
  22     68.43        2.2908        0.0065       25.9081       25.9146      23.623812       0.02350
  21     81.20        2.2898        0.0077       25.8712       25.8788      23.589070       0.02296
  20     96.49        2.2885        0.0091       25.8283       25.8373      23.548771       0.02224
  19     114.6        2.2871        0.0107       25.7779       25.7887      23.501573       0.02204
  18     136.5        2.2854        0.0127       25.7199       25.7326      23.447222       0.02090
  17     162.9        2.2833        0.0151       25.6527       25.6678      23.384487       0.02005
  16     196.4        2.2806        0.0181       25.5684       25.5865      23.305864       0.01979
  15     218.7        2.2788        0.0201       25.5144       25.5345      23.255665       0.01906
  14     243.0        2.2769        0.0223       25.4568       25.4791      23.202175       0.01855
  13     269.0        2.2749        0.0246       25.3918       25.4165      23.141615       0.01965
  12     297.5        2.2726        0.0272       25.3046       25.3317      23.059080       0.02448
  11     328.5        2.2703        0.0299       25.1649       25.1948      22.924437       0.03661
  10     361.9        2.2680        0.0327       24.9328       24.9655      22.697464       0.05743
   9     398.1        2.2658        0.0356       24.5635       24.5991      22.333274       0.08485
   8     437.6        2.2639        0.0384       24.0079       24.0464      21.782485       0.11776
   7     480.5        2.2625        0.0411       23.2225       23.2636      21.001122       0.15346
   6     533.0        2.2623        0.0439       22.0308       22.0747      19.812380       0.19123
   5     589.8        2.2643        0.0462       20.6778       20.7239      18.459603       0.20080
   4     651.6        2.2697        0.0481       19.2986       19.3467      17.077001       0.18907
   3     718.7        2.2804        0.0498       17.9653       18.0151      15.734656       0.16870
   2     792.3        2.2995        0.0514       16.6953       16.7466      14.447112       0.14767
   1     891.5        2.3421        0.0532       15.2466       15.2998      12.957638       0.12675
   0    1013.0        2.4357        0.0552       13.8036       13.8588      11.423053       0.10655



 Wavenumbers:  7700. -  8050. cm-1, ATM      1
 LEVEL PRESSURE   UPWARD FLUX   DIFDOWN FLUX  DIRDOWN FLUX  DOWNWARD FLUX   NET FLUX    HEATING RATE
          mb          W/m2          W/m2          W/m2        W/m2          W/m2       degree/day
  51    .06700        1.0535        0.0000        7.2006        7.2006       6.147085       0.00000
  50    .07753        1.0535        0.0000        7.2006        7.2006       6.147066       0.01478
  49    .09103        1.0535        0.0000        7.2005        7.2005       6.147043       0.01448
  48    0.1069        1.0535        0.0000        7.2005        7.2005       6.147017       0.01418
  47    0.1255        1.0535        0.0000        7.2005        7.2005       6.146986       0.01387
  46    0.1487        1.0535        0.0000        7.2004        7.2005       6.146947       0.01408
  45    0.1794        1.0535        0.0000        7.2004        7.2004       6.146895       0.01448
  44    0.2165        1.0535        0.0000        7.2003        7.2003       6.146832       0.01421
  43    0.2613        1.0535        0.0000        7.2003        7.2003       6.146758       0.01394
  42    0.3336        1.0535        0.0000        7.2001        7.2001       6.146636       0.01426
  41    0.4307        1.0535        0.0000        7.2000        7.2000       6.146474       0.01411
  40    0.5894        1.0535        0.0000        7.1997        7.1997       6.146209       0.01409
  39     1.339        1.0535        0.0001        7.1984        7.1985       6.144956       0.01411
  38     1.782        1.0535        0.0001        7.1977        7.1978       6.144220       0.01401
  37     2.292        1.0536        0.0001        7.1968        7.1969       6.143369       0.01410
  36     2.964        1.0535        0.0002        7.1956        7.1958       6.142251       0.01403
  35     3.853        1.0536        0.0002        7.1941        7.1943       6.140776       0.01400
  34     5.035        1.0536        0.0003        7.1921        7.1924       6.138818       0.01399
  33     6.613        1.0536        0.0003        7.1895        7.1898       6.136205       0.01397
  32     8.786        1.0537        0.0004        7.1859        7.1864       6.132689       0.01365
  31     11.80        1.0537        0.0006        7.1809        7.1814       6.127672       0.01405
  30     15.07        1.0538        0.0007        7.1754        7.1761       6.122300       0.01387
  29     18.79        1.0539        0.0009        7.1693        7.1702       6.116253       0.01371
  28     23.16        1.0540        0.0011        7.1622        7.1632       6.109218       0.01360
  27     28.12        1.0542        0.0013        7.1541        7.1554       6.101211       0.01361
  26     33.73        1.0543        0.0015        7.1451        7.1466       6.092298       0.01340
  25     40.54        1.0545        0.0018        7.1343        7.1361       6.081598       0.01327
  24     48.69        1.0547        0.0021        7.1213        7.1235       6.068798       0.01325
  23     57.69        1.0549        0.0025        7.1073        7.1098       6.054863       0.01306
  22     68.43        1.0552        0.0030        7.0907        7.0936       6.038435       0.01291
  21     81.20        1.0555        0.0035        7.0711        7.0746       6.019099       0.01278
  20     96.49        1.0560        0.0042        7.0482        7.0524       5.996387       0.01254
  19     114.6        1.0565        0.0049        7.0213        7.0262       5.969746       0.01244
  18     136.5        1.0571        0.0058        6.9901        6.9959       5.938799       0.01190
  17     162.9        1.0579        0.0069        6.9538        6.9606       5.902783       0.01151
  16     196.4        1.0589        0.0082        6.9079        6.9162       5.857286       0.01145
  15     218.7        1.0596        0.0091        6.8786        6.8877       5.828137       0.01107
  14     243.0        1.0603        0.0101        6.8473        6.8574       5.797035       0.01079
  13     269.0        1.0612        0.0112        6.8140        6.8252       5.763967       0.01073
  12     297.5        1.0621        0.0123        6.7787        6.7910       5.728851       0.01042
  11     328.5        1.0632        0.0135        6.7413        6.7548       5.691577       0.01013
  10     361.9        1.0644        0.0148        6.7017        6.7165       5.652113       0.00998
   9     398.1        1.0657        0.0162        6.6598        6.6760       5.610263       0.00975
   8     437.6        1.0673        0.0177        6.6154        6.6331       5.565798       0.00951
   7     480.5        1.0690        0.0193        6.5681        6.5874       5.518397       0.00931
   6     533.0        1.0713        0.0212        6.5100        6.5313       5.459913       0.00941
   5     589.8        1.0741        0.0233        6.4471        6.4705       5.396376       0.00943
   4     651.6        1.0774        0.0256        6.3790        6.4046       5.327195       0.00946
   3     718.7        1.0813        0.0279        6.3047        6.3327       5.251393       0.00953
   2     792.3        1.0860        0.0305        6.2233        6.2537       5.167731       0.00960
   1     891.5        1.0932        0.0338        6.1099        6.1437       5.050435       0.00998
   0    1013.0        1.1036        0.0377        5.9668        6.0045       4.900902       0.01038



 Wavenumbers:  8050. - 12850. cm-1, ATM      1
 LEVEL PRESSURE   UPWARD FLUX   DIFDOWN FLUX  DIRDOWN FLUX  DOWNWARD FLUX   NET FLUX    HEATING RATE
          mb          W/m2          W/m2          W/m2        W/m2          W/m2       degree/day
  51    .06700       23.9830        0.0000      100.8135      100.8135      76.830530       0.00000
  50    .07753       23.9830        0.0000      100.8135      100.8135      76.830530       0.00000
  49    .09103       23.9829        0.0001      100.8134      100.8135      76.830530      -0.00000
  48    0.1069       23.9829        0.0001      100.8134      100.8134      76.830530       0.00000
  47    0.1255       23.9829        0.0001      100.8133      100.8134      76.830530      -0.00000
  46    0.1487       23.9828        0.0002      100.8132      100.8134      76.830530       0.00000
  45    0.1794       23.9828        0.0002      100.8131      100.8133      76.830530      -0.00000
  44    0.2165       23.9827        0.0003      100.8129      100.8133      76.830530       0.00000
  43    0.2613       23.9826        0.0004      100.8127      100.8132      76.830530      -0.00000
  42    0.3336       23.9825        0.0006      100.8125      100.8130      76.830530       0.00000
  41    0.4307       23.9823        0.0008      100.8121      100.8129      76.830530       0.00000
  40    0.5894       23.9821        0.0011      100.8115      100.8126      76.830530       0.00000
  39     1.339       23.9808        0.0028      100.8085      100.8113      76.830530      -0.00000
  38     1.782       23.9800        0.0038      100.8068      100.8105      76.830530       0.00000
  37     2.292       23.9791        0.0049      100.8047      100.8096      76.830530       0.00000
  36     2.964       23.9766        0.0080      100.7992      100.8071      76.830530      -0.00000
  35     3.853       23.9746        0.0105      100.7946      100.8051      76.830530       0.00000
  34     5.035       23.9723        0.0134      100.7894      100.8028      76.830530      -0.00000
  33     6.613       23.9694        0.0170      100.7829      100.7999      76.830530      -0.00000
  32     8.786       23.9656        0.0217      100.7744      100.7961      76.830530       0.00000
  31     11.80       23.9602        0.0284      100.7623      100.7908      76.830530      -0.00000
  30     15.07       23.9545        0.0356      100.7494      100.7850      76.830530       0.00000
  29     18.79       23.9480        0.0437      100.7348      100.7785      76.830530       0.00000
  28     23.16       23.9404        0.0531      100.7178      100.7709      76.830530       0.00000
  27     28.12       23.9317        0.0640      100.6983      100.7622      76.830530       0.00000
  26     33.73       23.9220        0.0761      100.6764      100.7525      76.830530       0.00000
  25     40.54       23.9102        0.0908      100.6500      100.7408      76.830530       0.00000
  24     48.69       23.8960        0.1085      100.6181      100.7266      76.830530       0.00000
  23     57.69       23.8804        0.1279      100.5830      100.7110      76.830530       0.00000
  22     68.43       23.8618        0.1511      100.5412      100.6923      76.830530       0.00000
  21     81.20       23.8396        0.1788      100.4913      100.6701      76.830530       0.00000
  20     96.49       23.8130        0.2119      100.4317      100.6436      76.830530      -0.00000
  19     114.6       23.7842        0.2509      100.1231      100.3740      76.589886       0.11236
  18     136.5       23.7492        0.2973       99.8561      100.1535      76.404226       0.07139
  17     162.9       23.7067        0.3526       99.6059       99.9585      76.251774       0.04873
  16     196.4       23.6504        0.4244       99.3360       99.7604      76.110024       0.03568
  15     218.7       23.6129        0.4717       99.1783       99.6500      76.037102       0.02769
  14     243.0       23.5719        0.5231       99.0172       99.5403      75.968371       0.02384
  13     269.0       23.5275        0.5789       98.8460       99.4249      75.897450       0.02301
  12     297.5       23.4795        0.6393       98.6470       99.2863      75.806853       0.02687
  11     328.5       23.4280        0.7045       98.3894       99.0939      75.665921       0.03832
  10     361.9       23.3734        0.7745       98.0380       98.8125      75.439093       0.05739
   9     398.1       23.3162        0.8495       97.5544       98.4040      75.087796       0.08184
   8     437.6       23.2572        0.9294       96.8925       97.8219      74.564689       0.11184
   7     480.5       23.1983        1.0138       95.9939       97.0077      73.809408       0.14833
   6     533.0       23.1349        1.1155       94.6076       95.7230      72.588180       0.19646
   5     589.8       23.0799        1.2220       92.8634       94.0855      71.005526       0.23492
   4     651.6       23.0402        1.3329       90.7899       92.1228      69.082623       0.26296
   3     718.7       23.0260        1.4475       88.4214       89.8689      66.842845       0.28148
   2     792.3       23.0545        1.5648       85.7899       87.3547      64.300226       0.29161
   1     891.5       23.1842        1.7154       82.2135       83.9289      60.744734       0.30256
   0    1013.0       23.5481        1.8839       77.9068       79.7906      56.242512       0.31261



 Wavenumbers: 12850. - 16000. cm-1, ATM      1
 LEVEL PRESSURE   UPWARD FLUX   DIFDOWN FLUX  DIRDOWN FLUX  DOWNWARD FLUX   NET FLUX    HEATING RATE
          mb          W/m2          W/m2          W/m2        W/m2          W/m2       degree/day
  51    .06700       33.2148        0.0000       63.1686       63.1686      29.953743       0.00000
  50    .07753       33.2148        0.0001       63.1677       63.1678      29.952963       0.62471
  49    .09103       33.2148        0.0001       63.1666       63.1668      29.951992       0.60704
  48    0.1069       33.2147        0.0002       63.1654       63.1656      29.950886       0.58857
  47    0.1255       33.2147        0.0003       63.1640       63.1643      29.949629       0.57004
  46    0.1487       33.2147        0.0004       63.1623       63.1627      29.948061       0.57148
  45    0.1794       33.2146        0.0006       63.1600       63.1606      29.945959       0.57706
  44    0.2165       33.2145        0.0008       63.1573       63.1581      29.943528       0.55300
  43    0.2613       33.2145        0.0010       63.1542       63.1552      29.940725       0.52839
  42    0.3336       33.2144        0.0014       63.1493       63.1507      29.936259       0.52074
  41    0.4307       33.2144        0.0019       63.1431       63.1450      29.930662       0.48661
  40    0.5894       33.2143        0.0027       63.1338       63.1365      29.922188       0.45062
  39     1.339       33.2154        0.0065       63.0955       63.1021      29.886624       0.40039
  38     1.782       33.2170        0.0088       63.0739       63.0827      29.865687       0.39860
  37     2.292       33.2197        0.0114       63.0474       63.0588      29.839108       0.44022
  36     2.964       33.2222        0.0186       63.0029       63.0215      29.799328       0.49936
  35     3.853       33.2297        0.0246       62.9441       62.9687      29.739033       0.57221
  34     5.035       33.2422        0.0313       62.8621       62.8933      29.651143       0.62785
  33     6.613       33.2602        0.0396       62.7509       62.7905      29.530303       0.64601
  32     8.786       33.2837        0.0506       62.6066       62.6572      29.373533       0.60884
  31     11.80       33.3137        0.0660       62.4164       62.4824      29.168756       0.57331
  30     15.07       33.3417        0.0825       62.2304       62.3130      28.971293       0.50981
  29     18.79       33.3695        0.1011       62.0369       62.1380      28.768546       0.45969
  28     23.16       33.3975        0.1227       61.8300       61.9527      28.555117       0.41270
  27     28.12       33.4245        0.1474       61.6152       61.7626      28.338092       0.36893
  26     33.73       33.4473        0.1749       61.4051       61.5800      28.132668       0.30886
  25     40.54       33.4663        0.2081       61.1857       61.3938      27.927525       0.25450
  24     48.69       33.4809        0.2480       60.9555       61.2035      27.722581       0.21208
  23     57.69       33.4890        0.2919       60.7353       61.0272      27.538229       0.17280
  22     68.43       33.4899        0.3440       60.5078       60.8518      27.361920       0.13860
  21     81.20       33.4791        0.4061       60.2815       60.6876      27.208533       0.10136
  20     96.49       33.4552        0.4800       60.0520       60.5321      27.076861       0.07267
  19     114.6       33.4262        0.5683       59.7917       60.3600      26.933756       0.06682
  18     136.5       33.3872        0.6726       59.4959       60.1685      26.781356       0.05860
  17     162.9       33.3364        0.7965       59.1538       59.9504      26.614003       0.05349
  16     196.4       33.2614        0.9568       58.7344       59.6912      26.429775       0.04637
  15     218.7       33.2089        1.0617       58.4682       59.5299      26.321005       0.04130
  14     243.0       33.1503        1.1755       58.1834       59.3589      26.208603       0.03898
  13     269.0       33.0853        1.2985       57.8805       59.1790      26.093696       0.03728
  12     297.5       33.0137        1.4312       57.5583       58.9894      25.975695       0.03500
  11     328.5       32.9360        1.5741       57.2126       58.7867      25.850779       0.03396
  10     361.9       32.8521        1.7275       56.8416       58.5691      25.717042       0.03384
   9     398.1       32.7621        1.8922       56.4422       58.3344      25.572247       0.03373
   8     437.6       32.6664        2.0684       56.0097       58.0780      25.411613       0.03434
   7     480.5       32.5657        2.2565       55.5388       57.7953      25.229583       0.03575
   6     533.0       32.4458        2.4868       54.9430       57.4298      24.984027       0.03950
   5     589.8       32.3228        2.7334       54.2803       57.0137      24.690813       0.04352
   4     651.6       32.1997        2.9963       53.5452       56.5415      24.341764       0.04773
   3     718.7       32.0805        3.2756       52.7319       56.0075      23.927041       0.05212
   2     792.3       31.9716        3.5707       51.8345       55.4052      23.433597       0.05659
   1     891.5       31.8625        3.9616       50.5916       54.5532      22.690721       0.06322
   0    1013.0       31.7995        4.4191       49.0732       53.4923      21.692747       0.06929



 Wavenumbers: 16000. - 22650. cm-1, ATM      1
 LEVEL PRESSURE   UPWARD FLUX   DIFDOWN FLUX  DIRDOWN FLUX  DOWNWARD FLUX   NET FLUX    HEATING RATE
          mb          W/m2          W/m2          W/m2        W/m2          W/m2       degree/day
  51    .06700       75.6725        0.0000      100.7153      100.7153      25.042784       0.00000
  50    .07753       75.6724        0.0003      100.7147      100.7151      25.042666       0.09409
  49    .09103       75.6722        0.0007      100.7140      100.7147      25.042495       0.10672
  48    0.1069       75.6721        0.0012      100.7131      100.7143      25.042267       0.12170
  47    0.1255       75.6719        0.0017      100.7121      100.7139      25.041961       0.13872
  46    0.1487       75.6717        0.0024      100.7108      100.7132      25.041510       0.16437
  45    0.1794       75.6714        0.0034      100.7089      100.7122      25.040805       0.19354
  44    0.2165       75.6712        0.0045      100.7066      100.7110      25.039849       0.21751
  43    0.2613       75.6709        0.0058      100.7037      100.7095      25.038551       0.24453
  42    0.3336       75.6706        0.0079      100.6987      100.7066      25.036085       0.28756
  41    0.4307       75.6702        0.0108      100.6918      100.7026      25.032367       0.32324
  40    0.5894       75.6700        0.0155      100.6797      100.6952      25.025277       0.37703
  39     1.339       75.6743        0.0377      100.6095      100.6472      24.972906       0.58960
  38     1.782       75.6809        0.0507      100.5585      100.6092      24.928306       0.84911
  37     2.292       75.6923        0.0658      100.4903      100.5560      24.863768       1.06893
  36     2.964       75.7022        0.1076      100.3539      100.4615      24.759271       1.31175
  35     3.853       75.7338        0.1419      100.1855      100.3274      24.593597       1.57228
  34     5.035       75.7872        0.1804       99.9536      100.1340      24.346702       1.76371
  33     6.613       75.8644        0.2285       99.6400       99.8685      24.004125       1.83142
  32     8.786       75.9650        0.2916       99.2327       99.5243      23.559276       1.72763
  31     11.80       76.0936        0.3806       98.6935       99.0741      22.980432       1.62058
  30     15.07       76.2135        0.4754       98.1634       98.6388      22.425290       1.43327
  29     18.79       76.3326        0.5820       97.6087       98.1907      21.858055       1.28610
  28     23.16       76.4527        0.7060       97.0107       97.7167      21.263951       1.14881
  27     28.12       76.5679        0.8471       96.3842       97.2314      20.663462       1.02079
  26     33.73       76.6649        1.0045       95.7618       96.7662      20.101330       0.84518
  25     40.54       76.7453        1.1940       95.0989       96.2929      19.547627       0.68693
  24     48.69       76.8064        1.4215       94.3863       95.8078      19.001388       0.56527
  23     57.69       76.8392        1.6704       93.6863       95.3567      18.517437       0.45363
  22     68.43       76.8412        1.9656       92.9403       94.9059      18.064713       0.35590
  21     81.20       76.7929        2.3159       92.1685       94.4844      17.691506       0.24661
  20     96.49       76.6885        2.7314       91.3567       94.0882      17.399631       0.16109
  19     114.6       76.5417        3.2214       90.4526       93.6740      17.132312       0.12482
  18     136.5       76.3527        3.7972       89.4258       93.2230      16.870332       0.10074
  17     162.9       76.1148        4.4760       88.2479       92.7239      16.609052       0.08352
  16     196.4       75.7776        5.3460       86.8067       92.1527      16.375146       0.05888
  15     218.7       75.5463        5.9112       85.8956       91.8068      16.260500       0.04353
  14     243.0       75.2913        6.5198       84.9261       91.4459      16.154665       0.03671
  13     269.0       75.0112        7.1729       83.8979       91.0708      16.059636       0.03083
  12     297.5       74.7055        7.8712       82.8102       90.6814      15.975930       0.02483
  11     328.5       74.3752        8.6172       81.6536       90.2708      15.895610       0.02184
  10     361.9       74.0203        9.4104       80.4287       89.8391      15.818861       0.01942
   9     398.1       73.6397       10.2528       79.1321       89.3850      15.745300       0.01714
   8     437.6       73.2335       11.1447       77.7620       88.9067      15.673123       0.01543
   7     480.5       72.8015       12.0862       76.3176       88.4037      15.602226       0.01392
   6     533.0       72.2753       13.2249       74.5706       87.7955      15.520220       0.01319
   5     589.8       71.7162       14.4281       72.7224       87.1505      15.434328       0.01275
   4     651.6       71.1250       15.6936       70.7736       86.4672      15.342165       0.01260
   3     718.7       70.5029       17.0198       68.7242       85.7440      15.241156       0.01269
   2     792.3       69.8522       18.4021       66.5781       84.9802      15.128060       0.01297
   1     891.5       69.0010       20.2067       63.7565       83.9632      14.962233       0.01411
   0    1013.0       68.0220       22.2812       60.4791       82.7603      14.738333       0.01555



 Wavenumbers: 22650. - 29000. cm-1, ATM      1
 LEVEL PRESSURE   UPWARD FLUX   DIFDOWN FLUX  DIRDOWN FLUX  DOWNWARD FLUX   NET FLUX    HEATING RATE
          mb          W/m2          W/m2          W/m2        W/m2          W/m2       degree/day
  51    .06700       34.3505        0.0000       38.0063       38.0063       3.655774       0.00000
  50    .07753       34.3503        0.0004       38.0057       38.0061       3.655774      -0.00000
  49    .09103       34.3501        0.0009       38.0050       38.0059       3.655774       0.00000
  48    0.1069       34.3499        0.0014       38.0042       38.0057       3.655774       0.00000
  47    0.1255       34.3496        0.0021       38.0033       38.0054       3.655774      -0.00000
  46    0.1487       34.3493        0.0029       38.0022       38.0050       3.655774       0.00000
  45    0.1794       34.3488        0.0040       38.0006       38.0046       3.655774       0.00000
  44    0.2165       34.3482        0.0053       37.9987       38.0040       3.655774      -0.00000
  43    0.2613       34.3476        0.0068       37.9965       38.0033       3.655774       0.00000
  42    0.3336       34.3465        0.0094       37.9928       38.0022       3.655774      -0.00000
  41    0.4307       34.3450        0.0128       37.9880       38.0008       3.655774       0.00000
  40    0.5894       34.3426        0.0183       37.9800       37.9984       3.655774      -0.00000
  39     1.339       34.3313        0.0446       37.9425       37.9870       3.655774       0.00000
  38     1.782       34.3246        0.0600       37.9204       37.9804       3.655774       0.00000
  37     2.292       34.3169        0.0778       37.8949       37.9727       3.655774       0.00000
  36     2.964       34.2956        0.1271       37.8243       37.9514       3.655774      -0.00000
  35     3.853       34.2781        0.1676       37.7662       37.9339       3.655774      -0.00000
  34     5.035       34.2584        0.2132       37.7010       37.9142       3.655774       0.00000
  33     6.613       34.2338        0.2702       37.6194       37.8895       3.655774       0.00000
  32     8.786       34.2015        0.3449       37.5124       37.8572       3.655774      -0.00000
  31     11.80       34.1558        0.4503       37.3613       37.8116       3.655774       0.00000
  30     15.07       34.1072        0.5627       37.2002       37.7630       3.655774      -0.00000
  29     18.79       34.0525        0.6890       37.0193       37.7083       3.655774       0.00000
  28     23.16       33.9890        0.8356       36.8091       37.6448       3.655774       0.00000
  27     28.12       33.9167        1.0024       36.5701       37.5725       3.655774      -0.00000
  26     33.73       33.8363        1.1877       36.3044       37.4921       3.655774       0.00000
  25     40.54       33.7398        1.4099       35.9857       37.3956       3.655774      -0.00000
  24     48.69       33.6244        1.6752       35.6049       37.2802       3.655774       0.00000
  23     57.69       33.4989        1.9636       35.1911       37.1547       3.655774      -0.00000
  22     68.43       33.3510        2.3027       34.7041       37.0068       3.655774       0.00000
  21     81.20       33.1772        2.7006       34.1324       36.8330       3.655774      -0.00000
  20     96.49       32.9734        3.1661       33.4631       36.6292       3.655774      -0.00000
  19     114.6       32.7361        3.7068       32.6851       36.3919       3.655774       0.00000
  18     136.5       32.4612        4.3311       31.7859       36.1170       3.655774       0.00000
  17     162.9       32.1427        5.0515       30.7470       35.7985       3.655774       0.00000
  16     196.4       31.7434        5.9500       29.4492       35.3992       3.655774      -0.00000
  15     218.7       31.4895        6.5185       28.6268       35.1453       3.655774       0.00000
  14     243.0       31.2207        7.1179       27.7585       34.8764       3.655774      -0.00000
  13     269.0       30.9375        7.7463       26.8469       34.5932       3.655774       0.00000
  12     297.5       30.6406        8.4015       25.8949       34.2964       3.655774      -0.00000
  11     328.5       30.3300        9.0828       24.9029       33.9858       3.655774       0.00000
  10     361.9       30.0071        9.7865       23.8763       33.6628       3.655774       0.00000
   9     398.1       29.6721       10.5108       22.8170       33.3279       3.655774      -0.00000
   8     437.6       29.3266       11.2515       21.7310       32.9824       3.655774       0.00000
   7     480.5       28.9716       12.0054       20.6219       32.6273       3.655774      -0.00000
   6     533.0       28.5552       12.8790       19.3320       32.2110       3.655774       0.00000
   5     589.8       28.1303       13.7575       18.0286       31.7861       3.655774      -0.00000
   4     651.6       27.6991       14.6343       16.7206       31.3549       3.655774      -0.00000
   3     718.7       27.2640       15.5022       15.4175       30.9197       3.655774       0.00000
   2     792.3       26.8276       16.3530       14.1304       30.4834       3.655774       0.00000
   1     891.5       26.2835       17.3823       12.5569       29.9392       3.655774       0.00000
   0    1013.0       25.6903       18.4571       10.8890       29.3461       3.655774      -0.00000



 Wavenumbers: 29000. - 38000. cm-1, ATM      1
 LEVEL PRESSURE   UPWARD FLUX   DIFDOWN FLUX  DIRDOWN FLUX  DOWNWARD FLUX   NET FLUX    HEATING RATE
          mb          W/m2          W/m2          W/m2        W/m2          W/m2       degree/day
  51    .06700        4.8831        0.0000       13.4026       13.4026       8.519461       0.00000
  50    .07753        4.8829        0.0003       13.3983       13.3986       8.515670       3.03835
  49    .09103        4.8827        0.0007       13.3921       13.3928       8.510162       3.44278
  48    0.1069        4.8823        0.0011       13.3841       13.3851       8.502798       3.91994
  47    0.1255        4.8820        0.0016       13.3734       13.3750       8.492968       4.45625
  46    0.1487        4.8816        0.0022       13.3579       13.3601       8.478551       5.25526
  45    0.1794        4.8810        0.0030       13.3342       13.3372       8.456182       6.14061
  44    0.2165        4.8803        0.0040       13.3025       13.3065       8.426181       6.82482
  43    0.2613        4.8796        0.0052       13.2605       13.2657       8.386131       7.54922
  42    0.3336        4.8783        0.0070       13.1834       13.1905       8.312129       8.62793
  41    0.4307        4.8768        0.0095       13.0730       13.0825       8.205656       9.25757
  40    0.5894        4.8745        0.0134       12.8795       12.8929       8.018475       9.95403
  39     1.339        4.8662        0.0297       11.9153       11.9450       7.078801      10.57903
  38     1.782        4.8631        0.0380       11.4377       11.4757       6.612596       8.87579
  37     2.292        4.8610        0.0468       10.9754       11.0222       6.161272       7.47510
  36     2.964        4.8496        0.0721       10.4473       10.5194       5.669747       6.17013
  35     3.853        4.8470        0.0899        9.9031        9.9930       5.146038       4.97009
  34     5.035        4.8490        0.1081        9.3582        9.4663       4.617281       3.77722
  33     6.613        4.8547        0.1295        8.8326        8.9621       4.107429       2.72567
  32     8.786        4.8630        0.1566        8.3377        8.4943       3.631247       1.84932
  31     11.80        4.8734        0.1935        7.8507        8.0443       3.170869       1.28892
  30     15.07        4.8824        0.2318        7.4733        7.7050       2.822629       0.89909
  29     18.79        4.8908        0.2735        7.1412        7.4147       2.523877       0.67736
  28     23.16        4.8986        0.3205        6.8308        7.1513       2.252740       0.52429
  27     28.12        4.9048        0.3726        6.5435        6.9161       2.011233       0.41055
  26     33.73        4.9071        0.4295        6.2860        6.7155       1.808308       0.30510
  25     40.54        4.9043        0.4967        6.0338        6.5305       1.626190       0.22594
  24     48.69        4.8959        0.5755        5.7812        6.3567       1.460771       0.17118
  23     57.69        4.8820        0.6596        5.5466        6.2062       1.324254       0.12796
  22     68.43        4.8602        0.7570        5.3073        6.0643       1.204185       0.09439
  21     81.20        4.8262        0.8701        5.0666        5.9367       1.110459       0.06193
  20     96.49        4.7788        1.0007        4.8185        5.8192       1.040457       0.03864
  19     114.6        4.7211        1.1488        4.5517        5.7005       0.979450       0.02849
  18     136.5        4.6542        1.3142        4.2622        5.5764       0.922244       0.02200
  17     162.9        4.5775        1.4981        3.9470        5.4451       0.867674       0.01744
  16     196.4        4.4802        1.7183        3.5831        5.3014       0.821152       0.01171
  15     218.7        4.4190        1.8518        3.3664        5.2183       0.799260       0.00831
  14     243.0        4.3552        1.9880        3.1468        5.1349       0.779612       0.00681
  13     269.0        4.2892        2.1257        2.9260        5.0517       0.762435       0.00557
  12     297.5        4.2214        2.2636        2.7055        4.9691       0.747685       0.00437
  11     328.5        4.1527        2.4005        2.4860        4.8865       0.733839       0.00376
  10     361.9        4.0834        2.5349        2.2695        4.8044       0.720938       0.00326
   9     398.1        4.0141        2.6657        2.0574        4.7231       0.708935       0.00280
   8     437.6        3.9452        2.7917        1.8511        4.6428       0.697594       0.00242
   7     480.5        3.8771        2.9115        1.6526        4.5641       0.687019       0.00208
   6     533.0        3.8004        3.0402        1.4360        4.4761       0.675708       0.00182
   5     589.8        3.7260        3.1577        1.2333        4.3909       0.664973       0.00159
   4     651.6        3.6541        3.2627        1.0461        4.3089       0.654708       0.00140
   3     718.7        3.5851        3.3546        0.8754        4.2300       0.644863       0.00124
   2     792.3        3.5193        3.4323        0.7224        4.1547       0.635428       0.00108
   1     891.5        3.4413        3.5092        0.5561        4.0653       0.623998       0.00097
   0    1013.0        3.3608        3.5679        0.4045        3.9724       0.611615       0.00086



 Wavenumbers: 38000. - 50000. cm-1, ATM      1
 LEVEL PRESSURE   UPWARD FLUX   DIFDOWN FLUX  DIRDOWN FLUX  DOWNWARD FLUX   NET FLUX    HEATING RATE
          mb          W/m2          W/m2          W/m2        W/m2          W/m2       degree/day
  51    .06700        0.0054        0.0000        0.8267        0.8267       0.821272       0.00000
  50    .07753        0.0053        0.0001        0.8242        0.8243       0.818939       1.86955
  49    .09103        0.0053        0.0002        0.8207        0.8209       0.815616       2.07732
  48    0.1069        0.0052        0.0002        0.8162        0.8164       0.811257       2.32019
  47    0.1255        0.0051        0.0004        0.8103        0.8106       0.805543       2.59046
  46    0.1487        0.0050        0.0005        0.8018        0.8023       0.797307       3.00195
  45    0.1794        0.0048        0.0007        0.7889        0.7896       0.784751       3.44703
  44    0.2165        0.0046        0.0009        0.7720        0.7729       0.768244       3.75515
  43    0.2613        0.0044        0.0011        0.7500        0.7511       0.746690       4.06275
  42    0.3336        0.0041        0.0015        0.7106        0.7121       0.708000       4.51092
  41    0.4307        0.0037        0.0019        0.6566        0.6584       0.654702       4.63409
  40    0.5894        0.0032        0.0024        0.5680        0.5704       0.567189       4.65382
  39     1.339        0.0018        0.0030        0.2422        0.2452       0.243409       3.64518
  38     1.782        0.0014        0.0026        0.1493        0.1519       0.150554       1.76780
  37     2.292        0.0011        0.0022        0.0924        0.0946       0.093523       0.94459
  36     2.964        0.0006        0.0021        0.0533        0.0554       0.054882       0.48505
  35     3.853        0.0003        0.0016        0.0290        0.0306       0.030321       0.23310
  34     5.035        0.0002        0.0012        0.0151        0.0163       0.016109       0.10152
  33     6.613        0.0001        0.0008        0.0072        0.0080       0.007904       0.04387
  32     8.786        0.0000        0.0005        0.0029        0.0034       0.003405       0.01747
  31     11.80        0.0000        0.0003        0.0009        0.0012       0.001216       0.00613
  30     15.07        0.0000        0.0002        0.0003        0.0005       0.000475       0.00191
  29     18.79        0.0000        0.0001        0.0001        0.0002       0.000189       0.00065
  28     23.16        0.0000        0.0000        0.0000        0.0001       0.000074       0.00022
  27     28.12        0.0000        0.0000        0.0000        0.0000       0.000030       0.00008
  26     33.73        0.0000        0.0000        0.0000        0.0000       0.000012       0.00003
  25     40.54        0.0000        0.0000        0.0000        0.0000       0.000005       0.00001
  24     48.69        0.0000        0.0000        0.0000        0.0000       0.000002       0.00000
  23     57.69        0.0000        0.0000        0.0000        0.0000       0.000001       0.00000
  22     68.43        0.0000        0.0000        0.0000        0.0000       0.000000       0.00000
  21     81.20        0.0000        0.0000        0.0000        0.0000       0.000000       0.00000
  20     96.49        0.0000        0.0000        0.0000        0.0000       0.000000       0.00000
  19     114.6        0.0000        0.0000        0.0000        0.0000       0.000000       0.00000
  18     136.5        0.0000        0.0000        0.0000        0.0000       0.000000       0.00000
  17     162.9        0.0000        0.0000        0.0000        0.0000       0.000000       0.00000
  16     196.4        0.0000        0.0000        0.0000        0.0000       0.000000       0.00000
  15     218.7        0.0000        0.0000        0.0000        0.0000       0.000000       0.00000
  14     243.0        0.0000        0.0000        0.0000        0.0000       0.000000       0.00000
  13     269.0        0.0000        0.0000        0.0000        0.0000       0.000000       0.00000
  12     297.5        0.0000        0.0000        0.0000        0.0000       0.000000       0.00000
  11     328.5        0.0000        0.0000        0.0000        0.0000       0.000000       0.00000
  10     361.9        0.0000        0.0000        0.0000        0.0000       0.000000       0.00000
   9     398.1        0.0000        0.0000        0.0000        0.0000       0.000000       0.00000
   8     437.6        0.0000        0.0000        0.0000        0.0000       0.000000       0.00000
   7     480.5        0.0000        0.0000        0.0000        0.0000       0.000000       0.00000
   6     533.0        0.0000        0.0000        0.0000        0.0000       0.000000       0.00000
   5     589.8        0.0000        0.0000        0.0000        0.0000       0.000000       0.00000
   4     651.6        0.0000        0.0000        0.0000        0.0000       0.000000       0.00000
   3     718.7        0.0000        0.0000        0.0000        0.0000       0.000000       0.00000
   2     792.3        0.0000        0.0000        0.0000        0.0000       0.000000       0.00000
   1     891.5        0.0000        0.0000        0.0000        0.0000       0.000000       0.00000
   0    1013.0        0.0000        0.0000        0.0000        0.0000       0.000000       0.00000



 Wavenumbers:   820. -  2600. cm-1, ATM      1
 LEVEL PRESSURE   UPWARD FLUX   DIFDOWN FLUX  DIRDOWN FLUX  DOWNWARD FLUX   NET FLUX    HEATING RATE
          mb          W/m2          W/m2          W/m2        W/m2          W/m2       degree/day
  51    .06700        0.0951        0.0000        3.8670        3.8670       3.771951       0.00000
  50    .07753        0.0951        0.0000        3.8644        3.8644       3.769352       2.08287
  49    .09103        0.0951        0.0000        3.8638        3.8638       3.768682       0.41878
  48    0.1069        0.0951        0.0000        3.8630        3.8630       3.767933       0.39874
  47    0.1255        0.0951        0.0000        3.8622        3.8622       3.767119       0.36879
  46    0.1487        0.0951        0.0000        3.8613        3.8613       3.766192       0.33798
  45    0.1794        0.0951        0.0000        3.8602        3.8602       3.765083       0.30446
  44    0.2165        0.0951        0.0000        3.8590        3.8590       3.763949       0.25804
  43    0.2613        0.0951        0.0000        3.8579        3.8579       3.762790       0.21851
  42    0.3336        0.0951        0.0000        3.8562        3.8562       3.761105       0.19646
  41    0.4307        0.0951        0.0000        3.8540        3.8540       3.758939       0.18827
  40    0.5894        0.0951        0.0000        3.8505        3.8505       3.755451       0.18550
  39     1.339        0.0951        0.0000        3.8352        3.8352       3.740101       0.17281
  38     1.782        0.0951        0.0000        3.8267        3.8267       3.731622       0.16143
  37     2.292        0.0951        0.0000        3.8172        3.8172       3.722103       0.15766
  36     2.964        0.1049        0.0000        0.8325        0.8325       0.727578      37.59034
  35     3.853        0.1089        0.0000        0.7627        0.7627       0.653800       0.70017
  34     5.035        0.1110        0.0000        0.7352        0.7352       0.624223       0.21129
  33     6.613        0.1120        0.0000        0.7219        0.7219       0.609826       0.07697
  32     8.786        0.1127        0.0000        0.7148        0.7148       0.602172       0.02972
  31     11.80        0.1130        0.0000        0.7105        0.7105       0.597462       0.01319
  30     15.07        0.1132        0.0000        0.7082        0.7082       0.594926       0.00655
  29     18.79        0.1134        0.0000        0.7067        0.7067       0.593305       0.00368
  28     23.16        0.1135        0.0000        0.7056        0.7056       0.592088       0.00235
  27     28.12        0.1136        0.0000        0.7047        0.7047       0.591186       0.00153
  26     33.73        0.1136        0.0000        0.7041        0.7041       0.590509       0.00102
  25     40.54        0.1137        0.0000        0.7036        0.7036       0.589936       0.00071
  24     48.69        0.1137        0.0000        0.7031        0.7031       0.589387       0.00057
  23     57.69        0.1137        0.0000        0.7026        0.7026       0.588881       0.00047
  22     68.43        0.1138        0.0000        0.7022        0.7022       0.588370       0.00040
  21     81.20        0.1138        0.0000        0.7017        0.7017       0.587855       0.00034
  20     96.49        0.1139        0.0000        0.7012        0.7012       0.587334       0.00029
  19     114.6        0.1139        0.0000        0.7008        0.7008       0.586842       0.00023
  18     136.5        0.1140        0.0000        0.7003        0.7003       0.586325       0.00020
  17     162.9        0.1140        0.0000        0.6998        0.6998       0.585847       0.00015
  16     196.4        0.1140        0.0000        0.6995        0.6995       0.585455       0.00010
  15     218.7        0.1140        0.0000        0.6994        0.6994       0.585325       0.00005
  14     243.0        0.1141        0.0000        0.6993        0.6993       0.585226       0.00003
  13     269.0        0.1141        0.0000        0.6992        0.6992       0.585141       0.00003
  12     297.5        0.1141        0.0000        0.6991        0.6991       0.585042       0.00003
  11     328.5        0.1141        0.0000        0.6990        0.6990       0.584899       0.00004
  10     361.9        0.1141        0.0000        0.6988        0.6988       0.584673       0.00006
   9     398.1        0.1141        0.0000        0.6984        0.6984       0.584313       0.00008
   8     437.6        0.1142        0.0000        0.6979        0.6979       0.583753       0.00012
   7     480.5        0.1142        0.0000        0.6971        0.6972       0.582907       0.00017
   6     533.0        0.1144        0.0000        0.6957        0.6958       0.581374       0.00025
   5     589.8        0.1146        0.0000        0.6936        0.6936       0.579065       0.00034
   4     651.6        0.1149        0.0000        0.6900        0.6900       0.575047       0.00055
   3     718.7        0.1155        0.0000        0.6839        0.6839       0.568359       0.00084
   2     792.3        0.1165        0.0000        0.6743        0.6744       0.557884       0.00120
   1     891.5        0.1184        0.0000        0.6560        0.6560       0.537598       0.00173
   0    1013.0        0.1217        0.0000        0.6257        0.6257       0.503994       0.00233

  Modules and versions used in this calculation:

       rrtmg_sw.1col.f90:  $Revision$                    rrtmg_sw_init.f90:  $Revision$        
     rrtmgsw_cldprop.f90:  $Revision$                  rrtmgsw_cldprmc.f90:  NOT USED          
     rrtmg_sw_reftra.f90:  $Revision$                  rrtmg_sw_spcvrt.f90:  NOT USED          
     rrtmg_sw_spcvmc.f90:  NOT USED                    rrtmgsw_setcoef.f90:  NOT USED          
     rrtmg_sw_taumol.f90:  $Revision$                  rrtmg_sw_vrtqdr.f90:  NOT USED          
                rrtatm.f:  NOT USED                             util_xxx.f:  NOT USED          
                 extra.f:  NOT USED                       rrtmg_sw_k_g.f90:  $Revision$        

